TIME,AF3,F7,F3,F4,F8,AF4
5936205,-194,440,451,726,-255,-114
5936224,-211,429,440,713,-273,-122
5936240,-252,388,384,661,-315,-160
5936259,-242,419,383,651,-295,-157
5936275,-266,369,350,621,-343,-162
5936306,-299,335,334,622,-362,-182
5936323,-298,349,348,624,-336,-157
5936340,-284,380,357,626,-333,-155
5936356,-297,369,346,615,-344,-158
5936373,-269,383,364,646,-308,-123
5936390,-283,375,355,632,-322,-129
5936423,-294,352,333,624,-306,-144
5936440,-326,350,316,589,-321,-170
5936457,-322,346,324,627,-285,-147
5936474,-313,358,330,606,-229,-156
5936493,-358,315,316,593,-254,-182
5936521,-325,341,333,616,-219,-157
5936556,-379,289,308,587,-297,-205
5936572,-369,346,317,591,-311,-188
5936589,-341,328,342,607,-276,-180
5936606,-352,339,341,602,-287,-181
5936622,-357,337,320,599,-293,-183
5936639,-389,328,308,593,-317,-191
5936655,-358,334,318,595,-286,-179
5936673,-386,321,292,555,-339,-207
5936689,-391,320,288,565,-344,-229
5936705,-376,320,304,566,-346,-211
5936722,-384,324,298,569,-344,-232
5936739,-382,317,295,569,-353,-220
5936755,-397,303,272,561,-350,-230
5936787,-383,324,281,564,-337,-218
5936804,-404,312,263,537,-373,-235
5936820,-402,307,278,561,-378,-250
5936838,-414,277,260,548,-398,-226
5936855,-432,264,233,511,-416,-266
5936872,-447,250,214,503,-437,-269
5936888,-452,226,204,499,-416,-278
5936905,-434,258,222,511,-416,-264
5936921,-467,223,189,476,-410,-335
5936939,-470,181,172,469,-439,-374
5936955,-505,200,155,458,-432,-425
5936972,-506,177,155,448,-415,-438
5936988,-481,198,176,457,-402,-429
5937006,-507,199,167,462,-418,-448
5937022,-486,198,175,453,-417,-441
5937038,-473,202,178,478,-414,-414
5937054,-475,211,181,473,-418,-426
5937072,-478,217,177,461,-413,-410
5937088,-472,210,185,484,-403,-401
5937105,-491,209,167,440,-420,-419
5937122,-476,217,188,477,-430,-393
5937139,-456,249,194,482,-409,-364
5937154,-458,246,211,489,-406,-364
5937172,-446,251,212,501,-412,-347
5937187,-439,260,214,508,-412,-327
5937205,-453,261,214,483,-424,-333
5937221,-445,269,205,497,-415,-319
5937238,-445,263,215,494,-433,-311
5937255,-479,246,185,461,-452,-341
5937272,-444,259,210,494,-432,-320
5937288,-436,282,219,510,-431,-319
5937305,-448,261,189,467,-446,-362
5937321,-461,277,195,471,-443,-370
5937338,-445,266,208,474,-454,-380
5937355,-440,276,217,488,-433,-354
5937371,-432,276,211,492,-435,-358
5937388,-428,283,217,478,-449,-364
5937405,-407,296,239,505,-442,-346
5937422,-442,264,216,495,-448,-357
5937438,-440,257,214,481,-472,-374
5937455,-444,265,211,482,-458,-353
5937486,-426,296,231,504,-439,-337
5937503,-435,294,222,489,-443,-354
5937520,-425,285,215,502,-441,-328
5937536,-416,295,237,512,-414,-311
5937553,-411,296,252,533,-417,-275
5937569,-389,291,268,541,-401,-273
5937602,-250,328,302,601,-359,-190
5937619,-177,317,227,585,-355,-197
5937636,-14,372,245,632,-326,-151
5937652,-30,374,268,637,-341,-148
5937670,-29,360,260,658,-321,-143
5937686,-23,362,284,663,-315,-118
5937718,-25,9,261,663,-325,-121
5937736,-1,1,247,675,-340,-117
5937753,20,75,262,688,-315,-110
5937769,31,115,279,703,-325,-91
5937786,13,140,277,723,-313,-92
5937802,-8,151,262,690,-348,-118
5937834,83,133,209,692,-335,-111
5937853,84,133,223,711,-313,-85
5937869,57,122,222,701,-305,-97
5937885,-2,140,276,700,-308,-94
5937902,-20,185,306,722,-290,-90
5937919,-8,197,317,732,-269,-57
5937951,-33,182,320,716,-270,-66
5937969,-62,193,324,716,-281,-81
5937985,-70,212,323,710,-279,-84
5938001,-90,260,348,712,-261,-83
5938018,-65,283,361,736,-235,-37
5938035,-52,296,375,751,-229,-29
5938067,-55,304,376,725,-241,-36
5938084,-56,294,385,716,-245,-31
5938101,-82,297,401,725,-233,-31
5938119,-211,303,433,715,-224,-40
5938135,-206,303,446,724,-229,-39
5938152,-191,324,453,724,-229,-44
5938184,-335,316,499,719,-216,-34
5938201,-306,319,533,748,-179,-24
5938218,-254,317,519,750,-182,-24
5938235,-175,390,579,823,-132,35
5938251,-152,394,550,793,-115,54
5938268,-200,350,535,779,-157,-4
5938301,-195,350,530,750,-160,-31
5938318,-208,332,517,744,-181,-34
5938335,-221,336,511,750,-179,-54
5938352,-189,329,534,724,-180,-43
5938368,-215,324,517,715,-199,-134
5938385,-177,352,534,747,-152,-187
5938417,-176,381,550,760,-121,-268
5938434,-184,373,549,763,-118,-294
5938450,-155,397,557,763,-112,-323
5938468,-168,405,535,753,-113,-345
5938484,-189,381,527,723,-122,-411
5938501,-183,383,511,724,-129,-420
5938534,-198,357,498,687,-91,-455
5938551,-180,380,501,701,-66,-451
5938567,-180,392,509,723,-32,-437
5938584,-185,399,511,719,-48,-451
5938601,-187,393,533,737,-14,-448
5938617,-191,381,504,715,-23,-459
5938651,-206,349,515,744,-4,-442
5938668,-233,374,503,712,-36,-475
5938684,-265,389,504,711,-35,-462
5938701,-272,388,506,729,-27,-448
5938718,-291,396,509,712,-27,-460
5938734,-279,440,548,753,12,-400
5938766,-324,461,538,724,4,-395
5938784,-338,454,532,714,-25,-420
5938800,-324,477,552,744,-19,-391
5938817,-323,491,537,718,-32,-389
5938834,-329,488,528,727,-30,-386
5938851,-356,437,495,682,-82,-413
5938882,-372,394,468,658,-121,-439
5938900,-394,363,415,617,-161,-454
5938916,-410,364,425,622,-183,-463
5938933,-392,381,428,624,-183,-447
5938950,-398,372,426,628,-185,-437
5938967,-381,393,432,625,-189,-424
5938998,-384,394,416,628,-204,-410
5939016,-392,401,409,619,-191,-395
5939033,-362,419,447,661,-192,-376
5939050,-228,666,646,873,31,-240
5939066,-111,658,652,872,34,-146
5939083,-108,673,656,873,39,-163
5939115,-92,693,655,878,31,-155
5939133,-91,688,661,888,33,-164
5939149,-119,687,636,862,24,-188
5939166,-121,668,630,868,31,-196
5939183,-114,692,655,879,29,-186
5939199,-103,689,631,868,30,-182
5939216,-92,687,660,860,12,-195
5939232,-133,659,621,840,-8,-218
5939249,-114,679,624,853,-3,-207
5939266,-111,685,618,841,-23,-215
5939282,-90,691,636,876,31,-177
5939299,-90,694,634,873,-5,-188
5939316,-74,717,655,859,-6,-182
5939348,-63,706,640,883,44,-160
5939365,-81,697,627,876,24,-170
5939382,-97,688,600,848,27,-185
5939399,-96,693,602,862,1,-180
5939415,-98,687,590,848,2,-184
5939432,-92,687,577,840,1,-172
5939464,-112,682,564,816,-34,-190
5939482,-88,693,576,816,-40,-188
5939498,-107,660,562,813,-64,-225
5939515,-58,693,573,826,-55,-191
5939532,-57,694,568,825,-58,-195
5939548,-29,691,570,834,-28,-169
5939581,-13,725,588,865,-3,-153
5939598,2,723,574,844,-28,-149
5939615,2,708,575,849,-18,-143
5939631,-60,624,508,786,-85,-201
5939648,-145,495,386,678,-198,-305
5939665,-116,498,342,651,-217,-326
5939697,-29,486,301,650,-186,-311
5939715,35,523,347,684,-143,-252
5939731,46,536,392,739,-95,-214
5939747,30,501,391,729,-51,-200
5939765,-30,448,374,708,-55,-219
5939781,-57,437,421,729,6,-171
5939814,-93,421,369,667,-57,-224
5939831,-39,458,350,692,-73,-224
5939848,66,527,371,707,-62,-176
5939864,311,550,329,729,-48,-147
5939881,308,512,294,707,-81,-180
5939897,228,393,215,637,-166,-252
5939914,183,337,190,602,-179,-284
5939931,151,304,181,596,-173,-286
5939947,167,316,199,594,-169,-273
5939964,184,351,232,630,-161,-242
5939981,146,367,212,620,-126,-246
5939999,155,407,250,634,-98,-221
5940015,143,418,269,663,-83,-187
5940046,81,469,337,686,-29,-159
5940064,79,477,368,720,-27,-149
5940079,57,449,354,696,-24,-175
5940097,70,428,334,669,-40,-177
5940114,34,417,341,660,-65,-189
5940130,-5,428,355,659,-84,-191
5940148,-30,431,351,657,-92,-200
5940164,-14,418,372,674,-87,-178
5940181,-55,403,348,652,-97,-189
5940198,-37,412,364,665,-85,-183
5940215,5,431,368,687,-72,-181
5940231,16,430,387,692,-61,-143
5940248,-50,384,381,694,-94,-155
5940279,-95,409,389,690,-93,-158
5940296,-91,454,400,687,-96,-171
5940313,-108,456,412,687,-104,-145
5940330,-147,441,382,666,-122,-166
5940347,-149,450,413,688,-119,-152
5940363,-185,454,448,693,-134,-166
5940379,-209,437,410,684,-145,-180
5940397,-244,427,413,666,-154,-172
5940413,-264,419,392,659,-180,-177
5940430,-256,422,399,654,-181,-172
5940446,-276,415,389,656,-210,-171
5940463,-272,411,392,659,-200,-174
5940480,-290,404,380,624,-236,-188
5940513,-252,421,409,655,-214,-153
5940530,-265,451,418,690,-189,-129
5940546,-207,493,476,749,-113,-76
5940563,-147,551,533,828,-57,1
5940580,-108,600,568,847,-27,28
5940597,-125,595,558,847,-34,9
5940628,-90,597,597,877,8,64
5940645,-92,591,564,860,-19,24
5940661,-84,596,576,873,-5,32
5940679,-64,603,597,873,-5,64
5940696,-65,595,598,892,15,66
5940712,-64,592,597,872,-8,70
5940729,-64,597,596,877,-6,67
5940761,-56,632,602,865,-2,73
5940778,-51,634,596,840,-7,89
5940796,-41,601,575,839,0,110
5940813,-33,602,554,824,9,122
5940830,-35,590,527,811,-21,131
5940846,-29,598,536,818,-36,173
5940878,-28,588,560,830,-68,214
5940896,-36,593,531,809,-78,209
5940913,21,647,592,851,-54,246
5940929,43,639,589,843,-60,218
5940945,80,662,568,847,-67,216
5940962,145,662,569,864,-37,217
5940979,194,663,544,858,-61,206
5941010,150,656,525,831,-69,148
5941028,164,660,542,845,-67,154
5941045,253,660,514,839,-81,140
5941061,267,694,531,844,-80,143
5941078,255,672,527,838,-89,128
5941095,204,632,501,791,-115,88
5941127,69,585,504,756,-152,28
5941145,-1,582,511,716,-165,13
5941161,-38,566,506,713,-179,8
5941178,-38,563,530,718,-171,25
5941194,-26,565,532,718,-183,35
5941212,6,592,540,717,-202,40
5941228,31,602,562,714,-197,67
5941260,47,628,620,745,-154,95
5941277,29,629,620,750,-149,100
5941294,2,600,625,724,-145,95
5941312,-43,554,590,698,-159,58
5941328,-29,604,628,709,-166,60
5941344,-65,567,616,690,-188,51
5941376,-32,605,659,719,-174,71
5941394,-25,629,693,720,-174,70
5941411,-2,632,689,714,-223,53
5941430,-6,629,685,718,-228,60
5941446,8,629,663,714,-248,66
5941462,38,627,696,747,-239,104
5941479,28,628,682,716,-257,84
5941496,3,625,660,715,-278,60
5941513,-3,627,674,706,-270,51
5941529,149,705,730,789,-185,173
5941546,143,687,727,785,-187,173
5941562,99,650,699,742,-224,144
5941580,112,656,721,768,-212,166
5941609,110,664,700,755,-221,187
5941626,67,636,689,714,-251,147
5941643,58,633,684,728,-247,186
5941659,78,637,678,712,-246,171
5941677,117,640,657,700,-252,178
5941694,259,663,608,695,-258,186
5941710,288,640,591,688,-297,160
5941727,363,659,597,704,-241,184
5941743,329,615,538,647,-301,146
5941760,329,648,572,663,-267,158
5941776,182,643,591,638,-315,142
5941795,89,604,562,590,-364,87
5941811,72,596,564,584,-403,52
5941842,173,599,536,594,-397,29
5941859,187,629,534,592,-378,25
5941876,148,979,519,566,-402,-7
5941894,128,976,501,530,-423,-37
5941909,158,1037,537,571,-393,6
5941927,91,995,531,530,-409,-21
5941959,-4,695,534,531,-384,-30
5941976,-13,503,513,529,-387,-50
5941993,-34,483,498,509,-409,-60
5942009,-72,477,504,525,-414,-65
5942026,-121,391,506,532,-423,-59
5942042,-128,342,513,537,-448,-66
5942077,-134,350,535,557,-434,-57
5942092,-159,387,540,571,-420,-61
5942109,-162,397,553,596,-411,-44
5942126,-158,393,544,569,-419,-40
5942142,-184,463,541,579,-427,-38
5942159,-187,513,541,566,-447,-62
5942176,-164,545,535,589,-457,-60
5942193,-155,545,532,585,-480,-66
5942209,-171,507,537,601,-476,-32
5942226,-181,504,551,620,-478,-36
5942242,-194,475,563,627,-500,-14
5942259,-226,357,571,629,-509,-12
5942275,-191,435,593,651,-485,13
5942307,-180,594,597,682,-478,42
5942326,-181,442,605,686,-478,58
5942343,-154,584,594,661,-473,55
5942358,-144,614,638,717,-460,55
5942374,-94,807,636,713,-428,65
5942392,-91,836,656,718,-409,88
5942408,-91,848,658,742,-413,91
5942425,-66,842,656,770,-362,88
5942441,-67,846,664,818,-332,99
5942459,-65,861,681,870,-339,85
5942475,-62,871,684,937,-308,90
5942492,-30,895,683,983,-370,93
5942508,-18,910,684,1040,-391,121
5942525,5,859,687,1056,-407,112
5942544,-30,826,683,1050,-390,68
5942558,-35,796,684,1043,-383,61
5942577,-41,823,683,1040,-364,55
5942593,-15,894,696,1056,-330,76
5942609,-24,918,705,1040,-326,94
5942625,-23,893,708,1026,-334,94
5942657,-52,853,682,967,-385,55
5942674,-29,866,703,969,-348,84
5942691,-33,875,690,935,-346,83
5942708,-36,955,724,942,-306,107
5942725,-32,1057,720,915,-318,134
5942741,-67,1531,716,905,-350,119
5942757,-83,1726,714,863,-391,82
5942774,-122,1854,717,840,-388,77
5942791,-138,1894,715,815,-367,76
5942807,-161,1886,717,803,-386,63
5942826,-125,1868,721,813,-330,97
5942841,-158,1851,713,800,-360,65
5942859,-95,1859,722,815,-336,89
5942889,-31,1722,690,782,-343,56
5942907,-36,1632,692,776,-312,48
5942924,30,1523,692,786,-298,68
5942940,121,1409,638,766,-249,42
5942957,228,1301,601,753,-126,25
5942974,233,1137,585,728,-62,-16
5942991,315,1128,524,744,33,-3
5943008,644,1134,484,747,82,26
5943024,649,1156,479,716,109,-5
5943041,630,1167,477,723,229,-2
5943058,608,1133,467,717,431,-18
5943075,590,1098,437,706,670,-42
5943091,602,1115,472,719,1075,-39
5943122,555,1218,501,708,1604,-96
5943140,574,1352,507,723,1642,-39
5943156,597,1347,506,687,1645,-50
5943173,625,1389,540,748,1829,2
5943190,627,1405,567,750,1860,6
5943206,602,1355,556,760,2007,3
5943239,362,1203,602,754,2107,25
5943256,329,1066,591,768,2075,32
5943273,290,892,571,742,1905,62
5943290,238,854,573,749,1630,63
5943307,214,987,566,750,1300,102
5943323,221,1234,573,780,1141,127
5943355,211,1741,592,816,811,188
5943372,213,1778,587,787,752,181
5943390,188,1764,601,809,658,183
5943406,203,1701,601,803,553,202
5943423,150,1653,591,774,424,178
5943439,120,1628,589,787,317,179
5943471,96,1718,531,736,314,153
5943488,81,1855,535,747,331,156
5943505,68,2023,532,746,362,139
5943523,-65,2369,519,725,440,54
5943540,-137,2653,523,695,703,41
5943556,-230,2915,503,663,886,-40
5943587,-186,3547,490,664,1441,-104
5943605,-140,3837,540,724,1512,-83
5943621,-163,4000,540,716,1420,-103
5943639,-183,4024,540,707,1249,-112
5943656,-230,3693,518,693,928,-186
5943672,-232,3541,490,659,760,-185
5943689,-279,3462,469,655,690,-238
5943706,-327,3455,437,615,633,-282
5943723,-318,4206,457,652,846,-277
5943739,-322,4469,480,674,828,-279
5943756,-341,5153,483,673,909,-261
5943773,-340,5254,510,701,711,-252
5943789,-196,5282,534,742,586,-152
5943820,4,1493,414,734,279,-87
5943837,175,1106,290,677,118,-121
5943855,535,914,194,705,-31,-50
5943870,567,793,155,691,-177,-66
5943888,677,752,143,699,-284,-34
5943906,695,641,145,687,-304,-51
5943922,677,967,176,686,-232,-66
5943938,505,2507,201,668,11,-98
5943955,364,4197,235,654,625,-118
5943972,158,5275,303,654,1431,-139
5943988,125,5442,315,649,2516,-172
5944006,115,5009,322,628,3250,-209
5944021,-10,4454,342,621,3559,-256
5944038,17,4060,440,687,3617,-186
5944070,-192,3405,513,725,3410,-97
5944087,-222,3159,554,754,3064,-38
5944104,-279,3084,560,768,2809,-39
5944120,-347,2987,598,801,2557,14
5944137,-417,2911,625,816,2297,33
5944154,-445,2835,604,817,2107,65
5944188,-451,2938,597,823,1535,63
5944204,-512,2958,576,801,1287,48
5944221,-570,2965,591,812,1066,61
5944237,-602,2927,592,795,864,51
5944255,-579,2837,592,817,723,92
5944271,-594,2689,543,779,574,61
5944302,-611,2549,562,804,410,97
5944320,-652,2473,538,782,321,94
5944340,-669,2413,531,774,292,89
5944353,-679,2329,534,761,320,92
5944370,-679,2257,532,764,397,88
5944387,-667,2170,532,769,522,93
5944419,-360,1974,420,778,683,134
5944436,-51,1872,333,778,710,156
5944453,114,1816,257,818,757,194
5944470,402,1679,151,759,618,180
5944487,533,1627,112,765,479,178
5944503,593,1562,95,775,309,181
5944535,623,1473,41,747,77,173
5944552,683,1504,104,813,103,218
5944571,684,1458,128,832,169,238
5944586,675,1401,103,788,157,245
5944603,647,1263,104,795,175,210
5944620,671,1215,118,806,111,205
5944652,674,1193,153,840,-63,247
5944670,530,1182,197,843,-102,262
5944686,407,1138,197,805,-169,218
5944702,390,1103,180,775,-222,202
5944719,425,1006,163,794,-176,214
5944737,565,926,104,770,-148,174
5944768,561,868,104,759,-57,172
5944786,573,847,100,768,31,177
5944803,531,805,81,742,37,149
5944819,568,787,118,774,43,168
5944837,520,742,114,772,-14,146
5944852,548,803,149,804,-23,185
5944885,592,757,174,816,-57,207
5944902,574,719,184,820,-57,188
5944919,559,683,169,825,-78,189
5944936,566,668,177,824,-91,186
5944953,565,660,182,843,-129,198
5944969,568,662,223,858,-134,223
5945001,430,658,269,857,-164,188
5945019,404,627,272,848,-219,164
5945034,430,605,276,873,-234,206
5945052,421,629,279,872,-204,191
5945069,423,684,354,941,-91,271
5945087,359,720,371,930,-14,283
5945119,458,589,251,884,-111,217
5945135,539,525,209,864,-194,191
5945152,506,525,186,840,-273,163
5945168,473,504,210,861,-265,159
5945185,275,475,208,791,-340,61
5945202,209,626,378,931,-171,219
5945233,-257,513,389,801,-272,93
5945251,-358,556,486,895,-326,4
5945268,-289,498,466,861,-231,100
5945285,-350,524,475,857,-222,108
5945301,-416,535,533,879,-128,125
5945318,-478,568,533,884,-144,92
5945350,-491,674,578,906,-65,115
5945367,-456,800,630,934,-27,148
5945385,-474,880,626,932,-9,146
5945401,-509,971,623,929,-10,122
5945418,-471,1066,635,928,51,126
5945434,-467,1202,632,945,88,153
5945466,-534,1416,602,923,170,121
5945484,-576,1516,605,896,206,125
5945501,-627,1551,598,890,224,88
5945517,-634,1541,573,862,242,67
5945534,-664,1569,563,854,238,51
5945551,-653,1548,560,862,249,58
5945583,-615,1521,571,879,211,66
5945600,-655,1388,513,809,144,-7
5945619,-628,1407,507,814,189,0
5945635,-624,1440,537,850,306,11
5945651,-600,1440,536,853,275,-40
5945667,-562,1471,535,864,293,-61
5945699,-563,1439,524,848,270,-123
5945716,-556,1439,536,858,313,-163
5945733,-578,1423,502,839,282,-220
5945750,-593,1406,473,817,323,-255
5945767,-593,1424,471,817,303,-279
5945783,-636,1376,432,773,369,-334
5945800,-545,1410,485,839,511,-266
5945817,-541,1413,477,836,500,-273
5945834,-520,1392,508,846,542,-262
5945850,-473,1392,495,859,536,-254
5945868,-432,1401,442,858,544,-272
5945885,-403,1421,420,831,538,-239
5945901,-474,1277,318,739,458,-322
5945932,-512,1315,317,739,500,-351
5945948,-526,1330,311,749,528,-348
5945965,-518,1349,315,740,508,-346
5945983,-536,1398,283,707,472,-395
5946000,-527,1420,289,718,476,-378
5946017,-535,1413,258,694,449,-409
5946048,-559,1461,272,690,474,-426
5946065,-617,1398,280,700,480,-415
5946082,-671,1433,254,661,458,-455
5946100,-630,1390,311,715,459,-400
5946116,-700,1388,234,637,449,-464
5946134,-717,1384,265,642,400,-480
5946166,-708,1325,244,611,323,-489
5946183,-662,1403,277,632,369,-444
5946199,-673,1403,247,618,396,-446
5946216,-755,1305,204,587,330,-501
5946232,-749,1354,222,577,423,-486
5946249,-761,1297,222,593,464,-486
5946282,-808,1247,193,568,410,-503
5946299,-815,1267,184,570,383,-528
5946316,-779,1354,194,598,373,-498
5946332,-778,1265,197,602,293,-466
5946349,-754,1342,217,595,332,-476
5946366,-834,1204,133,519,260,-544
5946397,-895,1090,65,441,157,-612
5946414,-940,1045,23,389,175,-671
5946432,-899,1069,31,414,209,-621
5946449,-916,992,14,379,130,-655
5946465,-936,1032,-22,357,105,-681
5946482,-940,941,-16,357,101,-663
5946517,-956,943,-35,326,43,-702
5946530,-895,995,-21,361,61,-652
5946547,-866,975,1,390,144,-621
5946564,-881,926,-67,317,26,-683
5946581,-934,874,-62,279,31,-692
5946598,-933,805,-103,231,-41,-713
5946632,-972,846,-91,255,-25,-724
5946648,-967,794,-110,239,-64,-720
5946665,-944,824,-91,283,-10,-672
5946683,-895,890,-14,335,-7,-608
5946699,-846,832,-7,374,21,-577
5946716,-769,914,39,401,68,-549
5946747,-779,856,3,386,83,-566
5946764,-811,828,-3,369,35,-572
5946781,-808,888,-7,384,57,-567
5946798,-830,886,4,363,63,-610
5946814,-836,920,24,381,53,-566
5946831,-890,921,52,387,67,-559
5946863,-919,917,92,392,95,-535
5946881,-886,919,96,421,99,-530
5946896,-846,898,95,422,89,-519
5946913,-835,924,94,415,129,-513
5946931,-814,894,95,416,91,-506
5946948,-807,941,126,450,97,-496
5946980,-809,916,127,431,55,-495
5946997,-801,902,123,429,7,-509
5947014,-786,883,136,430,16,-495
5947030,-733,913,196,507,67,-449
5947047,-733,848,158,466,16,-475
5947064,-741,829,160,452,-16,-474
5947096,-692,775,188,502,-78,-443
5947114,-695,784,191,499,-121,-452
5947130,-688,772,191,514,-132,-409
5947146,-644,797,226,539,-113,-408
5947164,-605,819,256,565,-103,-354
5947180,-624,762,238,558,-136,-350
5947212,-640,644,178,486,-378,-391
5947230,-578,643,180,514,-454,-343
5947247,-428,628,119,496,-538,-366
5947263,-439,626,148,524,-645,-322
5947281,-538,648,154,497,-652,-404
5947297,-539,658,153,484,-750,-423
5947328,-520,596,108,453,-866,-488
5947346,-518,603,91,447,-854,-504
5947362,-193,588,-79,441,-889,-508
5947380,-4,571,-74,438,-895,-533
5947396,-61,489,-157,362,-987,-614
5947412,-53,507,-123,398,-970,-574
5947446,-50,534,-104,414,-952,-512
5947463,-40,489,-120,403,-1025,-502
5947480,-56,495,-145,362,-1066,-535
5947496,-31,485,-133,381,-1097,-514
5947513,-2,477,-126,411,-1015,-480
5947529,-28,473,-131,407,-986,-476
5947561,25,470,-125,415,-978,-433
5947578,27,416,-129,415,-1058,-419
5947597,38,423,-149,387,-997,-425
5947612,20,412,-175,366,-1105,-451
5947630,34,363,-182,375,-1095,-453
5947646,38,392,-190,379,-1108,-437
5947678,277,356,-279,353,-1158,-461
5947696,318,325,-252,362,-1097,-440
5947711,319,358,-241,377,-1113,-430
5947730,324,287,-227,383,-1106,-440
5947745,358,323,-231,365,-1062,-405
5947762,368,330,-222,379,-1110,-418
5947794,364,299,-227,362,-1154,-425
5947812,405,329,-173,387,-1042,-408
5947829,377,311,-197,370,-1053,-411
5947845,376,312,-188,357,-1143,-420
5947862,396,335,-186,354,-1108,-399
5947879,367,291,-202,343,-1090,-432
5947910,364,260,-177,360,-1098,-404
5947927,374,314,-157,365,-1105,-405
5947945,352,211,-191,357,-1140,-416
5947962,353,279,-158,385,-1087,-390
5947978,372,224,-160,384,-1107,-388
5947995,383,295,-143,408,-1141,-369
5948012,361,267,-130,379,-1051,-382
5948044,381,231,-117,393,-1050,-375
5948061,370,266,-124,395,-1054,-364
5948077,412,262,-91,420,-1081,-324
5948095,379,271,-93,391,-1046,-365
5948111,393,233,-81,410,-1073,-346
5948129,413,276,-32,454,-985,-343
5948161,374,275,-39,434,-998,-342
5948178,343,266,-39,406,-1056,-376
5948194,375,279,2,455,-1005,-314
5948211,418,291,36,484,-1013,-271
5948228,483,411,101,545,-864,-232
5948244,472,409,85,523,-923,-275
5948277,501,399,126,564,-912,-286
5948294,468,389,125,546,-926,-330
5948311,440,388,125,552,-897,-332
5948327,384,359,79,496,-960,-380
5948344,392,344,99,511,-960,-372
5948363,391,343,96,517,-917,-362
5948395,389,362,100,522,-895,-338
5948412,388,345,101,511,-924,-319
5948429,367,353,75,497,-952,-317
5948445,342,327,75,484,-948,-330
5948462,356,359,99,512,-908,-263
5948478,316,323,97,502,-952,-290
5948496,346,330,123,506,-950,-274
5948543,385,319,116,505,-972,-225
5948560,386,296,96,499,-975,-229
5948577,381,306,101,503,-1031,-228
5948594,385,323,117,499,-948,-226
5948610,360,312,98,496,-992,-235
5948627,354,326,123,520,-987,-216
5948661,382,360,148,565,-910,-175
5948677,383,318,154,565,-872,-171
5948694,379,311,154,536,-939,-181
5948711,351,331,151,543,-932,-184
5948728,372,324,175,568,-957,-155
5948744,398,327,180,564,-871,-158
5948775,557,376,233,616,-830,-110
5948793,608,403,271,658,-795,-52
5948809,590,417,301,691,-780,-43
5948826,634,469,309,714,-791,0
5948843,603,413,291,685,-766,-37
5948860,601,439,300,708,-776,-19
5948891,599,375,322,723,-754,-17
5948910,553,402,258,660,-842,-54
5948926,525,345,268,668,-812,-93
5948943,527,362,276,688,-804,-66
5948959,500,340,273,684,-814,-65
5948976,494,370,266,683,-796,-69
5949008,507,401,292,706,-781,-52
5949026,512,376,324,752,-749,-16
5949041,505,358,303,732,-767,-34
5949058,494,379,325,754,-760,-40
5949076,502,330,319,742,-779,-42
5949092,531,387,345,764,-752,0
5949125,510,352,339,773,-747,-22
5949142,490,346,338,786,-769,-84
5949159,463,334,307,743,-738,-165
5949176,477,351,314,751,-805,-182
5949192,456,355,297,729,-769,-232
5949209,441,361,302,727,-803,-268
5949241,413,295,309,729,-781,-295
5949258,415,333,303,754,-803,-291
5949275,408,387,302,722,-807,-331
5949292,405,408,330,761,-807,-300
5949309,395,379,323,744,-791,-300
5949326,380,437,338,785,-765,-283
5949357,368,412,350,786,-798,-277
5949374,348,378,349,764,-732,-304
5949390,305,350,320,744,-786,-323
5949408,305,361,342,755,-809,-305
5949426,291,343,343,755,-775,-322
5949442,274,349,346,753,-777,-301
5949474,261,345,358,763,-773,-293
5949491,249,341,358,769,-791,-291
5949508,216,278,326,738,-840,-317
5949525,232,341,358,751,-781,-274
5949541,221,314,359,750,-783,-277
5949559,173,286,348,722,-823,-276
5949590,158,282,318,680,-801,-267
5949607,124,291,324,673,-819,-282
5949624,108,221,301,657,-840,-285
5949641,99,271,307,647,-770,-277
5949658,95,195,317,669,-786,-255
5949674,80,311,324,672,-765,-225
5949706,-64,254,379,689,-722,-208
5949724,-81,247,361,659,-758,-203
5949741,-90,245,374,660,-751,-198
5949757,-99,249,383,679,-748,-187
5949774,-120,205,382,672,-750,-191
5949790,-139,217,364,651,-739,-211
5949823,-351,207,417,688,-754,-174
5949840,-397,197,439,660,-733,-188
5949858,-443,158,447,685,-759,-183
5949874,-505,167,435,682,-767,-156
5949891,-470,185,449,689,-730,-150
5949908,-468,203,448,714,-713,-102
5949940,-432,196,444,721,-697,-70
5949958,-373,193,469,754,-700,-16
5949974,-357,241,494,786,-718,-9
5949990,-276,330,529,822,-621,77
5950007,-259,290,564,872,-576,125
5950024,-232,361,566,870,-537,151
5950055,-192,373,604,923,-515,190
5950072,-209,345,601,909,-491,199
5950089,-185,376,624,939,-439,221
5950106,-193,367,626,940,-484,251
5950124,-211,385,626,929,-456,246
5950139,-197,276,568,889,-501,223
5950172,-240,293,586,892,-503,246
5950189,-302,314,533,848,-552,205
5950207,-310,288,553,849,-550,195
5950224,-313,293,566,849,-561,234
5950240,-337,268,532,828,-561,184
5950257,-314,246,564,848,-550,196
5950289,-298,259,561,857,-527,194
5950306,-312,280,532,836,-607,169
5950323,-292,344,558,846,-576,187
5950340,-279,340,562,859,-532,181
5950358,-271,341,568,883,-538,189
5950375,-260,353,572,878,-560,198
5950421,-241,428,608,947,-566,195
5950438,-248,394,586,926,-547,157
5950456,-241,379,593,975,-549,193
5950471,-231,441,599,979,-504,182
5950490,-214,422,598,1006,-502,182
5950506,-216,440,559,1011,-552,173
5950538,-181,463,545,1036,-538,142
5950555,-184,393,534,1044,-595,127
5950572,-177,420,539,1025,-536,125
5950589,-197,350,529,1011,-597,97
5950607,-194,414,532,1005,-538,122
5950623,-224,361,501,979,-611,73
5950654,-200,401,540,964,-548,54
5950671,-214,429,502,951,-568,71
5950689,-211,415,511,929,-582,63
5950705,-215,418,520,944,-565,75
5950722,-210,414,509,926,-525,81
5950738,-242,361,495,874,-569,41
5950772,-227,390,505,861,-610,50
5950788,-239,382,501,859,-591,61
5950805,-242,357,484,833,-579,62
5950821,-266,353,466,777,-614,20
5950839,-264,331,462,781,-646,37
5950855,-242,367,485,776,-593,40
5950887,-264,362,464,749,-631,32
5950905,-235,329,489,749,-553,73
5950921,-248,351,458,734,-598,64
5950938,-248,345,474,716,-563,64
5950955,-235,305,496,738,-565,61
5950971,-241,292,463,694,-526,67
5951004,-234,340,473,692,-545,99
5951021,-219,314,473,664,-525,109
5951038,-246,338,461,659,-547,87
5951056,-231,359,479,669,-539,130
5951072,-281,279,425,617,-554,84
5951089,-286,288,410,591,-591,72
5951120,-258,272,403,585,-579,94
5951137,-257,263,378,528,-642,61
5951155,-211,285,377,565,-625,97
5951171,-256,218,359,524,-642,72
5951187,-244,268,387,559,-618,68
5951204,-246,249,410,572,-582,91
5951236,-295,250,391,537,-598,59
5951253,-300,263,404,534,-601,50
5951271,-329,201,399,531,-648,6
5951290,-323,205,387,519,-595,-42
5951304,-338,235,404,530,-597,-88
5951321,-338,232,408,527,-572,-100
5951337,-322,247,434,542,-550,-100
5951369,-310,271,427,529,-545,-127
5951387,-307,254,440,546,-534,-123
5951402,-347,260,447,536,-537,-139
5951419,-367,266,449,544,-543,-140
5951437,-410,232,455,528,-515,-162
5951454,-409,240,495,557,-493,-122
5951485,-445,283,511,577,-452,-83
5951502,-420,277,529,599,-429,-52
5951519,-377,281,535,610,-448,-29
5951537,-317,294,506,626,-410,-22
5951554,-230,310,500,639,-405,-1
5951569,-202,309,500,626,-409,-1
5951602,-134,319,506,644,-409,16
5951619,-149,310,500,659,-410,21
5951636,-150,280,476,655,-416,10
5951653,-139,307,509,663,-375,36
5951669,-142,308,502,670,-365,42
5951687,-141,278,507,667,-355,31
5951718,-166,287,497,659,-373,0
5951736,-167,266,494,665,-390,16
5951752,-140,287,531,693,-366,29
5951769,-159,259,500,686,-382,27
5951786,-155,322,531,707,-368,30
5951803,-182,254,501,692,-353,7
5951835,-185,295,472,721,-394,37
5951853,-161,319,474,708,-312,19
5951869,-127,325,494,735,-324,36
5951886,-135,323,479,747,-321,55
5951902,-103,302,482,742,-331,45
5951920,-96,359,476,719,-327,34
5951968,-14,407,479,750,-290,66
5951985,-30,379,470,717,-334,56
5952002,-56,382,473,736,-348,49
5952018,-66,369,474,720,-333,56
5952035,-102,338,473,707,-330,29
5952052,-114,370,484,731,-354,48
5952084,-156,335,503,697,-392,2
5952101,-122,404,485,692,-346,31
5952118,-123,377,421,691,-335,37
5952135,-117,396,425,704,-355,60
5952152,-133,341,406,685,-343,50
5952168,-149,380,410,660,-354,21
5952200,-122,391,445,689,-340,54
5952217,-121,360,423,684,-383,33
5952234,-118,355,452,702,-339,66
5952252,-141,332,430,681,-356,46
5952268,-151,288,428,665,-387,-4
5952285,-118,392,477,711,-332,-35
5952317,-176,344,435,647,-393,-183
5952334,-132,383,501,659,-343,-183
5952352,-128,407,480,658,-360,-226
5952367,-128,354,486,680,-396,-241
5952385,-112,418,511,689,-344,-257
5952402,-85,419,538,692,-326,-250
5952433,-99,347,498,681,-348,-296
5952451,-68,419,531,705,-347,-276
5952468,-111,405,498,674,-356,-324
5952485,-183,373,526,694,-364,-325
5952500,-142,436,577,729,-325,-288
5952517,-241,435,596,710,-354,-304
5952534,-282,407,592,692,-352,-334
5952566,-240,422,612,728,-299,-303
5952584,-210,435,635,739,-327,-299
5952601,-254,415,595,713,-361,-332
5952617,-238,410,625,739,-376,-325
5952635,-182,425,595,722,-321,-327
5952651,-176,429,607,731,-322,-314
5952683,-121,501,628,756,-330,-300
5952700,-125,442,606,741,-373,-337
5952717,-146,454,578,703,-373,-367
5952734,-103,467,594,743,-342,-316
5952750,-165,367,501,653,-449,-393
5952768,-205,344,491,637,-471,-456
5952799,-199,350,479,626,-475,-448
5952816,-216,337,473,630,-531,-449
5952833,-188,336,486,641,-456,-451
5952850,-172,344,505,664,-460,-432
5952868,-192,283,473,622,-473,-467
5952884,-168,360,497,658,-489,-460
5952916,-128,328,520,673,-445,-452
5952933,-114,384,537,697,-433,-419
5952950,-103,368,543,681,-438,-461
5952966,-80,401,573,716,-400,-420
5952984,-91,398,566,718,-401,-454
5953003,-93,367,565,716,-429,-449
5953032,-117,386,562,682,-432,-483
5953049,-94,400,576,687,-387,-474
5953066,-108,413,577,693,-433,-474
5953083,-124,394,552,656,-435,-506
5953099,-86,425,600,725,-385,-452
5953117,-111,442,563,690,-372,-475
5953134,-119,443,586,727,-390,-467
5953165,-28,436,600,736,-298,-378
5953182,5,443,629,758,-278,-345
5953199,0,419,622,748,-291,-359
5953216,-18,423,627,749,-307,-365
5953233,-29,445,618,743,-316,-375
5953250,-28,464,604,745,-331,-381
5953281,-47,426,597,748,-341,-382
5953299,-95,388,561,713,-357,-422
5953314,-49,450,612,757,-301,-388
5953332,-67,390,587,745,-331,-400
5953349,-64,428,591,749,-314,-395
5953366,-69,424,592,767,-355,-381
5953398,-54,434,600,782,-335,-359
5953415,-32,475,594,778,-282,-331
5953432,-64,410,570,760,-315,-357
5953449,-58,448,571,762,-318,-355
5953465,-67,415,559,740,-332,-360
5953482,-62,454,564,768,-316,-349
5953514,-32,446,597,813,-275,-299
5953532,-39,453,601,787,-299,-310
5953549,-32,448,597,792,-299,-304
5953565,-59,454,596,791,-314,-297
5953582,-69,473,590,790,-261,-299
5953599,-63,471,599,793,-278,-295
5953630,-115,434,566,776,-306,-307
5953649,-83,480,601,825,-269,-250
5953664,-97,480,589,811,-278,-279
5953682,-83,484,602,839,-254,-239
5953698,-101,463,592,846,-246,-234
5953715,-67,480,603,843,-258,-214
5953747,-94,439,570,820,-279,-204
5953765,-66,501,601,873,-293,-159
5953782,-64,503,592,837,-249,-153
5953798,-30,481,589,861,-230,-151
5953814,-7,539,599,875,-257,-125
5953831,-35,523,570,849,-227,-156
5953847,-6,527,589,872,-239,-131
5953864,29,563,598,896,-221,-121
5953881,25,570,593,887,-238,-140
5953899,-3,560,566,869,-233,-158
5953915,26,568,597,886,-241,-153
5953931,23,599,591,888,-213,-149
5953949,31,587,595,907,-223,-123
5953965,-2,560,591,890,-217,-127
5953982,-2,568,564,882,-253,-138
5953999,7,574,587,900,-228,-110
5954015,14,571,597,903,-227,-108
5954031,2,580,590,900,-222,-113
5954048,34,600,592,904,-232,-71
5954065,36,564,580,913,-216,-89
5954096,65,573,563,899,-246,-63
5954112,26,567,539,866,-235,-94
5954130,69,591,563,891,-232,-56
5954147,31,575,530,869,-228,-89
5954164,31,570,561,896,-274,-64
5954180,37,610,565,901,-178,-59
5954212,29,589,567,913,-200,-25
5954230,16,632,564,901,-206,-33
5954246,-3,579,558,883,-228,-58
5954263,-5,595,559,899,-214,-27
5954280,3,589,572,905,-209,-24
5954297,-25,595,542,875,-248,-34
5954329,-72,559,526,881,-286,-68
5954346,-22,600,550,896,-240,-25
5954362,-29,594,532,872,-241,-36
5954379,-37,564,525,862,-262,-32
5954396,-40,560,508,895,-274,-23
5954413,-39,553,508,879,-257,-21
5954446,-25,603,540,914,-255,12
5954462,5,621,555,904,-211,31
5954480,-65,541,515,892,-280,8
5954496,-55,594,524,903,-218,30
5954513,-56,588,514,893,-253,8
5954530,-58,569,508,895,-230,24
5954546,-41,561,528,907,-225,31
5954563,-38,605,519,887,-230,34
5954580,-66,569,496,878,-238,-4
5954596,-108,503,472,861,-306,-43
5954613,-87,562,507,878,-216,-2
5954629,-55,582,536,914,-228,19
5954647,-64,550,535,911,-218,34
5954678,-91,528,525,904,-245,31
5954696,-101,538,508,875,-221,-1
5954714,-90,580,521,889,-201,29
5954729,-91,582,532,899,-189,33
5954746,-66,594,531,883,-183,25
5954762,-69,570,532,891,-226,30
5954778,-75,573,531,900,-221,36
5954795,-102,539,502,869,-218,20
5954812,-66,602,531,891,-178,53
5954829,-66,599,528,889,-196,52
5954846,-65,588,516,880,-192,44
5954862,-70,556,514,887,-241,35
5954879,-58,599,528,884,-206,64
5954910,-34,601,527,892,-182,64
5954927,-88,559,481,846,-245,25
5954944,-45,627,515,860,-206,40
5954961,5,633,566,930,-154,114
5954978,-38,619,511,866,-213,34
5954995,-68,561,489,840,-218,24
5955012,-3,640,550,926,-136,109
5955029,-48,593,504,877,-152,62
5955046,-5,657,544,919,-125,111
5955063,37,668,571,945,-77,138
5955080,12,633,566,924,-136,129
5955096,-16,613,518,875,-173,86
5955112,-33,583,516,877,-158,68
5955130,1,646,564,943,-94,130
5955160,7,642,571,938,-77,133
5955178,5,608,556,926,-95,118
5955193,42,668,579,943,-44,155
5955211,26,624,565,943,-87,127
5955228,27,639,562,919,-66,124
5955244,1,611,547,921,-97,119
5955276,14,624,553,927,-65,127
5955293,15,616,564,941,-46,131
5955311,-2,599,564,916,-69,117
5955327,-6,613,547,903,-87,113
5955344,18,598,572,944,-49,129
5955361,7,612,564,896,-68,108
5955393,36,638,592,944,-25,112
5955410,13,587,567,925,-69,90
5955427,-3,587,563,908,-51,74
5955444,24,614,569,926,-69,102
5955461,-5,596,543,897,-49,54
5955477,0,597,565,917,-71,63
5955510,-17,630,572,908,-84,30
5955527,-35,551,553,890,-100,33
5955543,-24,573,545,905,-97,53
5955560,-21,596,566,902,-113,58
5955577,-28,586,565,897,-86,58
5955593,-9,607,575,917,-108,68
5955625,-49,588,562,901,-119,46
5955643,-71,583,547,882,-135,22
5955660,-18,600,571,925,-62,100
5955677,-36,609,569,896,-116,54
5955693,-91,559,520,859,-174,8
5955710,-59,562,570,875,-124,35
5955742,-64,593,573,905,-107,43
5955761,-18,634,630,964,-48,99
5955776,0,652,629,966,-40,115
5955792,-30,601,615,931,-110,90
5955809,-4,618,634,961,-55,113
5955826,-46,601,613,924,-99,79
5955858,-54,612,603,917,-71,72
5955876,-28,589,634,954,-58,121
5955893,-23,618,627,942,-87,103
5955910,-26,588,609,931,-89,94
5955927,-33,606,600,919,-97,67
5955943,-39,579,584,908,-97,58
5955975,-29,588,578,909,-89,45
5955992,-8,602,600,920,-69,63
5956010,-43,558,570,894,-95,28
5956027,-40,559,569,891,-108,29
5956042,-35,595,566,901,-69,29
5956062,-22,587,592,900,-51,47
5956091,-27,579,593,897,-86,36
5956109,-28,593,588,889,-94,29
5956126,-66,558,554,839,-115,-6
5956142,-28,613,584,873,-89,32
5956161,-12,621,604,897,-58,60
5956178,-32,595,590,879,-64,40
5956207,-26,601,604,890,-54,72
5956224,-58,564,574,862,-119,43
5956241,-93,552,557,847,-89,26
5956259,-69,544,558,844,-96,30
5956275,-52,613,590,858,-91,36
5956291,-92,549,543,814,-117,27
5956324,-93,523,546,814,-120,4
5956342,-103,544,540,820,-111,17
5956358,-114,530,536,811,-126,8
5956375,-120,564,534,814,-90,32
5956391,-96,559,560,831,-75,36
5956410,-84,586,561,829,-97,58
5956440,-124,536,543,829,-98,27
5956458,-99,541,530,788,-137,20
5956475,-85,559,548,829,-58,56
5956490,-103,543,527,802,-104,28
5956508,-65,551,576,834,-84,67
5956524,-113,496,532,799,-127,21
5956557,-124,494,505,773,-152,29
5956574,-118,552,521,779,-126,23
5956591,-107,516,530,791,-126,34
5956608,-110,511,528,780,-168,26
5956624,-123,500,515,777,-151,27
5956641,-157,469,491,741,-201,-10
5956673,-94,507,529,782,-125,49
5956691,-110,508,518,782,-177,57
5956708,-120,496,512,780,-154,42
5956724,-147,466,504,750,-199,25
5956741,-157,457,489,752,-176,28
5956758,-133,520,501,768,-143,49
5956789,-155,462,478,741,-175,5
5956806,-142,447,481,752,-210,28
5956824,-110,526,527,797,-154,38
5956840,-83,513,523,793,-147,63
5956857,-123,481,500,764,-141,41
5956874,-119,514,500,772,-150,48
5956906,-130,507,482,756,-186,32
5956923,-124,497,506,768,-132,32
5956939,-115,512,509,786,-142,64
5956958,-128,482,472,778,-136,34
5956974,-121,506,477,751,-133,45
5956990,-109,503,487,771,-134,62
5957008,-144,462,455,741,-166,24
5957023,-123,442,473,749,-151,30
5957040,-101,498,496,775,-133,60
5957057,-81,502,506,782,-131,61
5957074,-162,464,443,720,-132,9
5957091,-100,508,512,789,-122,82
5957107,-110,500,468,753,-111,44
5957124,-73,496,522,791,-153,75
5957141,-90,512,506,793,-130,67
5957158,-135,460,452,721,-165,10
5957174,-85,520,504,769,-128,53
5957192,-85,518,503,779,-86,91
5957208,-94,498,502,773,-112,57
5957224,-68,524,520,806,-116,99
5957256,-87,529,503,776,-137,73
5957273,-98,488,503,770,-123,60
5957289,-88,510,508,762,-108,71
5957306,-76,500,511,784,-99,98
5957323,-93,510,501,752,-106,89
5957339,-93,509,506,754,-117,74
5957356,-104,471,478,731,-172,66
5957374,-126,505,476,742,-143,51
5957391,-122,477,495,746,-167,63
5957407,-122,496,492,753,-108,66
5957428,-115,472,500,747,-158,79
5957440,-100,509,507,752,-116,90
5957457,-139,470,453,691,-185,47
5957488,-128,466,478,722,-154,63
5957505,-116,468,474,713,-188,60
5957522,-83,541,505,750,-147,103
5957539,-94,504,497,717,-153,85
5957555,-91,511,492,727,-152,90
5957572,-92,511,505,723,-166,96
5957604,-96,538,482,718,-172,93
5957621,-107,502,468,691,-197,59
5957639,-79,513,492,740,-172,98
5957655,-88,512,486,713,-183,80
5957672,-115,506,461,705,-210,64
5957688,-111,495,469,719,-189,71
5957720,-124,491,466,703,-226,33
5957738,-108,541,474,712,-199,26
5957756,-112,467,442,687,-242,6
5957772,-145,475,443,692,-246,-1
5957789,-127,473,442,688,-230,-9
5957805,-114,515,477,723,-215,3
5957837,-116,511,475,726,-200,1
5957853,-120,506,475,713,-239,-39
5957872,-148,464,450,699,-242,-49
5957888,-110,507,485,714,-204,-43
5957905,-113,501,486,734,-207,-28
5957923,-123,503,474,737,-182,-45
5957953,-120,490,475,722,-207,-106
5957971,-86,509,482,736,-219,-140
5957987,-86,482,476,728,-213,-174
5958004,-84,511,474,744,-213,-203
5958021,-89,524,474,748,-214,-250
5958038,-128,476,447,711,-257,-303
5958086,-105,532,476,755,-175,-303
5958104,-134,485,457,711,-264,-355
5958120,-91,546,482,759,-178,-297
5958138,-132,514,464,724,-205,-344
5958154,-92,501,502,783,-179,-271
5958171,-123,509,474,754,-201,-306
5958203,-124,496,471,761,-199,-272
5958220,-134,490,463,747,-255,-299
5958238,-146,475,486,746,-230,-283
5958255,-93,511,488,785,-200,-236
5958271,-150,466,433,717,-270,-272
5958287,-160,499,448,741,-222,-268
5958319,-154,504,458,743,-225,-252
5958337,-115,484,488,790,-205,-202
5958354,-99,520,499,816,-162,-173
5958371,-140,508,453,771,-238,-214
5958388,-150,481,468,781,-199,-188
5958404,-129,504,475,784,-206,-194
5958436,-131,478,472,781,-217,-191
5958453,-115,507,507,808,-202,-146
5958470,-115,536,497,785,-186,-153
5958487,-158,479,465,753,-220,-173
5958504,-152,492,492,792,-202,-160
5958521,-124,545,543,820,-162,-112
5958552,-158,535,537,817,-173,-114
5958570,-179,538,529,787,-167,-127
5958586,-188,527,527,780,-188,-136
5958603,-189,526,527,773,-188,-153
5958620,-192,540,517,755,-183,-152
5958637,-180,521,513,769,-213,-121
5958668,-194,537,533,767,-188,-156
5958686,-200,508,497,745,-209,-157
5958702,-217,535,505,751,-207,-152
5958719,-192,500,505,741,-177,-156
5958736,-212,554,501,738,-182,-160
5958753,-217,523,505,746,-215,-162
5958784,-229,538,498,741,-224,-164
5958803,-181,570,530,782,-143,-128
5958818,-190,564,524,766,-171,-133
5958836,-179,551,524,757,-176,-142
5958853,-174,538,514,756,-182,-137
5958869,-187,528,499,749,-222,-152
5958886,-157,538,530,779,-180,-125
5958903,-161,541,515,783,-159,-126
5958920,-153,552,507,778,-159,-116
5958937,-140,571,531,779,-161,-118
5958952,-157,533,501,776,-173,-124
5958969,-155,541,507,765,-160,-126
5958985,-143,578,510,768,-142,-99
5959017,-161,572,503,749,-132,-110
5959035,-136,562,532,773,-136,-94
5959051,-144,605,537,758,-105,-88
5959068,-159,567,537,741,-132,-91
5959086,-156,575,566,781,-116,-50
5959102,-147,602,585,774,-82,-52
5959134,-130,608,572,765,-102,-62
5959152,-122,622,576,781,-74,-92
5959168,-154,542,552,730,-134,-149
5959186,-145,599,563,749,-121,-162
5959202,-128,572,557,746,-101,-174
5959218,-117,595,560,752,-92,-179
5959250,-119,607,551,721,-119,-198
5959268,-126,555,543,710,-154,-206
5959285,-123,599,535,717,-122,-199
5959302,-132,553,551,722,-165,-203
5959319,-112,612,559,718,-103,-156
5959335,-91,588,570,757,-110,-125
5959366,-115,566,550,734,-101,-114
5959384,-95,560,565,749,-100,-87
5959401,-106,582,562,748,-94,-97
5959417,-86,597,571,756,-86,-78
5959434,-68,616,593,776,-85,-64
5959452,-132,565,555,728,-120,-123
5959483,-99,590,560,725,-121,-93
5959500,-117,592,570,725,-113,-118
5959517,-101,600,561,716,-120,-103
5959534,-92,597,592,754,-105,-86
5959551,-106,576,562,721,-114,-109
5959567,-118,567,561,716,-143,-128
5959600,-116,592,562,703,-145,-134
5959617,-81,599,573,729,-122,-99
5959634,-132,564,534,698,-150,-140
5959650,-93,602,564,723,-121,-109
5959667,-94,588,558,717,-154,-125
5959683,-115,575,529,687,-151,-127
5959716,-95,597,569,745,-142,-118
5959733,-90,573,542,711,-168,-110
5959750,-113,575,541,714,-165,-139
5959767,-132,570,526,687,-200,-175
5959783,-79,646,581,729,-150,-120
5959800,-131,586,532,712,-176,-167
5959832,-127,583,541,701,-172,-153
5959850,-158,567,543,690,-195,-186
5959867,-144,610,541,681,-162,-152
5959883,-174,585,526,673,-199,-180
5959900,-119,626,571,717,-123,-130
5959917,-142,589,535,683,-190,-173
5959948,-90,619,567,727,-124,-116
5959965,-120,609,560,700,-149,-135
5959982,-95,589,541,692,-157,-143
5960000,-129,631,536,680,-176,-157
5960016,-119,585,538,692,-181,-136
5960033,-115,577,531,683,-178,-142
5960049,-93,628,550,689,-177,-135
5960082,-96,627,551,692,-155,-121
5960099,-84,628,571,713,-168,-110
5960117,-90,589,542,691,-165,-123
5960132,-94,614,562,692,-186,-124
5960149,-74,631,567,724,-126,-90
5960167,-78,640,569,716,-160,-89
5960198,-70,622,561,703,-169,-102
5960216,-62,617,567,720,-124,-89
5960234,-64,627,583,740,-150,-91
5960249,-26,658,568,724,-129,-108
5960265,-68,607,568,731,-123,-175
5960283,-61,628,567,752,-159,-182
5960314,-54,647,570,740,-140,-189
5960331,-55,574,566,729,-135,-193
5960349,-31,607,570,741,-140,-184
5960365,-66,593,527,697,-188,-216
5960381,-86,590,560,715,-171,-214
5960401,-68,590,539,715,-145,-185
5960431,-62,595,536,716,-152,-160
5960449,-65,608,537,708,-168,-167
5960465,-61,604,534,686,-155,-178
5960482,-90,563,532,684,-201,-187
5960499,-81,626,540,688,-200,-160
5960515,-95,590,533,691,-182,-169
5960548,-93,598,531,687,-178,-150
5960565,-94,589,532,683,-195,-161
5960582,-95,598,531,689,-179,-129
5960598,-61,600,542,692,-172,-125
5960615,-97,573,534,703,-175,-111
5960632,-62,610,562,713,-186,-117
5960664,-94,603,540,712,-161,-95
5960681,-84,630,557,699,-199,-116
5960698,-102,570,532,691,-186,-124
5960715,-110,583,533,675,-229,-132
5960731,-103,592,530,692,-178,-125
5960749,-98,607,531,685,-191,-122
5960781,-60,604,542,691,-188,-90
5960798,-89,574,537,686,-184,-113
5960815,-87,589,532,682,-180,-127
5960831,-69,623,552,705,-171,-91
5960848,-71,627,555,721,-156,-92
5960864,-96,584,553,722,-151,-82
5960897,-129,577,545,695,-199,-106
5960914,-155,614,562,694,-177,-102
5960931,-178,564,558,699,-164,-102
5960947,-186,582,558,697,-193,-98
5960964,-237,554,558,683,-181,-119
5960981,-221,573,564,695,-199,-109
5961013,-204,591,592,723,-174,-80
5961030,-237,579,574,708,-172,-99
5961047,-245,560,574,697,-195,-122
5961064,-231,573,599,723,-180,-86
5961080,-256,570,574,712,-197,-102
5961097,-244,553,592,720,-186,-91
5961130,-250,561,567,711,-185,-90
5961147,-260,602,571,698,-167,-116
5961164,-244,592,565,698,-162,-88
5961181,-260,593,568,718,-143,-98
5961197,-251,553,571,708,-143,-93
5961213,-243,572,570,719,-143,-87
5961245,-235,569,567,722,-156,-89
5961262,-249,569,559,696,-164,-96
5961279,-279,562,531,685,-164,-132
5961297,-294,526,537,691,-190,-133
5961313,-294,526,539,679,-206,-152
5961330,-299,538,565,695,-177,-117
5961362,-315,563,561,682,-190,-126
5961379,-319,562,568,688,-184,-120
5961396,-319,544,548,677,-191,-172
5961412,-274,586,575,720,-172,-153
5961431,-311,543,549,683,-192,-216
5961462,-330,541,533,653,-222,-255
5961496,-320,530,537,664,-182,-226
5961513,-301,530,538,669,-190,-224
5961530,-324,531,531,658,-217,-232
5961547,-312,565,533,656,-181,-228
5961563,-314,560,538,660,-179,-217
5961580,-339,563,499,633,-219,-216
5961611,-304,569,503,651,-202,-180
5961629,-306,533,501,648,-192,-185
5961646,-284,558,542,686,-175,-149
5961662,-294,570,529,664,-170,-158
5961680,-292,560,530,671,-156,-149
5961697,-299,553,500,659,-177,-149
5961728,-273,549,509,674,-180,-141
5961745,-306,485,474,632,-256,-183
5961761,-297,497,475,655,-201,-159
5961779,-340,470,443,632,-224,-177
5961796,-325,482,465,653,-242,-173
5961812,-347,487,455,626,-266,-166
5961844,-421,473,447,591,-258,-195
5961862,-385,521,465,626,-261,-160
5961878,-359,532,485,626,-242,-153
5961895,-344,528,504,663,-201,-116
5961912,-317,501,480,658,-206,-113
5961929,-326,504,441,630,-227,-135
5961960,-277,531,444,658,-231,-118
5961978,-286,496,444,636,-249,-126
5961997,-278,514,446,632,-251,-130
5962013,-253,531,472,659,-241,-119
5962028,-252,537,468,650,-247,-100
5962045,-249,524,463,664,-209,-108
5962077,-217,543,468,666,-241,-110
5962093,-216,542,472,659,-273,-129
5962110,-213,502,462,653,-210,-93
5962128,-215,508,457,658,-227,-93
5962144,-232,484,447,655,-226,-105
5962161,-212,515,463,684,-224,-90
5962193,-255,451,429,647,-248,-125
5962211,-248,484,457,681,-245,-114
5962229,-221,507,458,679,-216,-83
5962246,-208,531,470,691,-185,-80
5962262,-207,533,463,694,-193,-67
5962279,-207,505,451,693,-185,-90
5962326,-168,537,476,713,-191,-79
5962343,-180,509,468,707,-160,-87
5962361,-183,510,463,686,-177,-102
5962377,-211,506,443,694,-184,-121
5962394,-205,513,445,686,-207,-122
5962411,-221,472,436,678,-208,-130
5962443,-187,507,468,688,-214,-114
5962460,-192,503,447,688,-218,-98
5962477,-198,511,475,681,-251,-116
5962493,-183,496,465,701,-201,-90
5962510,-179,551,479,700,-188,-84
5962527,-202,524,443,686,-223,-99
5962559,-197,530,441,657,-212,-129
5962577,-185,525,462,693,-215,-141
5962593,-182,534,474,690,-235,-175
5962611,-195,550,467,660,-210,-211
5962627,-180,537,499,700,-213,-204
5962643,-221,533,458,623,-250,-260
5962675,-215,529,474,652,-231,-229
5962693,-208,542,504,663,-241,-210
5962710,-236,530,482,657,-244,-214
5962729,-232,501,484,633,-283,-212
5962745,-247,497,474,624,-260,-213
5962759,-226,500,509,633,-279,-190
5962792,-214,494,505,629,-250,-166
5962809,-207,534,499,639,-261,-149
5962828,-197,527,505,647,-252,-149
5962858,-152,569,545,678,-203,-95
5962876,-148,544,559,663,-256,-89
5962909,-176,502,538,623,-280,-129
5962926,-191,537,535,621,-279,-124
5962943,-195,513,535,607,-278,-135
5962959,-182,562,571,636,-258,-85
5962976,-182,592,575,634,-240,-97
5962994,-203,534,597,653,-265,-95
5963024,-216,549,601,623,-289,-100
5963041,-218,560,600,622,-295,-97
5963059,-188,566,642,659,-279,-54
5963076,-155,602,654,661,-240,-32
5963092,-171,596,638,638,-282,-62
5963109,-155,589,659,663,-265,-27
5963141,-130,623,669,684,-209,-3
5963158,-126,631,656,652,-267,-34
5963175,-122,627,664,657,-261,-2
5963192,-147,623,659,638,-293,-34
5963209,-128,620,651,639,-296,-24
5963225,-119,611,689,668,-277,10
5963257,-130,661,679,665,-274,4
5963275,-144,656,693,663,-283,-6
5963291,-179,657,693,635,-321,3
5963308,-206,658,726,664,-300,9
5963325,-205,688,748,688,-267,36
5963342,-213,674,747,689,-280,52
5963374,-216,665,746,659,-282,33
5963392,-224,668,731,662,-290,36
5963408,-238,658,721,663,-311,36
5963425,-204,634,715,663,-284,41
5963442,-182,669,716,664,-300,54
5963458,-174,657,702,664,-287,49
5963491,-183,663,686,661,-324,34
5963508,-194,648,680,636,-317,-3
5963525,-160,667,718,676,-309,32
5963541,-137,710,756,723,-286,68
5963557,-108,655,722,715,-277,62
5963575,-106,711,760,722,-270,74
5963606,-120,691,723,707,-288,63
5963624,-95,716,744,716,-274,75
5963641,-138,664,714,725,-288,82
5963657,-159,655,684,676,-311,27
5963674,-125,681,715,722,-275,91
5963691,-131,723,697,717,-283,84
5963723,-160,691,716,726,-297,94
5963741,-175,697,718,719,-277,95
5963758,-184,706,720,725,-316,93
5963774,-191,699,720,728,-291,127
5963791,-175,715,710,743,-276,123
5963807,-152,691,725,753,-271,145
5963824,-181,685,686,737,-299,120
5963856,-161,708,695,744,-277,133
5963874,-153,709,704,746,-283,148
5963889,-162,692,685,738,-281,129
5963907,-157,731,698,761,-295,137
5963924,-163,703,695,746,-282,122
5963940,-188,693,674,726,-305,106
5963977,-218,697,688,750,-314,115
5963993,-184,700,707,760,-270,141
5964010,-210,686,705,753,-264,129
5964026,-223,710,689,759,-282,123
5964044,-217,672,691,780,-235,144
5964060,-192,693,717,796,-260,132
5964089,-227,663,662,777,-253,117
5964107,-198,647,655,760,-272,110
5964123,-153,699,683,789,-247,129
5964139,-156,680,681,808,-256,142
5964156,-150,697,683,812,-223,154
5964173,-162,668,690,807,-253,142
5964190,-150,650,681,816,-238,156
5964208,-161,696,677,812,-245,135
5964225,-181,665,648,773,-257,113
5964241,-152,723,675,814,-217,140
5964257,-178,696,660,814,-227,133
5964274,-175,699,666,813,-211,123
5964291,-213,684,647,783,-250,112
5964322,-235,679,675,810,-246,81
5964339,-206,693,685,807,-224,95
5964355,-245,654,684,813,-248,98
5964373,-243,702,658,811,-209,85
5964389,-286,645,650,776,-249,51
5964406,-285,650,645,786,-228,70
5964422,-283,651,650,802,-241,73
5964439,-288,667,643,794,-242,67
5964457,-297,656,660,810,-220,87
5964474,-292,649,647,808,-219,89
5964490,-308,644,645,809,-235,97
5964506,-283,663,665,836,-215,122
5964522,-297,646,663,834,-219,109
5964554,-304,624,659,831,-240,120
5964571,-328,597,627,805,-280,84
5964589,-316,596,620,786,-239,101
5964606,-342,601,601,784,-266,84
5964623,-332,594,604,799,-265,90
5964639,-344,601,598,771,-296,58
5964656,-329,594,599,803,-276,97
5964674,-324,616,601,813,-278,99
5964690,-321,610,592,806,-259,94
5964707,-330,593,589,827,-243,102
5964723,-326,593,593,810,-240,114
5964739,-300,636,601,846,-191,154
5964756,-316,620,601,830,-212,136
5964787,-336,585,598,835,-207,152
5964804,-343,617,588,820,-200,143
5964822,-321,616,601,845,-188,171
5964839,-333,627,588,825,-193,153
5964855,-343,597,573,821,-207,153
5964871,-360,584,571,822,-217,141
5964888,-341,594,568,833,-210,147
5964905,-332,576,575,830,-237,133
5964921,-371,531,537,812,-251,122
5964939,-381,534,524,781,-240,84
5964955,-391,531,497,750,-301,59
5964973,-377,534,537,772,-260,62
5964989,-375,537,528,782,-271,65
5965020,-433,547,551,800,-243,75
5965038,-446,543,542,791,-237,59
5965053,-451,538,571,809,-254,68
5965071,-443,559,564,810,-238,63
5965087,-443,570,569,818,-224,80
5965103,-463,553,565,809,-214,62
5965136,-474,563,577,814,-208,74
5965154,-470,567,590,827,-196,93
5965170,-468,547,567,812,-218,71
5965187,-468,547,572,811,-211,67
5965204,-476,575,568,814,-189,77
5965221,-473,530,568,807,-215,58
5965252,-499,562,563,789,-216,53
5965269,-475,555,545,813,-202,70
5965287,-472,554,555,793,-231,45
5965304,-918,579,694,783,-225,49
5965320,-2189,555,1098,783,-244,30
5965337,-2213,568,1106,766,-277,22
5965369,-2277,561,1134,801,-232,33
5965386,-2299,579,1165,816,-223,37
5965403,-2350,596,1136,796,-240,25
5965420,-2353,558,1156,795,-261,16
5965437,-2336,525,1127,800,-249,22
5965453,-2279,577,1144,818,-215,41
5965485,-2227,539,1094,796,-240,11
5965504,-2168,525,1069,810,-212,27
5965520,-2103,520,1072,813,-245,17
5965537,-2008,586,1028,793,-224,4
5965553,-1973,520,1000,778,-259,-17
5965570,-1942,530,972,756,-265,-36
5965586,-1900,536,979,787,-196,-6
5965603,-1872,539,993,814,-202,24
5965620,-1902,540,977,794,-211,0
5965637,-1914,570,992,795,-206,4
5965653,-1914,516,980,783,-226,-6
5965669,-1879,564,975,792,-208,-7
5965686,-1844,534,958,776,-215,-11
5965703,-1766,582,968,821,-174,33
5965719,-1733,524,908,770,-217,-12
5965736,-1649,541,890,814,-177,26
5965754,-1525,561,878,812,-145,72
5965771,-1465,520,798,769,-173,9
5965787,-1323,531,744,769,-181,1
5965804,-1020,546,717,805,-159,43
5965820,-927,506,652,780,-152,11
5965837,-901,511,597,752,-193,-20
5965855,-869,503,624,782,-166,-2
5965871,-851,497,626,779,-149,5
5965887,-893,542,628,770,-148,-5
5965905,-997,515,676,801,-133,11
5965922,-1025,573,726,805,-111,37
5965951,-1104,545,722,778,-114,12
5965968,-1089,527,715,781,-129,10
5965985,-1040,551,713,801,-83,36
5966002,-1007,535,666,781,-128,4
5966018,-948,511,630,776,-91,18
5966034,-880,523,624,778,-118,4
5966052,-829,524,590,751,-122,-1
5966068,-769,532,628,782,-58,41
5966085,-741,567,628,820,-62,70
5966102,-764,524,617,776,-83,32
5966120,-782,541,635,785,-92,39
5966136,-853,518,642,762,-86,34
5966153,-984,514,669,745,-91,-6
5966184,-1207,550,752,754,-98,22
5966201,-1200,528,735,756,-87,14
5966219,-1200,500,717,734,-97,1
5966237,-1173,521,722,725,-98,-1
5966253,-1156,515,690,718,-96,-4
5966281,-1134,499,695,750,-100,1
5966317,-1158,483,689,712,-88,-14
5966335,-1124,528,689,734,-128,2
5966351,-1081,553,705,744,-111,31
5966368,-1075,514,686,744,-132,8
5966385,-1073,493,685,748,-118,1
5966401,-1073,493,685,748,-118,1
5966418,-1073,493,685,748,-118,1
5966449,-1073,493,685,748,-118,1
5966466,-1073,493,685,748,-118,1
5966483,-1073,493,685,748,-118,1
5966501,-1073,493,685,748,-118,1
5966517,-1073,493,685,748,-118,1
5966535,-1073,493,685,748,-118,1
5966566,-1073,493,685,748,-118,1
5966582,-1073,493,685,748,-118,1
5966601,-1073,493,685,748,-118,1
5966617,-1073,493,685,748,-118,1
5966635,-1073,509,685,748,-113,12
5966650,-850,537,654,758,-151,23
5966683,-747,559,664,786,-147,66
5966700,-810,515,626,740,-144,43
5966717,-696,526,629,780,-145,76
5966733,-719,528,626,780,-104,79
5966750,-725,548,649,781,-133,88
5966767,-741,574,659,786,-118,85
5966783,-791,561,655,752,-144,60
5966800,-755,570,664,785,-102,89
5966817,-728,550,635,750,-125,87
5966834,-688,576,655,762,-126,83
5966850,-697,553,645,760,-158,79
5966867,-680,565,655,767,-139,82
5966883,-721,542,637,751,-179,60
5966915,-712,541,628,749,-170,60
5966933,-729,529,614,741,-212,38
5966950,-722,536,633,739,-174,46
5966969,-756,531,630,719,-215,29
5966983,-776,547,631,719,-193,31
5966999,-792,543,638,724,-182,31
5967032,-786,543,642,723,-196,31
5967049,-784,537,652,731,-203,44
5967066,-771,566,654,716,-167,66
5967082,-784,563,651,711,-205,23
5967099,-771,563,662,726,-182,65
5967117,-807,555,632,712,-209,29
5967148,-779,569,665,754,-147,34
5967165,-805,553,650,724,-193,6
5967182,-791,538,656,738,-174,23
5967202,-796,535,630,718,-217,-8
5967216,-796,534,628,710,-189,1
5967232,-813,535,622,701,-217,-1
5967264,-750,572,630,724,-182,29
5967282,-750,535,604,703,-192,10
5967299,-747,536,590,691,-218,-6
5967316,-742,534,590,688,-214,0
5967333,-721,525,591,702,-216,4
5967349,-716,543,592,691,-213,24
5967382,-719,553,594,704,-218,3
5967399,-690,532,592,708,-204,28
5967415,-685,557,590,693,-224,2
5967432,-681,534,597,687,-246,6
5967449,-686,540,598,713,-240,26
5967466,-689,558,601,719,-210,31
5967498,-726,536,590,682,-245,12
5967515,-725,533,601,689,-256,29
5967532,-711,552,609,701,-222,28
5967549,-693,538,624,722,-201,46
5967565,-719,560,619,726,-191,63
5967582,-691,560,623,719,-210,64
5967614,-684,561,630,723,-214,63
5967631,-683,544,618,707,-251,62
5967648,-662,566,626,730,-191,89
5967665,-660,591,629,738,-198,88
5967681,-625,590,633,750,-172,100
5967698,-637,608,631,736,-216,92
5967730,-628,579,621,716,-200,70
5967747,-620,577,605,718,-231,64
5967765,-598,604,601,724,-219,88
5967781,-587,555,591,692,-204,53
5967798,-542,599,600,729,-203,78
5967814,-538,570,603,726,-181,78
5967846,-538,557,574,709,-196,54
5967866,-541,567,561,712,-221,24
5967882,-480,599,570,722,-176,52
5967899,-438,589,569,724,-195,37
5967915,-426,592,564,715,-185,25
5967931,-435,585,563,716,-189,23
5967948,-407,612,571,715,-191,22
5967964,-418,604,572,723,-201,13
5967981,-419,609,593,741,-171,27
5967998,-442,591,567,714,-207,-4
5968014,-439,595,590,720,-216,5
5968031,-406,614,572,738,-215,17
5968047,-402,587,572,710,-203,-7
5968064,-399,610,562,711,-219,-5
5968082,-401,595,568,712,-212,2
5968099,-378,632,586,727,-211,32
5968116,-385,602,563,718,-192,22
5968132,-380,593,569,729,-188,18
5968148,-352,623,594,753,-153,43
5968164,-353,615,568,716,-188,29
5968196,-340,637,592,758,-180,19
5968213,-383,590,561,712,-188,-38
5968230,-363,590,571,731,-190,-39
5968247,-329,650,602,767,-150,-29
5968264,-312,638,603,763,-168,-3
5968280,-343,599,574,731,-181,-53
5968312,-285,629,630,784,-123,2
5968332,-280,680,637,802,-125,12
5968346,-256,691,664,824,-94,26
5968363,-268,662,644,800,-120,-8
5968380,-278,666,629,797,-114,-33
5968397,-278,677,659,816,-131,-32
5968429,-259,693,660,820,-101,-25
5968446,-270,648,657,806,-141,-35
5968463,-254,678,636,810,-114,-34
5968479,-229,647,659,812,-89,-25
5968496,-214,683,629,817,-114,-33
5968513,-176,682,628,816,-54,-2
5968546,-173,631,594,803,-101,-16
5968563,-152,649,634,823,-78,7
5968579,-180,636,618,807,-95,-1
5968597,-190,652,595,808,-131,3
5968612,-173,666,634,826,-72,26
5968629,-152,654,645,844,-88,58
5968661,-163,664,637,819,-93,48
5968679,-152,686,663,837,-92,69
5968695,-177,672,628,834,-69,69
5968712,-190,637,634,809,-121,54
5968729,-162,681,622,845,-77,67
5968745,-157,662,652,814,-90,61
5968777,-174,653,626,811,-114,54
5968795,-149,668,637,826,-129,86
5968812,-172,614,632,814,-121,68
5968829,-150,652,658,847,-91,98
5968845,-157,656,650,819,-111,86
5968863,-190,655,623,817,-113,58
5968894,-185,668,656,827,-102,95
5968912,-199,639,622,799,-155,69
5968932,-156,664,662,849,-134,102
5968949,-152,667,668,849,-121,121
5968965,-176,665,627,805,-167,89
5968981,-163,634,622,807,-166,94
5969011,-145,663,604,786,-157,89
5969027,-151,659,591,780,-192,71
5969045,-145,666,600,781,-216,73
5969061,-126,655,601,784,-192,95
5969078,-129,657,594,776,-192,75
5969095,-116,675,630,797,-177,99
5969127,-150,599,589,771,-210,59
5969145,-162,625,559,745,-252,53
5969161,-149,630,601,784,-210,76
5969179,-149,640,589,757,-215,74
5969194,-166,624,596,779,-212,57
5969211,-147,622,598,785,-223,71
5969243,-147,622,598,785,-223,71
5969260,-132,621,572,763,-245,95
5969277,-155,634,565,746,-221,50
5969294,-127,619,573,773,-266,64
5969312,-142,630,564,741,-247,37
5969328,-142,619,566,749,-242,46
5969359,-147,618,560,744,-249,63
5969376,-119,659,573,785,-241,90
5969393,-127,650,587,753,-215,86
5969411,-121,642,589,786,-210,93
5969427,-123,686,603,783,-184,126
5969445,-128,652,619,795,-198,125
5969476,-146,666,639,818,-177,42
5969494,-189,660,601,772,-208,-23
5969510,-201,621,600,769,-198,-33
5969527,-212,655,595,775,-218,-62
5969544,-215,630,594,775,-212,-59
5969560,-215,594,597,759,-184,-93
5969592,-241,630,579,748,-228,-114
5969610,-220,640,594,747,-216,-97
5969626,-213,626,595,764,-212,-76
5969644,-206,630,594,761,-187,-62
5969659,-212,660,590,768,-218,-54
5969677,-219,617,555,726,-257,-83
5969709,-217,616,548,726,-253,-59
5969727,-192,645,569,750,-224,-23
5969743,-211,637,565,746,-231,-25
5969759,-215,603,563,748,-267,-16
5969776,-189,637,566,743,-227,2
5969793,-202,616,544,734,-245,-1
5969810,-198,625,541,740,-247,32
5969842,-215,615,528,715,-251,7
5969859,-232,561,514,704,-274,-9
5969876,-215,602,540,726,-289,35
5969893,-213,595,521,695,-288,14
5969909,-212,591,513,702,-299,34
5969926,-184,600,535,727,-267,69
5969958,-160,638,540,733,-253,73
5969975,-191,601,529,717,-268,61
5969993,-185,597,518,717,-289,67
5970009,-192,616,528,718,-278,59
5970026,-183,610,527,721,-254,65
5970042,-182,599,532,721,-290,63
5970074,-210,570,504,691,-299,32
5970091,-181,603,515,722,-256,65
5970108,-200,572,498,704,-293,26
5970126,-176,597,523,727,-270,67
5970143,-186,594,502,713,-271,41
5970159,-167,595,534,755,-235,95
5970191,-155,571,518,732,-262,68
5970209,-149,604,526,743,-262,66
5970226,-151,599,512,722,-251,60
5970243,-149,592,531,734,-237,63
5970259,-132,607,526,746,-242,91
5970275,-161,572,498,719,-246,60
5970292,-126,596,536,755,-205,108
5970310,-162,586,500,726,-244,86
5970326,-159,576,507,722,-239,65
5970344,-180,601,498,719,-256,59
5970360,-174,562,499,713,-219,68
5970376,-176,597,507,737,-227,74
5970393,-162,581,502,716,-251,80
5970440,-126,566,510,740,-219,97
5970458,-153,565,504,717,-262,83
5970475,-129,573,503,747,-186,107
5970491,-127,594,508,752,-189,121
5970508,-119,567,494,738,-189,128
5970525,-129,560,489,727,-174,118
5970556,-123,556,480,718,-226,102
5970574,-138,547,472,719,-213,95
5970591,-129,547,483,712,-209,95
5970608,-91,572,516,754,-187,138
5970624,-118,565,499,713,-226,118
5970641,-119,565,504,746,-215,104
5970674,-94,571,508,745,-215,131
5970691,-130,527,470,704,-225,91
5970707,-122,539,473,700,-228,92
5970724,-125,550,470,715,-246,101
5970741,-114,529,476,720,-218,121
5970758,-117,552,505,751,-209,125
5970790,-124,522,479,716,-246,94
5970807,-127,575,472,724,-214,123
5970824,-126,536,481,725,-204,100
5970840,-129,537,473,722,-226,93
5970857,-125,555,473,719,-216,120
5970874,-124,556,471,736,-197,119
5970907,-119,526,502,756,-175,131
5970923,-111,528,468,746,-188,121
5970941,-117,572,484,753,-173,152
5970957,-132,538,475,732,-222,131
5970973,-162,532,439,714,-237,105
5970990,-139,536,472,716,-236,117
5971023,-151,526,462,714,-211,104
5971040,-133,553,480,729,-204,100
5971059,-117,567,487,753,-226,127
5971076,-128,530,463,716,-223,111
5971092,-120,559,472,720,-207,125
5971109,-127,534,471,713,-240,88
5971139,-123,563,478,721,-210,110
5971157,-125,565,475,717,-209,112
5971174,-118,563,485,745,-194,130
5971190,-82,582,499,745,-190,129
5971207,-58,570,501,757,-173,153
5971224,-67,567,469,751,-202,121
5971255,-67,572,465,731,-198,118
5971272,-48,564,489,749,-182,134
5971289,-63,568,462,720,-187,122
5971306,-55,571,473,739,-207,129
5971322,-66,562,462,716,-213,114
5971340,-55,569,475,746,-214,128
5971371,-47,586,478,761,-189,154
5971388,-29,564,480,753,-211,155
5971408,-38,545,459,728,-195,146
5971424,-60,537,461,739,-221,137
5971439,-32,537,465,713,-243,106
5971456,5,554,449,747,-259,108
5971488,47,586,507,791,-182,155
5971505,-4,548,469,746,-214,119
5971522,-34,546,472,731,-246,94
5971538,-70,487,438,713,-252,78
5971556,-63,583,471,725,-226,86
5971572,-66,547,469,713,-250,93
5971604,-72,547,487,738,-235,111
5971622,-93,571,479,749,-227,114
5971638,-92,531,473,751,-240,120
5971655,-105,540,474,718,-217,103
5971673,-85,568,479,741,-223,143
5971690,-134,532,471,710,-276,94
5971721,-96,565,493,738,-247,147
5971738,-60,584,528,766,-209,173
5971754,-99,573,522,758,-227,162
5971772,-114,586,503,717,-244,132
5971788,-119,563,523,745,-214,148
5971805,-130,564,535,751,-217,140
5971837,-124,566,546,750,-223,161
5971854,-122,574,572,753,-219,160
5971870,-137,539,536,747,-267,157
5971888,-147,526,536,743,-261,163
5971904,-126,531,532,745,-291,157
5971921,-130,574,529,741,-265,165
5971954,-128,553,531,741,-273,170
5971971,-92,545,530,749,-282,184
5971988,-115,526,526,737,-290,175
5972005,-97,527,527,723,-315,158
5972021,-86,533,542,753,-285,187
5972039,-105,529,535,740,-312,162
5972069,-99,529,536,744,-293,182
5972087,-91,540,561,770,-293,191
5972105,-74,567,557,750,-296,183
5972121,-85,531,559,752,-304,167
5972139,-91,560,559,731,-310,102
5972155,-56,557,565,760,-282,107
5972186,-89,531,561,735,-330,41
5972204,-90,566,566,739,-341,29
5972220,-87,527,578,756,-304,28
5972237,-60,553,555,753,-318,49
5972254,-98,570,555,712,-341,23
5972270,-95,557,569,758,-318,55
5972303,-86,572,587,790,-325,99
5972319,-128,541,557,748,-309,56
5972338,-126,537,562,724,-355,53
5972353,-128,561,562,757,-351,68
5972371,-145,541,560,713,-365,57
5972387,-125,568,574,759,-323,102
5972419,-155,563,571,755,-329,96
5972437,-181,524,568,751,-333,111
5972452,-167,524,568,752,-336,119
5972471,-205,543,559,746,-364,88
5972486,-187,513,561,732,-382,112
5972503,-183,527,564,731,-360,95
5972536,-188,538,562,722,-358,122
5972553,-182,537,561,756,-347,136
5972570,-208,534,542,717,-371,123
5972586,-221,522,534,714,-389,112
5972603,-243,521,535,720,-378,116
5972619,-215,498,532,717,-403,124
5972651,-206,542,538,724,-412,135
5972669,-197,492,530,714,-389,130
5972686,-168,563,540,752,-346,165
5972702,-180,495,534,741,-396,162
5972720,-213,535,503,714,-397,114
5972735,-198,503,507,715,-426,126
5972768,-182,513,532,748,-374,150
5972785,-180,498,521,722,-386,120
5972802,-178,506,505,720,-418,125
5972819,-162,508,508,723,-412,124
5972836,-171,473,499,712,-420,109
5972852,-142,544,517,756,-421,158
5972886,-176,487,476,700,-435,97
5972903,-159,506,487,714,-442,94
5972919,-128,532,513,759,-386,135
5972936,-140,495,499,732,-402,118
5972952,-115,514,503,757,-400,135
5972969,-125,497,500,726,-412,119
5973001,-155,487,503,716,-411,121
5973019,-150,510,533,749,-417,146
5973035,-157,505,534,782,-352,178
5973052,-244,466,530,736,-424,117
5973069,-245,496,540,751,-422,145
5973085,-234,506,569,752,-408,139
5973117,-252,473,556,756,-424,128
5973135,-247,511,535,747,-417,159
5973152,-275,474,538,755,-419,139
5973168,-248,489,561,751,-407,131
5973185,-267,486,541,744,-430,125
5973202,-272,479,539,738,-430,116
5973234,-244,509,553,753,-420,127
5973252,-282,458,506,714,-434,83
5973267,-249,483,528,737,-442,105
5973285,-229,485,517,736,-438,122
5973301,-230,459,499,722,-439,117
5973318,-210,486,504,734,-449,122
5973350,-201,488,506,742,-429,121
5973368,-215,467,497,720,-427,116
5973384,-197,493,504,749,-408,123
5973401,-196,506,501,717,-438,126
5973418,-232,485,507,743,-428,85
5973434,-165,540,548,785,-378,166
5973467,-213,501,520,758,-386,145
5973484,-231,498,516,746,-409,87
5973501,-239,495,498,742,-415,51
5973517,-218,507,521,736,-410,38
5973533,-233,509,523,743,-402,19
5973551,-188,536,554,774,-391,52
5973582,-220,514,517,738,-425,13
5973599,-147,566,566,781,-390,76
5973616,-156,567,547,776,-389,86
5973634,-147,533,534,771,-385,88
5973650,-102,589,568,805,-331,126
5973667,-99,570,535,780,-380,126
5973699,-100,557,554,798,-374,160
5973716,-88,573,572,815,-336,176
5973733,-131,545,530,774,-409,139
5973751,-96,597,561,795,-349,169
5973767,-99,557,552,816,-324,199
5973784,-53,596,566,829,-316,241
5973815,-47,582,571,838,-310,230
5973833,-35,581,563,851,-286,247
5973850,-50,595,569,844,-294,233
5973866,-70,558,536,809,-324,208
5973883,-54,618,598,857,-273,256
5973900,-60,591,603,873,-310,261
5973932,-136,543,561,819,-365,190
5973948,-122,572,572,831,-325,193
5973965,-160,562,563,806,-310,181
5973982,-163,527,561,801,-362,150
5974000,-157,567,559,817,-353,177
5974017,-112,594,605,864,-286,216
5974049,-129,598,590,839,-367,178
5974066,-143,578,551,800,-347,148
5974083,-139,581,569,818,-302,175
5974099,-149,587,561,824,-329,177
5974116,-144,566,566,825,-313,176
5974133,-139,561,577,840,-337,192
5974164,-131,604,599,840,-297,201
5974182,-159,581,563,812,-322,184
5974200,-176,592,572,834,-285,178
5974215,-147,624,579,835,-278,209
5974232,-151,586,590,857,-271,213
5974249,-182,606,564,840,-315,206
5974281,-146,631,616,855,-298,212
5974299,-156,589,595,852,-282,213
5974315,-158,600,593,832,-296,184
5974332,-155,576,591,858,-264,218
5974349,-188,575,563,808,-337,175
5974365,-189,565,563,816,-331,182
5974398,-156,613,595,834,-314,203
5974415,-174,556,556,839,-326,185
5974432,-180,567,550,808,-320,181
5974449,-136,587,599,847,-272,213
5974465,-148,579,560,834,-297,199
5974481,-186,530,563,810,-343,165
5974514,-156,586,595,847,-303,182
5974532,-177,573,574,814,-313,161
5974549,-177,563,571,830,-328,156
5974565,-169,577,560,803,-353,150
5974582,-168,536,597,845,-342,133
5974598,-157,590,583,820,-322,159
5974630,-157,590,594,832,-316,146
5974647,-131,598,600,833,-311,148
5974665,-196,552,553,781,-400,86
5974681,-121,562,608,848,-321,155
5974698,-131,566,599,841,-319,153
5974715,-118,534,598,830,-336,151
5974746,-128,550,586,803,-371,115
5974763,-127,536,567,799,-336,93
5974781,-126,562,570,782,-377,33
5974798,-135,518,568,778,-383,-2
5974815,-118,571,600,791,-346,6
5974831,-127,568,586,778,-342,-6
5974863,-121,561,593,770,-358,-26
5974881,-123,562,595,775,-390,-17
5974897,-111,588,626,774,-362,-2
5974914,-111,589,618,775,-369,3
5974931,-118,594,631,777,-384,30
5974948,-130,558,599,739,-383,17
5974980,-93,622,630,769,-379,63
5974998,-93,617,628,771,-368,70
5975014,-68,631,659,786,-374,98
5975030,-56,646,626,757,-397,97
5975047,-12,669,639,757,-359,119
5975064,-12,609,587,718,-429,82
5975081,61,664,641,783,-370,146
5975097,66,622,625,753,-401,132
5975114,79,667,627,749,-428,122
5975130,81,639,628,756,-364,148
5975147,62,662,622,764,-389,158
5975163,25,610,619,750,-378,147
5975180,36,668,657,781,-385,161
5975198,-6,649,653,766,-353,170
5975213,-29,658,659,754,-372,149
5975230,-91,623,624,723,-418,124
5975247,-102,594,640,718,-381,118
5975264,-81,656,675,751,-415,146
5975281,-63,618,688,747,-385,137
5975297,-95,637,665,747,-403,126
5975314,-107,585,656,742,-382,120
5975331,-87,629,670,739,-367,118
5975348,-60,689,694,786,-332,153
5975363,-62,684,706,779,-336,152
5975381,-77,682,668,749,-352,116
5975398,-90,658,660,755,-368,127
5975414,-103,653,653,733,-379,89
5975445,-88,682,675,749,-363,93
5975463,-99,670,667,746,-385,87
5975479,-154,650,660,748,-392,63
5975497,-162,651,689,748,-384,58
5975512,-147,674,695,779,-343,91
5975529,-146,655,683,746,-380,57
5975546,-125,650,689,762,-370,84
5975563,-118,680,697,779,-339,86
5975579,-166,649,651,741,-354,50
5975596,-119,674,682,763,-358,68
5975613,-168,638,663,762,-352,62
5975629,-118,664,687,784,-359,100
5975646,-121,651,667,764,-376,122
5975677,-126,661,659,767,-383,140
5975695,-90,691,667,783,-368,159
5975711,-111,653,661,784,-354,160
5975729,-120,680,658,776,-349,153
5975745,-130,658,627,748,-388,148
5975762,-122,663,654,761,-362,150
5975779,-136,701,666,803,-331,198
5975796,-174,642,642,770,-370,163
5975812,-142,690,667,805,-354,188
5975829,-146,656,661,815,-338,195
5975845,-149,659,656,800,-347,184
5975862,-181,652,616,770,-315,161
5975879,-143,712,638,800,-305,192
5975911,-195,628,605,757,-366,132
5975928,-150,702,632,792,-315,118
5975944,-164,653,622,776,-344,63
5975961,-188,639,621,769,-353,41
5975978,-154,657,623,786,-335,55
5975995,-162,656,622,784,-327,40
5976011,-174,667,612,777,-340,28
5976028,-176,620,599,778,-313,31
5976045,-189,635,597,773,-299,29
5976062,-187,644,597,776,-312,28
5976078,-188,658,598,788,-290,60
5976095,-185,656,599,796,-292,69
5976112,-175,658,599,800,-287,92
5976129,-157,655,629,826,-250,106
5976145,-165,657,614,815,-273,108
5976163,-184,660,619,812,-270,125
5976179,-155,663,623,810,-259,122
5976195,-182,626,596,806,-287,124
5976211,-165,658,611,816,-249,126
5976228,-192,620,593,802,-289,118
5976246,-180,669,594,814,-262,123
5976262,-211,621,564,774,-290,102
5976278,-219,624,585,803,-254,101
5976295,-187,628,590,810,-264,117
5976312,-230,584,555,775,-293,85
5976329,-212,639,574,808,-242,124
5976346,-219,593,570,801,-241,122
5976362,-238,631,566,797,-276,90
5976378,-211,615,572,813,-256,126
5976395,-231,593,566,790,-281,90
5976412,-224,609,571,830,-228,101
5976428,-188,627,599,844,-212,131
5976445,-216,595,564,822,-236,120
5976462,-208,627,570,825,-232,127
5976479,-227,587,563,818,-244,107
5976496,-204,607,568,830,-247,123
5976512,-224,576,535,811,-228,87
5976529,-235,568,539,809,-272,60
5976545,-233,561,529,806,-279,58
5976562,-205,605,575,847,-238,102
5976579,-190,553,559,840,-243,87
5976609,-184,577,560,850,-223,100
5976626,-248,559,520,783,-260,46
5976643,-206,590,569,844,-248,94
5976660,-251,572,531,797,-254,38
5976676,-254,551,533,811,-241,34
5976693,-245,553,527,801,-245,22
5976725,-236,559,528,821,-206,21
5976743,-214,574,532,831,-214,26
5976760,-212,565,532,827,-191,21
5976777,-207,602,532,834,-217,27
5976793,-210,560,530,809,-210,18
5976810,-206,567,529,817,-222,27
5976827,-186,561,538,832,-218,34
5976844,-190,598,536,835,-198,37
5976861,-183,560,538,842,-191,63
5976877,-230,570,488,787,-234,6
5976894,-181,564,534,832,-185,44
5976911,-188,570,504,812,-220,57
5976928,-208,563,507,816,-243,27
5976943,-183,564,509,810,-201,45
5976975,-207,541,507,811,-217,35
5976992,-234,545,478,786,-235,11
5977009,-218,523,491,787,-242,32
5977026,-210,573,498,812,-236,26
5977043,-225,522,482,772,-232,-23
5977059,-204,573,510,814,-206,-53
5977092,-233,540,477,785,-216,-157
5977109,-193,575,513,842,-149,-141
5977126,-211,540,501,803,-213,-182
5977142,-191,552,503,820,-199,-173
5977159,-187,562,512,826,-177,-160
5977175,-187,567,509,810,-210,-183
5977207,-218,526,498,803,-214,-186
5977224,-189,552,508,826,-164,-154
5977242,-212,528,475,778,-211,-178
5977260,-237,534,471,779,-211,-179
5977275,-245,487,468,766,-235,-188
5977292,-217,535,478,782,-200,-154
5977309,-215,535,493,786,-225,-131
5977325,-210,526,481,782,-245,-135
5977342,-223,511,472,778,-212,-123
5977358,-229,519,477,781,-244,-127
5977376,-233,495,468,766,-249,-130
5977392,-232,536,467,753,-258,-132
5977409,-215,511,470,767,-243,-111
5977426,-179,534,499,791,-193,-82
5977441,-191,529,479,785,-190,-66
5977460,-184,528,480,796,-188,-69
5977475,-175,537,503,812,-182,-41
5977492,-175,530,498,801,-194,-35
5977509,-157,543,500,794,-203,-50
5977526,-188,533,470,779,-215,-55
5977542,-178,508,482,774,-220,-57
5977558,-175,559,498,777,-212,-36
5977576,-204,515,445,731,-268,-69
5977592,-218,517,444,771,-244,-46
5977608,-195,515,452,783,-215,-27
5977625,-194,540,450,785,-201,-29
5977642,-201,529,464,765,-253,-36
5977659,-158,570,505,786,-220,-13
5977675,-161,553,491,782,-191,-14
5977692,-162,555,474,783,-228,-14
5977708,-154,531,476,792,-204,-10
5977725,-178,517,456,751,-225,-36
5977742,-186,539,470,751,-220,-50
5977758,-181,543,469,738,-255,-58
5977789,-181,538,475,755,-220,-27
5977806,-191,505,468,727,-240,-67
5977824,-190,533,455,737,-263,-33
5977841,-149,573,493,758,-201,-13
5977856,-174,536,479,759,-224,-16
5977876,-177,540,477,724,-223,-28
5977905,-152,556,476,733,-244,-18
5977922,-170,519,460,723,-226,-25
5977940,-167,523,466,737,-221,1
5977957,-141,574,505,759,-225,19
5977973,-196,510,451,704,-241,-31
5977991,-155,561,501,762,-237,22
5978022,-179,540,479,759,-233,4
5978040,-178,530,487,734,-251,1
5978057,-205,490,474,727,-272,-2
5978073,-190,540,488,746,-242,7
5978090,-180,534,489,752,-248,32
5978107,-205,503,467,724,-260,23
5978139,-201,488,452,712,-268,25
5978156,-217,541,445,723,-246,30
5978173,-194,534,452,734,-214,55
5978190,-185,531,469,750,-215,60
5978206,-197,541,463,733,-234,61
5978223,-187,528,468,736,-210,60
5978255,-216,511,451,707,-248,52
5978273,-180,525,460,719,-214,73
5978289,-212,545,468,724,-237,71
5978306,-230,501,436,703,-237,53
5978322,-184,548,480,741,-230,88
5978339,-205,525,463,732,-230,92
5978371,-171,573,494,774,-163,140
5978388,-207,542,468,724,-230,97
5978405,-221,539,444,724,-235,93
5978422,-237,508,441,715,-266,84
5978439,-230,517,449,719,-233,88
5978456,-220,507,457,717,-245,86
5978473,-210,548,479,735,-240,118
5978489,-231,504,438,719,-220,90
5978506,-203,543,487,768,-224,125
5978522,-188,561,477,758,-206,153
5978539,-201,534,478,753,-191,125
5978556,-184,556,495,768,-188,158
5978573,-183,565,502,772,-189,161
5978589,-193,559,471,741,-229,130
5978607,-204,533,474,742,-222,118
5978623,-179,531,478,754,-185,121
5978640,-183,517,472,748,-181,104
5978657,-192,561,470,750,-188,97
5978673,-186,540,473,755,-182,96
5978690,-181,576,469,747,-188,87
5978721,-188,531,457,746,-219,62
5978739,-178,530,473,749,-191,83
5978755,-179,538,445,736,-170,71
5978772,-179,552,462,748,-157,95
5978788,-167,569,462,753,-149,109
5978805,-188,532,448,743,-171,86
5978821,-218,517,438,719,-205,59
5978838,-196,552,443,724,-204,63
5978855,-185,536,462,748,-174,92
5978872,-180,531,477,751,-149,95
5978888,-206,563,443,739,-184,84
5978905,-200,533,439,728,-181,85
5978922,-211,539,449,734,-193,76
5978953,-197,540,445,751,-156,89
5978971,-193,548,449,757,-155,100
5978988,-206,552,441,738,-190,80
5979003,-210,528,442,737,-177,76
5979021,-217,534,430,720,-202,56
5979038,-206,526,445,721,-182,57
5979070,-234,537,413,712,-186,55
5979087,-216,507,436,713,-213,53
5979104,-207,576,445,725,-142,67
5979121,-211,535,429,714,-199,62
5979138,-178,582,453,741,-139,95
5979154,-209,543,442,719,-179,69
5979186,-234,518,417,694,-184,58
5979203,-231,528,425,698,-193,55
5979223,-197,544,449,731,-171,92
5979236,-201,507,425,705,-204,62
5979253,-240,504,403,682,-196,44
5979271,-203,509,440,724,-188,78
5979303,-219,503,419,685,-215,58
5979320,-210,542,415,687,-203,64
5979337,-214,535,434,721,-198,59
5979354,-203,537,427,710,-153,61
5979370,-181,574,443,724,-164,61
5979387,-186,542,441,718,-193,42
5979419,-183,531,442,722,-170,50
5979436,-188,536,446,719,-173,43
5979454,-199,558,441,708,-192,31
5979469,-188,559,442,722,-181,39
5979487,-217,545,414,682,-201,21
5979503,-195,514,423,711,-186,41
5979535,-181,567,440,718,-181,55
5979554,-191,568,440,716,-182,50
5979570,-151,608,451,720,-145,69
5979585,-188,563,440,718,-158,56
5979603,-190,555,431,709,-183,56
5979620,-143,569,468,757,-135,95
5979652,-105,600,506,781,-113,140
5979670,-58,665,547,832,-59,194
5979686,-65,623,542,813,-76,187
5979703,-126,624,501,775,-123,150
5979720,-94,625,534,783,-68,165
5979736,-110,638,527,785,-99,154
5979753,-128,603,507,783,-94,182
5979770,-96,631,543,812,-56,186
5979787,-94,619,560,819,-74,210
5979804,-92,654,532,779,-86,182
5979821,-108,629,530,783,-86,176
5979837,-96,641,536,768,-100,122
5979853,-96,645,535,782,-92,100
5979871,-112,607,529,785,-104,90
5979887,-106,627,529,768,-113,57
5979904,-95,662,533,786,-90,67
5979920,-97,664,535,782,-97,51
5979937,-126,646,526,761,-112,17
5979954,-122,635,541,783,-113,1
5979970,-122,627,533,782,-86,-3
5980001,-98,642,537,790,-97,-25
5980018,-124,622,537,790,-86,-89
5980035,-120,623,531,788,-118,-101
5980052,-199,624,535,789,-109,-123
5980069,-216,634,532,801,-117,-120
5980085,-229,628,528,783,-114,-140
5980118,-258,595,498,743,-179,-185
5980135,-231,623,514,760,-118,-163
5980152,-217,637,530,787,-109,-139
5980168,-226,622,523,779,-122,-143
5980185,-211,625,529,779,-134,-137
5980201,-224,587,508,763,-124,-150
5980233,-211,623,519,770,-141,-131
5980251,-210,617,531,777,-123,-126
5980268,-184,622,532,764,-129,-116
5980285,-185,622,531,765,-144,-128
5980302,-158,628,560,775,-130,-96
5980318,-160,623,542,788,-142,-89
5980350,-180,616,529,757,-144,-90
5980368,-178,617,532,762,-152,-93
5980384,-169,616,499,732,-147,-90
5980401,-207,590,500,734,-176,-120
5980418,-163,607,534,754,-170,-88
5980434,-161,597,519,748,-165,-100
5980467,-171,595,502,727,-188,-100
5980484,-153,622,519,751,-160,-78
5980501,-151,616,532,750,-161,-62
5980518,-186,589,504,712,-185,-100
5980534,-148,592,544,757,-169,-53
5980551,-164,596,537,752,-151,-60
5980568,-187,561,514,710,-226,-85
5980588,-183,566,533,733,-214,-71
5980601,-152,566,548,756,-165,-33
5980617,-163,593,536,746,-192,-46
5980634,-197,559,511,711,-219,-88
5980651,-161,602,538,720,-196,-58
5980668,-172,580,529,716,-219,-60
5980684,-162,581,532,720,-214,-58
5980701,-192,565,506,686,-249,-84
5980718,-183,586,511,699,-209,-70
5980735,-205,556,524,691,-266,-71
5980752,-200,601,544,696,-232,-62
5980768,-210,569,542,692,-247,-63
5980785,-230,591,554,692,-246,-58
5980815,-234,590,567,698,-232,-57
5980832,-230,597,563,696,-268,-48
5980849,-247,567,546,687,-254,-61
5980866,-247,592,537,683,-284,-69
5980883,-247,583,552,688,-255,-61
5980900,-226,606,578,714,-274,-50
5980932,-247,605,565,695,-244,-64
5980950,-237,613,571,718,-296,-61
5980967,-246,590,569,687,-258,-69
5980983,-220,610,588,690,-276,-63
5981000,-228,635,593,716,-262,-66
5981016,-202,633,601,716,-260,-36
5981050,-206,629,603,728,-248,-36
5981066,-203,604,574,695,-287,-61
5981083,-213,609,589,706,-297,-31
5981099,-200,621,593,728,-278,-5
5981116,-219,602,593,695,-286,-39
5981133,-216,587,571,693,-299,-33
5981165,-219,595,571,681,-339,-38
5981182,-230,568,533,647,-388,-62
5981198,-203,597,565,681,-319,-42
5981216,-167,627,601,714,-300,7
5981232,-214,604,553,678,-329,-32
5981250,-186,613,569,689,-337,-20
5981282,-165,600,589,726,-276,4
5981299,-165,621,553,692,-270,0
5981316,-225,591,531,682,-308,-61
5981332,-223,573,527,648,-316,-74
5981349,-154,662,594,735,-255,-13
5981366,-168,618,564,719,-273,-46
5981398,-201,588,534,668,-317,-147
5981415,-183,607,571,687,-268,-150
5981432,-150,630,564,692,-279,-126
5981449,-187,596,535,685,-297,-160
5981465,-188,597,546,687,-315,-159
5981482,-162,609,571,719,-277,-127
5981514,-187,598,541,698,-277,-135
5981532,-187,603,538,683,-294,-125
5981548,-186,615,541,692,-277,-121
5981565,-186,593,545,686,-264,-123
5981581,-178,604,543,692,-277,-112
5981599,-180,602,535,689,-289,-131
5981630,-96,665,607,749,-236,-46
5981648,-94,654,602,755,-227,-31
5981665,-105,646,593,750,-224,-25
5981680,-91,654,599,771,-188,-2
5981698,-89,644,586,749,-219,2
5981714,-121,641,560,719,-245,-39
5981747,-122,621,563,746,-221,-1
5981765,-118,647,566,748,-211,-4
5981781,-122,635,563,750,-236,3
5981798,-94,624,569,762,-214,12
5981815,-88,611,569,746,-183,16
5981831,-81,598,579,757,-210,16
5981863,-77,623,561,746,-212,26
5981881,-79,635,557,759,-193,29
5981898,-59,644,570,785,-210,60
5981914,-62,633,561,753,-216,32
5981931,-56,634,569,786,-182,65
5981947,-36,608,559,784,-216,65
5981979,-56,627,549,759,-220,60
5981997,-37,633,551,769,-212,60
5982014,-67,607,532,743,-243,55
5982031,-30,602,545,788,-203,78
5982047,-56,602,533,773,-233,60
5982064,-29,612,534,748,-260,63
5982096,-26,632,536,778,-244,64
5982113,-40,598,530,777,-210,60
5982130,-28,620,539,785,-234,90
5982147,-30,592,529,773,-252,56
5982163,-30,631,533,775,-230,66
5982180,-32,618,530,793,-198,94
5982212,-24,639,538,787,-182,101
5982230,-59,605,509,759,-214,69
5982246,-66,591,505,756,-242,66
5982263,-72,604,505,751,-231,56
5982280,-70,596,508,745,-229,59
5982297,-85,600,506,751,-250,44
5982329,-79,641,533,786,-202,60
5982346,-93,574,529,771,-209,39
5982363,-78,603,538,790,-201,46
5982380,-105,570,504,748,-198,15
5982396,-118,613,505,749,-211,7
5982413,-89,594,530,782,-173,51
5982445,-119,597,499,753,-188,8
5982463,-97,603,527,775,-189,25
5982480,-95,606,530,777,-168,27
5982496,-89,599,535,776,-175,30
5982512,-86,618,543,779,-179,39
5982529,-128,587,504,744,-192,29
5982562,-123,596,504,751,-174,24
5982579,-121,601,501,769,-185,-1
5982596,-114,591,506,767,-187,-4
5982613,-95,601,543,795,-175,-2
5982629,-111,554,505,761,-193,-24
5982645,-123,600,509,759,-195,-19
5982678,-123,576,508,777,-184,-2
5982696,-117,595,528,778,-165,-4
5982712,-113,602,535,794,-155,8
5982728,-128,572,511,766,-205,-38
5982746,-124,537,535,780,-186,6
5982763,-153,603,514,749,-178,-21
5982794,-158,602,529,767,-180,-64
5982811,-135,592,533,778,-187,-93
5982828,-162,585,531,756,-192,-101
5982845,-128,613,541,780,-162,-95
5982862,-164,566,540,777,-177,-112
5982879,-115,599,537,764,-205,-91
5982911,-162,567,507,749,-198,-112
5982928,-151,596,542,759,-177,-90
5982945,-159,588,533,780,-190,-80
5982961,-143,596,547,781,-160,-66
5982978,-176,549,510,741,-213,-97
5982995,-148,593,544,777,-182,-61
5983027,-158,599,537,781,-175,-34
5983045,-164,571,522,751,-214,-43
5983062,-164,600,521,760,-204,-29
5983078,-179,561,521,746,-194,-31
5983095,-139,605,549,787,-180,14
5983111,-132,610,564,804,-143,32
5983144,-148,608,548,785,-186,23
5983161,-138,562,522,780,-172,25
5983177,-187,541,516,745,-215,9
5983194,-186,593,531,779,-192,39
5983211,-162,600,536,778,-180,50
5983228,-172,580,537,769,-184,57
5983260,-186,568,529,746,-189,52
5983277,-161,620,536,770,-203,65
5983294,-177,568,507,743,-215,60
5983311,-161,576,539,758,-187,68
5983328,-166,603,539,755,-215,67
5983344,-207,541,505,728,-261,34
5983376,-192,566,504,721,-232,57
5983394,-203,541,487,700,-243,36
5983410,-216,548,485,688,-250,27
5983427,-224,566,486,692,-262,28
5983444,-188,556,513,706,-208,59
5983460,-219,564,488,690,-246,31
5983492,-189,544,509,692,-243,53
5983509,-215,565,494,683,-235,33
5983526,-245,524,466,653,-282,3
5983543,-228,551,500,664,-263,4
5983560,-214,537,494,660,-301,8
5983577,-250,513,473,653,-288,0
5983609,-223,528,480,648,-308,5
5983626,-252,500,445,617,-312,-32
5983643,-236,490,461,637,-316,-22
5983660,-212,551,478,651,-284,2
5983676,-220,527,485,643,-314,-17
5983694,-194,531,507,671,-264,5
5983725,-209,507,478,662,-303,-12
5983743,-233,495,471,621,-330,-49
5983759,-224,481,474,643,-342,-40
5983776,-200,547,491,659,-299,-35
5983792,-217,510,475,656,-348,-33
5983810,-222,495,468,648,-349,-66
5983842,-233,498,465,650,-352,-49
5983859,-202,529,487,671,-331,-25
5983876,-210,479,486,681,-356,-47
5983893,-256,506,439,647,-359,-76
5983910,-190,522,509,723,-354,-37
5983926,-208,527,467,716,-311,-55
5983958,-186,535,501,737,-290,-28
5983976,-185,517,503,742,-321,-25
5983992,-191,502,495,732,-317,-27
5984009,-154,565,532,768,-276,12
5984026,-166,522,512,735,-308,-22
5984043,-204,477,480,695,-313,-65
5984075,-157,529,531,732,-276,-37
5984092,-147,510,535,739,-284,-23
5984109,-87,612,575,788,-236,37
5984126,-95,570,564,772,-249,31
5984142,-90,578,571,754,-251,24
5984159,-92,569,566,757,-256,35
5984191,-134,537,528,714,-300,3
5984209,-129,508,524,717,-289,27
5984225,-129,548,530,715,-286,28
5984242,-96,565,564,730,-259,57
5984258,-94,580,569,748,-271,92
5984275,-52,599,610,776,-195,106
5984307,-88,611,579,751,-225,91
5984325,-52,592,584,767,-213,160
5984341,-123,574,551,726,-245,90
5984358,-97,570,562,719,-249,88
5984375,-117,598,531,711,-250,84
5984391,-98,566,563,720,-231,96
5984424,-123,569,538,718,-233,94
5984440,-96,595,542,742,-211,115
5984458,-132,558,529,715,-224,82
5984475,-125,576,530,716,-270,84
5984492,-123,568,531,716,-234,80
5984508,-122,557,526,717,-246,72
5984540,-114,565,514,719,-247,49
5984558,-131,541,491,683,-277,-20
5984574,-122,566,501,699,-258,-33
5984591,-114,558,500,711,-248,-29
5984608,-121,535,498,716,-230,-51
5984624,-106,556,493,702,-242,-71
5984656,-74,586,539,763,-204,-12
5984673,-62,623,542,761,-196,-13
5984691,-69,583,535,785,-229,3
5984707,-83,572,536,774,-201,-7
5984724,-85,563,508,739,-245,-4
5984741,-133,535,490,725,-257,-31
5984774,-145,535,473,724,-251,-27
5984791,-170,513,438,688,-289,-48
5984807,-196,478,400,661,-332,-71
5984824,-152,498,447,696,-303,-28
5984841,-187,448,380,649,-321,-54
5984857,-216,485,422,668,-313,-67
5984889,-144,541,460,726,-276,25
5984907,-81,559,528,780,-208,83
5984923,-46,644,560,824,-141,142
5984940,-31,623,574,840,-141,153
5984957,-6,673,600,867,-109,187
5984974,-6,640,596,855,-120,174
5985005,-8,673,607,886,-89,187
5985022,9,652,602,877,-96,214
5985039,6,672,599,886,-92,211
5985056,-29,629,569,825,-156,164
5985073,-26,629,574,845,-149,181
5985090,35,696,624,902,-57,245
5985122,38,670,627,894,-82,239
5985140,-1,646,592,869,-106,207
5985156,12,666,605,884,-61,219
5985174,-4,652,591,877,-60,222
5985190,-17,619,592,855,-89,189
5985206,-23,654,566,859,-60,197
5985238,-33,637,555,826,-43,181
5985256,-29,590,563,838,-39,189
5985273,-21,621,565,845,1,207
5985289,-33,573,561,829,9,208
5985305,-34,601,534,811,21,182
5985322,-29,600,551,810,33,200
5985354,-60,569,528,807,1,184
5985371,-61,569,531,809,-1,204
5985389,-52,583,525,810,2,218
5985406,-62,574,532,816,-31,219
5985423,-63,556,503,791,-29,191
5985439,-88,566,503,776,-39,183
5985471,-115,510,497,780,-63,164
5985489,-119,513,484,763,-57,139
5985505,-124,501,479,747,-106,122
5985522,-151,524,473,751,-134,82
5985539,-87,556,512,789,-54,129
5985555,-90,543,506,801,-66,123
5985588,-115,515,474,745,-94,57
5985605,-112,542,469,746,-92,29
5985622,-122,530,472,750,-123,23
5985639,-107,535,472,760,-87,27
5985655,-126,502,470,759,-92,-7
5985672,-123,544,470,767,-120,9
5985704,-135,508,454,748,-103,-20
5985722,-130,503,451,744,-143,-28
5985738,-157,508,431,717,-113,-33
5985756,-144,514,451,752,-144,-32
5985771,-143,501,442,724,-131,-37
5985788,-141,526,458,763,-145,-67
5985820,-127,510,452,748,-149,-113
5985837,-150,512,450,737,-145,-119
5985855,-156,516,431,719,-160,-148
5985871,-170,497,420,714,-180,-163
5985888,-150,516,431,717,-158,-153
5985905,-149,531,452,725,-168,-156
5985937,-167,547,443,721,-150,-153
5985954,-156,506,436,701,-186,-184
5985971,-140,543,442,724,-152,-159
5985988,-140,543,442,724,-152,-159
5986004,-140,543,442,724,-152,-159
5986021,-121,535,450,717,-134,-152
5986057,-125,529,433,715,-149,-145
5986071,-145,539,438,723,-151,-150
5986088,-131,531,441,719,-139,-146
5986104,-160,533,427,712,-158,-157
5986121,-139,528,445,717,-149,-154
5986137,-154,563,430,698,-152,-158
5986170,-131,561,447,734,-120,-120
5986187,-133,545,435,718,-129,-130
5986203,-148,534,436,715,-152,-144
5986221,-157,533,427,702,-156,-149
5986237,-159,526,411,686,-163,-164
5986254,-147,532,445,701,-153,-132
5986286,-130,538,450,715,-150,-125
5986303,-115,572,467,728,-154,-103
5986319,-87,594,486,750,-119,-83
5986337,-94,611,503,759,-75,-66
5986354,-81,600,502,770,-91,-63
5986372,-79,612,518,783,-73,-53
5986402,-97,598,505,775,-117,-64
5986420,-96,594,499,755,-90,-62
5986436,-120,581,497,744,-153,-88
5986453,-98,584,480,745,-107,-81
5986470,-104,574,503,746,-131,-67
5986486,-121,567,477,749,-141,-87
5986518,-93,584,508,769,-93,-55
5986535,-134,577,465,738,-158,-84
5986552,-96,576,513,756,-103,-57
5986570,-99,592,487,743,-111,-65
5986586,-96,572,474,736,-129,-72
5986603,-132,546,457,710,-163,-103
5986619,-101,612,484,745,-111,-64
5986636,-116,581,488,744,-154,-57
5986653,-118,588,475,711,-148,-88
5986670,-122,590,478,721,-185,-60
5986686,-149,568,468,718,-161,-100
5986703,-149,552,475,732,-169,-65
5986720,-125,568,487,750,-156,-55
5986736,-118,569,488,757,-159,-28
5986753,-118,558,482,742,-156,-56
5986770,-109,569,491,743,-147,-35
5986787,-118,525,468,711,-212,-70
5986803,-88,539,495,750,-172,-24
5986820,-98,554,500,756,-147,-19
5986836,-93,546,475,727,-175,-15
5986854,-100,548,475,747,-169,-23
5986870,-97,538,496,729,-174,-33
5986886,-69,581,505,759,-168,-3
5986904,-75,561,510,759,-119,6
5986920,-91,558,500,755,-164,3
5986936,-88,588,504,764,-117,25
5986953,-75,576,504,748,-156,29
5986985,-92,594,507,750,-125,34
5987002,-99,563,504,757,-140,32
5987018,-100,570,500,753,-158,42
5987036,-91,581,531,764,-155,46
5987052,-100,556,501,744,-159,27
5987069,-91,601,500,730,-141,37
5987102,-79,563,516,750,-148,35
5987118,-88,610,510,752,-138,2
5987135,-114,554,495,739,-169,-2
5987152,-118,565,497,716,-180,-34
5987168,-135,564,466,710,-194,-60
5987185,-116,564,500,729,-175,-22
5987203,-119,580,500,749,-184,-27
5987219,-127,532,478,718,-175,-34
5987235,-140,551,483,717,-192,-58
5987251,-126,541,477,721,-188,-32
5987268,-130,546,479,715,-209,-61
5987285,-121,564,485,719,-211,-24
5987301,-148,536,476,707,-201,-51
5987319,-177,536,466,687,-232,-68
5987335,-175,530,452,679,-233,-69
5987351,-164,539,476,689,-212,-69
5987369,-182,511,452,682,-226,-80
5987385,-188,526,438,677,-236,-71
5987402,-161,525,462,697,-212,-58
5987419,-156,543,453,687,-221,-66
5987450,-142,569,469,687,-214,-72
5987467,-179,533,438,660,-243,-94
5987485,-169,522,446,685,-267,-93
5987501,-153,532,459,681,-236,-75
5987517,-159,549,446,688,-239,-67
5987534,-155,521,459,686,-235,-75
5987550,-166,548,453,688,-213,-72
5987568,-170,532,449,682,-234,-78
5987584,-149,562,472,694,-212,-57
5987601,-160,533,445,670,-234,-65
5987618,-151,522,474,693,-244,-63
5987635,-153,580,462,684,-205,-58
5987651,-145,541,466,687,-223,-53
5987668,-133,571,471,694,-216,-32
5987685,-135,563,464,688,-207,-36
5987702,-116,594,473,689,-217,-33
5987719,-88,591,485,716,-190,-5
5987735,-81,614,503,716,-166,9
5987751,-68,581,499,719,-165,24
5987768,-61,597,504,723,-149,36
5987784,-61,583,507,729,-173,38
5987802,-44,600,507,744,-143,63
5987818,-59,572,510,734,-156,59
5987835,-66,566,499,714,-155,23
5987852,-70,534,479,702,-196,20
5987868,-93,543,495,712,-215,0
5987885,-90,540,489,712,-217,-3
5987902,-93,518,473,693,-209,-18
5987918,-100,505,479,699,-251,-17
5987935,-62,537,510,727,-207,16
5987951,-101,484,481,702,-255,-18
5987968,-105,467,482,715,-278,-27
5987985,-85,439,504,717,-284,-2
5988001,-89,430,498,719,-294,-3
5988032,-65,397,495,713,-324,5
5988049,-99,390,502,716,-316,-2
5988066,-118,371,471,690,-348,-22
5988083,-123,332,473,684,-362,-34
5988100,-115,327,472,691,-372,-8
5988116,-118,299,471,694,-394,-1
5988133,-108,308,471,691,-386,6
5988150,-128,270,469,692,-417,-1
5988166,-92,274,483,696,-449,25
5988183,-114,228,473,688,-448,-6
5988199,-95,232,506,704,-452,32
5988217,-95,197,502,720,-440,30
5988233,-91,172,505,714,-474,31
5988251,-56,176,499,703,-457,36
5988267,-87,145,473,699,-477,35
5988283,-87,127,497,690,-490,35
5988300,-114,105,475,678,-506,25
5988317,-135,87,473,656,-523,-1
5988333,-164,40,445,646,-541,-6
5988350,-111,75,489,685,-524,10
5988381,-122,40,462,650,-563,-26
5988398,-105,30,458,653,-532,-21
5988415,-89,32,457,666,-499,-1
5988432,-87,-3,449,655,-536,-26
5988449,-67,-24,440,653,-542,-31
5988466,-64,-27,438,652,-548,-32
5988482,-57,-36,426,654,-566,-29
5988500,-60,-33,418,632,-567,-39
5988516,-56,-64,415,627,-562,-38
5988532,-34,-86,409,632,-573,-33
5988550,-31,-91,418,628,-568,-23
5988566,-38,-117,403,626,-597,-26
5988583,-41,-117,410,623,-599,-31
5988614,-18,-127,441,659,-567,15
5988630,0,-130,443,664,-567,13
5988647,3,-149,448,666,-563,30
5988665,-5,-176,446,661,-563,-5
5988682,-6,-200,446,658,-595,-42
5988698,-5,-216,454,673,-597,-43
5988714,4,-226,473,664,-591,-57
5988731,5,-243,468,692,-594,-33
5988748,4,-242,471,690,-576,-60
5988764,4,-240,462,688,-595,-54
5988781,1,-253,471,702,-587,-58
5988798,6,-239,477,725,-591,-53
5988815,1,-266,468,706,-566,-62
5988831,0,-262,471,711,-588,-52
5988849,27,-262,478,720,-590,-49
5988865,35,-259,480,706,-564,-47
5988882,4,-259,453,672,-596,-70
5988899,-6,-290,431,663,-596,-101
5988915,9,-285,446,687,-587,-56
5988932,4,-297,438,683,-592,-59
5988963,40,-333,442,684,-632,-57
5988980,62,-372,443,677,-665,-68
5988997,95,-383,448,696,-624,-34
5989014,85,-391,441,689,-663,-67
5989030,86,-383,443,688,-659,-57
5989047,113,-362,450,694,-632,-55
5989080,141,-384,406,684,-628,-70
5989097,144,-382,399,677,-628,-68
5989113,226,-355,415,705,-597,-57
5989130,261,-369,406,696,-617,-82
5989147,278,-372,396,689,-609,-96
5989164,367,-376,388,693,-601,-83
5989181,407,-397,356,686,-621,-87
5989197,401,-449,348,678,-658,-88
5989213,416,-426,376,685,-646,-63
5989230,416,-454,369,690,-659,-62
5989248,443,-413,382,688,-661,-57
5989264,440,-443,386,691,-659,-31
5989281,443,-419,383,686,-671,-37
5989312,434,-443,382,665,-686,-33
5989330,455,-426,423,700,-686,-10
5989347,482,-466,388,675,-732,-10
5989363,511,-473,393,664,-718,-27
5989380,499,-489,378,656,-725,-38
5989396,514,-328,395,672,-734,-21
5989428,591,-326,430,713,-680,40
5989446,598,-293,475,752,-663,69
5989463,597,-293,495,746,-620,102
5989479,561,-234,499,750,-598,88
5989496,535,-245,472,737,-592,68
5989513,541,-175,492,737,-542,70
5989545,449,-13,501,705,-471,8
5989563,434,80,510,723,-444,11
5989578,295,135,524,702,-422,-26
5989596,150,310,570,683,-439,-35
5989613,64,418,603,687,-369,-37
5989629,2,511,577,663,-331,-68
5989646,1,613,572,663,-299,-62
5989663,-38,696,558,633,-244,-87
5989679,-90,771,573,641,-200,-69
5989697,-129,809,571,652,-168,-69
5989712,-159,845,569,621,-149,-64
5989730,-188,970,571,637,-125,-65
5989746,-195,985,598,626,-113,-65
5989777,-268,1088,635,628,-58,-68
5989794,-288,1099,627,666,-45,-33
5989811,-270,1191,621,634,30,-59
5989828,-262,1216,609,651,-28,-50
5989844,-242,1316,595,640,1,-54
5989862,-207,1345,594,656,-5,-44
5989894,-216,1376,566,624,26,-68
5989912,-215,1435,575,638,94,-42
5989929,-216,1391,591,640,37,-58
5989945,-217,1434,566,629,53,-61
5989962,-197,1429,561,623,27,-68
5989978,-171,1462,571,664,42,-47
5990011,-176,1520,538,624,33,-46
5990028,-219,1431,532,614,39,-45
5990045,-238,1449,508,592,-26,-67
5990062,-198,1403,485,588,14,-67
5990078,-153,1432,477,588,-15,-67
5990095,-147,1444,466,589,4,-55
5990127,-215,1397,434,557,-72,-73
5990146,-213,1380,465,568,-52,-53
5990161,-210,1609,493,618,-34,7
5990177,-246,1546,471,590,-83,-27
5990194,-266,1581,450,579,-105,-30
5990211,-243,1597,473,607,-121,-6
5990228,-247,1525,464,587,-124,7
5990245,-259,1474,447,606,-192,0
5990261,-259,1429,461,598,-188,17
5990277,-239,1374,472,620,-211,43
5990294,-282,1242,435,581,-304,-4
5990310,-259,1162,438,586,-372,26
5990328,-233,1074,436,597,-469,41
5990360,-228,847,446,605,-623,85
5990377,-176,666,447,619,-641,85
5990394,-93,439,404,616,-714,93
5990410,118,257,343,604,-785,86
5990428,250,147,337,637,-838,117
5990444,327,61,341,654,-900,143
5990476,324,-61,355,670,-922,159
5990494,327,-99,384,688,-923,183
5990510,308,-122,385,685,-908,169
5990527,331,-140,412,708,-860,202
5990543,287,-229,381,680,-876,163
5990561,300,-267,379,674,-871,146
5990577,326,-294,388,694,-826,173
5990594,346,-362,385,694,-829,169
5990611,447,-384,380,720,-812,186
5990627,665,-447,290,725,-800,212
5990644,800,-514,250,713,-768,203
5990660,827,-570,260,726,-714,215
5990678,873,-612,242,723,-722,210
5990709,930,-673,218,736,-705,206
5990726,953,-719,231,734,-687,203
5990743,1004,-743,212,746,-691,198
5990760,1081,-750,217,774,-653,230
5990776,1142,-718,208,764,-652,248
5990793,1113,-750,172,735,-687,196
5990825,1100,-689,189,751,-625,223
5990843,1065,-691,183,749,-628,212
5990860,1074,-664,188,747,-605,194
5990877,1038,-658,203,750,-589,184
5990893,1037,-632,231,777,-569,196
5990910,1042,-599,228,761,-527,218
5990942,973,-539,227,756,-507,205
5990959,950,-498,230,774,-533,181
5990976,949,-451,242,794,-467,213
5990993,948,-408,261,781,-423,181
5991009,911,-380,242,781,-397,180
5991026,904,-335,263,793,-268,187
5991058,870,-206,263,794,-150,172
5991075,857,-121,261,798,-117,163
5991091,844,-43,232,757,-78,118
5991108,791,23,229,747,-35,89
5991126,779,108,258,780,98,119
5991141,727,179,286,782,88,110
5991175,561,284,322,779,71,85
5991192,496,389,343,783,179,90
5991209,441,453,361,784,235,92
5991225,366,534,385,795,267,86
5991242,357,610,421,808,357,125
5991258,286,640,424,801,244,114
5991290,209,741,443,806,255,131
5991308,193,840,450,805,289,140
5991325,194,875,488,821,257,156
5991341,200,920,510,846,286,166
5991357,171,934,510,831,270,164
5991374,110,935,472,802,274,113
5991407,78,1066,502,839,403,160
5991425,56,1099,508,824,388,117
5991441,68,1206,503,837,394,142
5991458,1,1258,497,816,382,117
5991474,-57,1352,476,795,394,86
5991492,-147,1428,495,776,374,89
5991523,-377,1693,599,809,411,96
5991540,-492,1813,630,805,414,63
5991557,-610,1824,658,791,347,43
5991574,-754,1833,665,784,353,32
5991591,-768,1881,671,778,365,26
5991607,-794,1873,649,756,337,10
5991625,-776,1888,662,787,358,35
5991657,-776,1890,660,788,345,32
5991674,-807,1842,623,746,295,-4
5991691,-819,1787,632,750,257,-2
5991707,-789,1743,635,743,231,13
5991724,-750,1711,663,779,246,38
5991740,-755,1636,642,753,198,33
5991772,-685,1500,626,756,144,31
5991789,-621,1438,592,748,101,37
5991806,-548,1337,600,787,81,65
5991824,-536,1237,569,771,16,51
5991841,-491,1083,571,770,-37,65
5991857,-333,1018,538,787,-75,96
5991889,-49,835,459,776,-149,72
5991906,5,718,439,765,-160,63
5991923,16,579,440,753,-217,16
5991941,42,456,410,752,-208,3
5991957,45,385,416,748,-244,-38
5991973,71,315,411,746,-286,-53
5992005,89,201,414,765,-281,-46
5992023,89,156,420,785,-255,-29
5992040,99,128,415,782,-260,-28
5992057,88,69,401,761,-291,-35
5992072,124,58,407,777,-269,-32
5992090,134,-15,412,780,-270,-30
5992122,135,-123,400,759,-373,-32
5992139,157,-132,420,784,-404,-23
5992156,116,-205,398,745,-453,-37
5992174,140,-222,404,756,-497,-7
5992190,143,-301,383,744,-563,-34
5992206,168,-368,388,750,-588,-5
5992239,247,-479,348,746,-629,-15
5992257,381,-465,370,783,-593,20
5992273,411,-492,352,780,-630,15
5992289,443,-538,324,760,-652,-3
5992306,443,-553,322,758,-647,-3
5992323,433,-576,315,745,-642,-23
5992355,418,-569,320,746,-654,-33
5992372,408,-584,328,745,-640,-26
5992389,408,-601,319,752,-627,-5
5992406,399,-570,320,751,-594,1
5992422,386,-551,341,763,-569,5
5992439,423,-501,365,786,-547,39
5992471,364,-468,345,756,-520,-2
5992489,354,-435,356,747,-541,-18
5992505,338,-404,350,747,-520,-26
5992522,333,-359,385,753,-499,-7
5992539,218,-324,387,745,-498,-31
5992556,205,-241,416,749,-473,-25
5992588,151,-163,411,755,-466,-29
5992605,96,-126,415,740,-439,-33
5992622,57,-53,396,720,-480,-48
5992638,59,43,408,723,-421,-60
5992655,29,113,377,706,-409,-94
5992672,16,178,380,688,-342,-109
5992704,24,329,397,717,-221,-93
5992722,32,417,413,734,-171,-61
5992738,29,435,403,716,-171,-101
5992755,34,511,416,722,-82,-82
5992771,32,534,386,698,-87,-93
5992788,72,538,389,709,-31,-98
5992821,241,699,341,714,75,-93
5992838,242,738,323,709,109,-94
5992854,240,778,320,696,144,-124
5992871,258,778,296,687,168,-122
5992888,296,824,319,719,240,-120
5992904,385,854,318,737,304,-88
5992936,439,881,322,750,358,-86
5992953,421,940,312,721,375,-93
5992970,425,981,312,741,392,-89
5992987,439,1038,337,751,437,-65
5993005,412,1050,316,722,423,-98
5993021,425,1097,343,755,385,-78
5993053,420,1170,348,754,439,-55
5993071,420,1229,354,746,486,-65
5993088,405,1251,336,744,517,-61
5993104,449,1330,354,767,539,-38
5993121,531,1421,328,786,535,-41
5993138,654,1538,296,812,600,-30
5993170,724,1515,276,792,569,-50
5993187,753,1498,246,772,565,-121
5993204,788,1506,206,777,532,-141
5993221,792,1478,176,734,493,-193
5993237,818,1546,176,749,477,-193
5993254,841,1520,189,753,547,-179
5993287,890,1546,188,778,506,-206
5993303,908,1550,161,770,486,-209
5993320,918,1564,150,753,473,-217
5993337,934,1609,160,787,460,-189
5993354,904,1580,150,764,448,-201
5993370,912,1566,165,768,412,-175
5993402,881,1516,178,772,348,-160
5993420,852,1378,165,740,255,-191
5993436,874,1283,184,761,253,-124
5993453,847,1128,179,744,188,-152
5993470,821,1035,160,722,95,-147
5993487,750,975,186,722,38,-149
5993519,541,830,262,717,-89,-125
5993536,477,714,287,722,-148,-121
5993553,414,587,299,724,-196,-127
5993570,442,548,306,749,-212,-110
5993587,427,508,311,711,-235,-125
5993603,408,473,307,726,-223,-119
5993635,372,431,286,678,-273,-165
5993653,402,440,321,722,-241,-138
5993669,381,386,305,684,-301,-157
5993686,400,403,337,725,-259,-132
5993703,373,378,319,683,-279,-164
5993720,394,369,327,700,-290,-147
5993751,447,327,335,691,-335,-157
5993769,451,249,348,703,-351,-171
5993786,463,165,352,693,-388,-209
5993803,445,32,346,687,-448,-223
5993818,448,-17,352,690,-444,-244
5993835,440,-183,334,690,-495,-265
5993868,439,-377,337,684,-568,-289
5993885,440,-456,352,695,-571,-300
5993902,410,-537,335,690,-581,-308
5993919,415,-536,376,695,-558,-326
5993935,418,-547,361,687,-571,-316
5993952,397,-596,369,694,-588,-330
5993984,405,-595,390,723,-511,-298
5994001,365,-633,372,682,-538,-325
5994018,370,-618,379,689,-538,-323
5994035,345,-633,371,678,-504,-340
5994052,350,-597,388,692,-483,-342
5994069,352,-594,382,696,-455,-315
5994101,353,-563,413,731,-449,-296
5994118,341,-539,416,702,-433,-305
5994135,319,-570,394,692,-419,-324
5994152,324,-530,412,693,-421,-323
5994168,306,-532,414,702,-426,-326
5994185,306,-520,415,712,-414,-333
5994217,273,-536,398,704,-419,-379
5994233,220,-519,399,693,-429,-387
5994251,217,-509,413,722,-391,-372
5994268,199,-508,392,684,-438,-404
5994285,186,-499,398,687,-428,-410
5994301,215,-442,416,691,-375,-384
5994334,185,-388,389,689,-353,-369
5994351,171,-358,385,687,-319,-378
5994367,220,-269,449,733,-267,-326
5994384,209,-232,438,719,-295,-340
5994401,203,-202,428,719,-270,-339
5994418,185,-153,418,690,-301,-356
5994450,151,-58,398,671,-295,-362
5994468,150,-73,391,690,-282,-349
5994484,148,31,388,664,-324,-416
5994500,159,181,413,700,-281,-403
5994516,179,314,416,689,-270,-415
5994534,159,493,412,693,-279,-460
5994566,186,755,414,702,-284,-519
5994584,156,804,412,710,-295,-564
5994600,143,868,412,693,-253,-584
5994617,117,965,427,698,-205,-684
5994634,123,1026,430,722,-159,-720
5994650,109,1113,415,697,-123,-733
5994682,120,1312,407,690,-86,-743
5994699,127,1335,406,694,-64,-746
5994716,136,1398,404,689,-45,-746
5994733,145,1428,397,699,-6,-733
5994750,171,1465,414,725,59,-689
5994766,178,1487,415,721,69,-690
5994799,138,1563,375,654,92,-718
5994816,147,1605,382,687,124,-686
5994832,155,1689,382,677,148,-675
5994850,157,1709,399,695,185,-640
5994867,153,1757,365,668,189,-657
5994884,191,1839,385,703,214,-610
5994915,189,1835,388,688,263,-577
5994932,211,1947,391,720,328,-554
5994950,200,1880,395,718,359,-531
5994967,220,1878,424,749,348,-503
5994983,207,1909,402,719,373,-483
5995000,200,1888,403,723,382,-476
5995032,261,1901,419,774,455,-403
5995049,278,1808,373,723,458,-441
5995066,298,1876,348,721,406,-436
5995083,325,1827,370,721,461,-423
5995099,302,1809,352,721,402,-416
5995116,328,1798,358,699,464,-405
5995148,289,1709,354,685,391,-412
5995166,269,1679,366,699,390,-368
5995181,279,1643,393,731,378,-315
5995199,209,1537,375,695,305,-344
5995216,114,1482,409,691,258,-319
5995233,54,1382,447,687,195,-319
5995264,30,1017,445,688,63,-268
5995282,42,903,456,701,25,-234
5995299,62,812,477,724,-39,-242
5995316,75,745,481,722,-109,-222
5995332,88,714,487,723,-114,-220
5995349,86,575,440,680,-250,-266
5995382,86,395,447,682,-358,-254
5995399,153,256,503,729,-364,-184
5995415,176,149,546,758,-392,-144
5995432,158,-4,534,756,-435,-153
5995449,125,-99,515,743,-460,-151
5995465,137,-156,529,751,-473,-119
5995497,130,-260,527,734,-575,-121
5995515,137,-288,528,743,-574,-99
5995531,134,-324,532,732,-576,-110
5995549,114,-369,528,723,-602,-116
5995565,123,-398,522,727,-591,-96
5995582,113,-421,496,686,-606,-123
5995613,144,-446,500,684,-615,-97
5995631,166,-442,526,721,-628,-58
5995648,155,-446,526,726,-618,-53
5995665,179,-438,535,755,-589,-19
5995681,156,-402,525,735,-559,-21
5995698,186,-360,540,753,-533,6
5995730,192,-363,565,775,-511,25
5995746,211,-333,574,784,-492,50
5995766,270,-243,694,910,-422,111
5995780,383,-100,765,981,-297,244
5995797,393,-50,757,977,-249,254
5995814,388,-62,751,983,-206,284
5995846,350,-65,718,952,-234,257
5995864,343,-55,721,937,-249,250
5995880,333,-62,713,945,-247,255
5995897,336,-32,720,941,-223,271
5995914,348,-28,722,935,-227,283
5995931,325,-17,717,930,-221,273
5995963,303,-12,684,918,-233,267
5995981,319,-6,716,933,-210,276
5995997,337,30,724,962,-175,304
5996014,320,7,719,936,-192,284
5996031,279,-3,690,898,-218,245
5996048,271,-4,676,890,-225,242
5996079,279,62,700,922,-177,269
5996096,292,96,719,928,-165,262
5996114,269,95,687,899,-184,248
5996130,258,124,683,905,-157,242
5996147,246,131,655,898,-187,237
5996164,241,170,698,915,-170,221
5996195,285,278,715,940,-95,257
5996213,275,362,714,920,-67,242
5996229,269,380,690,915,-74,220
5996247,297,492,703,925,-40,248
5996264,343,633,722,939,0,278
5996280,321,709,696,897,20,252
5996313,358,1100,715,925,274,293
5996330,342,1310,685,894,332,268
5996347,379,1476,697,916,387,280
5996363,363,1675,692,899,449,275
5996380,370,1798,686,885,554,270
5996397,412,2042,693,912,655,296
5996429,442,2386,691,902,703,318
5996446,450,2494,689,879,795,323
5996462,440,2570,682,873,757,297
5996479,416,2589,677,868,747,296
5996496,401,2621,688,875,754,311
5996513,385,2575,656,850,693,292
5996544,421,2552,664,890,674,331
5996562,394,2523,653,865,638,323
5996578,366,2447,655,872,597,324
5996595,384,2383,664,849,560,328
5996613,346,2307,628,833,487,293
5996629,366,2266,661,854,505,347
5996661,317,2055,625,855,396,323
5996678,207,1840,630,889,272,287
5996696,179,1718,562,808,354,202
5996712,165,1467,540,776,289,218
5996729,97,1322,560,818,278,183
5996746,13,1216,560,787,194,90
5996778,-94,1084,509,715,125,-32
5996795,-127,1036,474,718,86,-66
5996814,-121,977,467,713,66,-80
5996829,-92,980,467,692,52,-95
5996846,-87,1001,432,684,61,-125
5996862,-97,987,415,658,65,-126
5996895,-125,1005,418,638,55,-143
5996912,-137,982,406,648,65,-126
5996928,-90,1039,435,657,54,-97
5996945,-37,1074,449,668,93,-51
5996962,49,1128,471,687,87,16
5996980,84,1131,498,706,100,50
5997012,204,1199,507,715,60,102
5997028,204,1199,514,718,60,102
5997046,242,1250,506,709,13,121
5997063,259,1253,515,720,58,143
5997078,258,1254,495,701,25,128
5997095,269,1263,505,707,33,127
5997111,261,1266,509,699,-28,117
5997129,271,1274,515,708,-39,117
5997145,238,1248,479,666,-110,77
5997161,246,1262,483,656,-124,73
5997178,221,1223,475,656,-126,70
5997194,228,1231,476,668,-125,96
5997211,187,1188,467,658,-179,63
5997243,109,1088,406,629,-272,16
5997260,57,984,413,631,-185,38
5997278,41,934,412,662,-138,75
5997294,-22,839,380,627,-130,34
5997311,-46,826,385,633,-100,37
5997329,-67,797,386,648,-66,24
5997360,-128,724,360,636,-49,7
5997378,-157,663,320,588,-113,-19
5997394,-147,688,348,621,-94,0
5997411,-123,713,363,627,-49,30
5997427,-49,770,387,656,-51,77
5997444,-3,791,405,667,-21,136
5997460,-1,780,392,654,-40,126
5997478,24,757,398,661,3,160
5997493,2,753,408,662,6,154
5997510,-16,687,379,656,-44,105
5997527,-98,657,373,653,-65,70
5997544,-121,653,378,658,-63,63
5997561,-147,639,380,634,-69,53
5997593,-185,626,367,627,-105,29
5997610,-188,624,371,638,-93,25
5997627,-189,664,386,645,-96,21
5997643,-127,694,437,689,-57,111
5997660,-54,698,446,695,-27,146
5997676,-34,696,455,701,-43,155
5997693,-25,710,476,726,-13,182
5997710,-96,654,429,686,-65,127
5997727,-127,627,418,670,-60,89
5997743,-181,617,414,660,-106,41
5997760,-177,608,411,661,-95,47
5997777,-219,598,409,661,-107,24
5997793,-218,598,405,660,-106,30
5997810,-252,559,374,638,-122,-5
5997826,-230,605,406,636,-119,22
5997843,-233,550,389,636,-127,2
5997860,-207,593,423,660,-118,29
5997876,-164,605,445,665,-96,60
5997893,-132,617,440,662,-83,73
5997910,-107,625,425,656,-83,98
5997927,-117,597,413,655,-92,102
5997945,-127,567,411,662,-119,100
5997961,-172,561,395,659,-119,72
5997977,-186,562,396,653,-122,58
5997994,-201,529,387,624,-171,26
5998010,-215,519,382,614,-181,12
5998027,-244,505,365,595,-207,-5
5998043,-248,498,354,580,-223,-18
5998060,-249,504,355,579,-245,-32
5998078,-226,514,380,600,-225,-3
5998094,-244,497,354,596,-215,-25
5998111,-204,541,387,624,-217,2
5998128,-145,552,405,621,-208,29
5998143,-84,571,420,634,-172,62
5998160,-91,564,418,652,-164,35
5998178,-101,542,419,656,-166,11
5998194,-160,512,386,625,-221,-71
5998210,-202,471,386,621,-235,-115
5998227,-187,470,379,598,-238,-137
5998244,-213,479,395,601,-239,-159
5998261,-220,478,392,598,-264,-192
5998290,-244,458,376,590,-306,-226
5998308,-238,452,381,564,-336,-246
5998324,-241,463,372,560,-327,-250
5998342,-241,453,366,549,-307,-262
5998358,-151,518,406,592,-245,-184
5998375,-123,522,407,599,-264,-166
5998392,-113,497,409,597,-272,-149
5998409,-150,482,412,590,-315,-183
5998426,-156,517,409,596,-302,-213
5998442,-188,484,412,592,-314,-216
5998459,-192,467,395,578,-305,-223
5998476,-238,431,378,553,-348,-257
5998493,-285,382,343,523,-414,-297
5998523,-272,413,354,512,-410,-304
5998541,-217,450,405,550,-383,-256
5998558,-151,485,413,566,-359,-191
5998574,-79,521,448,605,-317,-137
5998590,-62,542,451,592,-320,-120
5998607,-72,528,447,598,-307,-122
5998624,-90,493,441,596,-331,-148
5998641,-171,435,406,561,-362,-186
5998658,-150,432,411,562,-360,-187
5998673,-200,416,410,566,-398,-221
5998691,-213,409,397,559,-425,-233
5998707,-217,390,392,542,-432,-249
5998724,-217,406,389,547,-417,-248
5998741,-219,408,395,533,-415,-251
5998757,-241,412,388,535,-413,-258
5998774,-255,415,374,534,-426,-263
5998791,-226,419,399,553,-407,-247
5998808,-193,439,412,560,-374,-198
5998824,-119,480,439,567,-352,-143
5998840,-117,478,419,558,-368,-128
5998857,-83,518,434,571,-330,-116
5998874,-101,500,414,550,-363,-120
5998890,-109,505,424,546,-351,-124
5998907,-168,462,382,502,-394,-174
5998924,-190,437,385,527,-421,-187
5998941,-193,439,384,528,-392,-180
5998958,-213,439,385,511,-404,-177
5998974,-235,417,361,501,-423,-193
5998991,-241,394,361,504,-416,-181
5999007,-249,415,351,501,-453,-190
5999024,-237,411,381,514,-420,-159
5999041,-238,415,379,526,-433,-154
5999058,-241,386,367,502,-444,-152
5999075,-259,390,368,502,-481,-157
5999105,-262,402,350,472,-483,-187
5999123,-260,405,358,500,-463,-161
5999139,-263,430,355,491,-473,-168
5999156,-269,414,337,499,-469,-169
5999172,-294,408,325,490,-477,-179
5999190,-260,445,336,502,-449,-148
5999207,-293,396,308,489,-475,-155
5999224,-247,445,331,507,-426,-127
5999240,-232,439,333,511,-432,-127
5999256,-193,472,341,540,-417,-74
5999274,-177,477,339,536,-407,-54
5999291,-143,500,341,566,-382,-20
5999307,-108,512,356,570,-365,32
5999338,-62,539,386,596,-364,68
5999355,-118,506,362,587,-390,0
5999372,-161,471,357,566,-402,-31
5999389,-190,471,342,562,-421,-94
5999406,-182,470,352,585,-412,-124
5999422,-194,460,354,592,-412,-154
5999439,-200,446,352,573,-409,-177
5999456,-212,465,349,584,-418,-202
5999473,-182,510,360,589,-402,-185
5999489,-145,497,362,591,-379,-184
5999506,-88,514,384,602,-342,-143
5999522,-91,504,382,622,-362,-144
5999540,-87,514,382,621,-352,-139
5999571,-132,470,384,630,-334,-159
5999589,-172,449,363,625,-341,-188
5999605,-220,424,339,585,-401,-221
5999622,-229,425,325,570,-395,-249
5999638,-251,417,304,556,-414,-264
5999656,-244,416,325,574,-391,-239
5999672,-237,409,331,569,-407,-273
5999690,-252,418,336,578,-393,-272
5999706,-211,441,357,602,-385,-277
5999723,-148,481,378,608,-319,-232
5999739,-114,490,382,625,-321,-216
5999757,-84,510,387,641,-267,-187
5999773,-83,525,414,656,-277,-190
5999803,-122,503,394,649,-305,-237
5999821,-186,423,348,600,-345,-288
5999837,-189,428,354,601,-332,-305
5999855,-233,400,350,604,-353,-328
5999871,-201,436,333,595,-354,-333
5999888,-228,447,345,630,-311,-305
5999904,-214,457,356,621,-333,-310
5999921,-222,442,351,627,-335,-302
5999938,-217,450,352,627,-318,-294
5999955,-177,500,366,622,-289,-272
5999972,-123,503,377,640,-276,-225
5999988,-117,529,387,627,-278,-228
6000005,-119,501,388,658,-281,-209
6000021,-139,497,378,644,-282,-227
6000037,-225,448,335,603,-321,-287
6000054,-204,468,335,599,-324,-283
6000071,-212,469,335,612,-312,-294
6000088,-184,471,376,656,-270,-237
6000104,-204,477,379,652,-322,-268
6000121,-182,504,387,656,-310,-248
6000138,-182,487,386,655,-302,-248
6000155,-162,510,398,661,-290,-228
6000171,-155,501,395,664,-285,-217
6000187,-100,532,425,695,-263,-161
6000204,-49,572,446,710,-228,-118
6000221,-55,560,446,712,-240,-93
6000237,-62,544,438,716,-238,-96
6000269,-135,514,425,690,-252,-152
6000286,-139,524,443,708,-233,-155
6000303,-174,515,418,688,-259,-169
6000320,-207,471,393,655,-293,-214
6000337,-189,501,412,663,-291,-188
6000354,-216,497,395,661,-246,-200
6000370,-192,475,393,655,-262,-199
6000387,-185,501,404,666,-238,-175
6000404,-152,569,429,701,-215,-105
6000420,-83,579,452,721,-174,-58
6000437,-86,593,441,712,-181,-62
6000453,-84,575,444,720,-184,-57
6000470,-87,601,443,711,-183,-58
6000488,-92,588,454,695,-171,-57
6000504,-130,542,432,687,-215,-100
6000521,-157,572,424,680,-213,-103
6000539,-156,540,431,694,-204,-99
6000555,-180,539,427,696,-216,-92
6000571,-185,526,418,690,-213,-97
6000587,-195,535,415,696,-223,-95
6000619,-170,566,439,721,-187,-62
6000637,-152,564,455,730,-196,-60
6000653,-127,575,466,729,-170,-25
6000669,-131,581,461,721,-194,-19
6000686,-68,602,480,748,-165,25
6000703,-58,597,479,747,-165,38
6000720,-52,633,476,754,-152,64
6000736,-78,598,472,745,-163,38
6000753,-98,566,471,745,-177,24
6000769,-93,572,501,759,-181,32
6000786,-115,548,462,730,-220,12
6000803,-124,539,475,728,-223,-1
6000819,-155,533,470,725,-229,-2
6000836,-148,537,459,714,-242,-36
6000853,-145,547,474,723,-221,2
6000869,-143,536,471,722,-239,-28
6000886,-172,498,438,682,-286,-43
6000902,-77,596,540,792,-180,46
6000919,-34,577,488,733,-229,91
6000936,-67,562,477,722,-262,43
6000953,-53,574,508,756,-244,65
6000970,-82,535,490,729,-273,43
6000986,-128,527,471,721,-282,-1
6001003,-125,491,503,732,-308,8
6001020,-121,505,491,724,-316,0
6001037,-181,447,459,701,-349,-38
6001053,-152,480,481,704,-339,-28
6001084,-221,440,433,647,-408,-85
6001101,-158,468,461,690,-349,-35
6001118,-125,507,476,692,-332,4
6001134,-89,507,482,698,-331,8
6001152,-92,497,468,678,-368,-5
6001169,-112,468,484,699,-383,-8
6001185,-92,473,498,694,-366,-5
6001202,-149,415,465,667,-418,-56
6001218,-222,408,461,657,-424,-86
6001235,-163,410,470,652,-441,-89
6001252,-231,389,436,632,-466,-113
6001269,-245,349,404,591,-512,-158
6001285,-247,366,416,598,-500,-150
6001317,-303,346,374,562,-528,-182
6001334,-287,383,400,595,-492,-130
6001350,-248,389,411,588,-511,-147
6001368,-245,375,409,582,-520,-152
6001385,-191,408,423,619,-444,-100
6001401,-149,438,450,634,-438,-57
6001433,-118,460,425,619,-452,-56
6001451,-116,440,437,612,-470,-58
6001467,-155,413,402,592,-510,-102
6001484,-179,391,397,590,-505,-109
6001501,-206,363,388,592,-513,-114
6001517,-226,370,370,563,-543,-128
6001549,-209,381,378,596,-528,-113
6001567,-222,380,347,561,-545,-126
6001584,-220,377,357,565,-557,-116
6001599,-189,391,352,570,-530,-87
6001617,-145,456,379,592,-493,-42
6001633,-118,440,401,618,-497,-21
6001666,-94,471,398,608,-502,-7
6001684,-106,480,379,597,-520,-29
6001700,-158,448,354,570,-534,-70
6001717,-186,411,347,575,-527,-82
6001733,-225,371,332,564,-557,-106
6001751,-247,371,302,561,-566,-117
6001767,-223,377,325,567,-558,-95
6001785,-233,365,319,559,-592,-125
6001802,-250,350,307,560,-564,-121
6001818,-227,383,329,558,-600,-119
6001834,-251,361,303,535,-598,-131
6001851,-248,365,304,544,-621,-125
6001868,-236,372,327,571,-592,-110
6001884,-246,384,308,542,-611,-130
6001901,-257,378,306,535,-630,-136
6001918,-259,371,299,533,-631,-134
6001934,-236,384,315,563,-594,-113
6001951,-262,383,286,531,-602,-125
6001968,-247,367,307,562,-592,-111
6001984,-250,410,294,553,-594,-115
6002016,-187,448,319,569,-556,-62
6002033,-145,466,331,599,-513,-14
6002049,-121,471,322,595,-510,13
6002066,-89,508,350,621,-486,45
6002083,-53,519,353,630,-488,70
6002100,-58,507,376,643,-478,77
6002116,-80,473,354,657,-475,73
6002134,-93,465,368,660,-479,62
6002151,-127,468,358,658,-504,47
6002166,-158,434,320,624,-522,21
6002184,-182,432,300,621,-538,-3
6002200,-191,412,277,601,-538,-5
6002217,-212,409,276,621,-533,-10
6002248,-211,426,291,653,-505,-10
6002265,-196,430,293,655,-496,6
6002281,-215,429,271,619,-535,-31
6002299,-209,416,294,631,-491,-1
6002315,-208,444,273,628,-504,-14
6002332,-178,442,301,642,-473,31
6002365,-120,471,317,659,-458,70
6002382,-121,475,313,654,-474,96
6002398,-121,467,323,659,-437,91
6002417,-155,445,324,658,-445,73
6002432,-197,408,299,651,-477,24
6002449,-180,447,335,675,-467,59
6002481,-217,413,301,649,-481,30
6002498,-218,414,279,622,-482,14
6002514,-263,397,285,623,-487,-7
6002532,-224,422,302,634,-454,9
6002548,-252,404,267,614,-483,-14
6002565,-176,451,318,662,-427,57
6002597,-116,474,336,684,-447,108
6002614,-118,456,355,710,-408,136
6002630,-112,463,347,689,-416,127
6002648,-198,394,304,657,-471,70
6002664,-221,407,295,637,-475,25
6002681,-215,429,309,658,-476,55
6002698,-256,361,277,648,-483,22
6002715,-215,423,322,672,-454,61
6002731,-235,419,301,667,-483,57
6002748,-223,442,325,696,-445,64
6002765,-218,442,319,690,-448,67
6002782,-213,452,316,674,-447,58
6002799,-151,484,349,710,-394,5
6002829,-82,517,371,735,-355,-266
6002846,-101,499,380,748,-375,-270
6002863,-110,498,376,739,-374,-276
6002881,-154,438,348,705,-416,-308
6002897,-195,449,354,717,-414,-315
6002914,-197,444,358,719,-376,-292
6002947,-228,417,352,690,-419,-308
6002964,-248,414,346,694,-400,-294
6002981,-229,441,352,695,-419,-294
6002997,-244,419,339,688,-416,-287
6003014,-195,499,381,728,-338,-231
6003030,-127,499,396,751,-329,-155
6003047,-92,538,402,746,-337,-131
6003063,-63,540,419,764,-304,-91
6003080,-89,554,408,746,-312,-91
6003097,-92,540,398,730,-303,-94
6003114,-113,536,406,754,-273,-85
6003130,-133,539,386,725,-289,-116
6003147,-162,501,382,726,-303,-134
6003179,-188,487,385,721,-330,-154
6003197,-181,501,403,729,-330,-137
6003212,-209,484,376,707,-361,-160
6003230,-202,510,396,720,-348,-151
6003246,-227,478,368,683,-389,-183
6003264,-224,508,353,682,-362,-156
6003296,-211,500,387,726,-356,-137
6003313,-244,479,378,688,-393,-160
6003329,-221,477,381,723,-382,-130
6003346,-207,495,396,725,-368,-109
6003363,-194,497,377,711,-354,-113
6003380,-169,504,391,720,-336,-77
6003412,-129,561,406,720,-332,-46
6003429,-85,570,449,755,-340,-8
6003446,-97,559,446,758,-307,-6
6003463,-149,521,419,735,-365,-32
6003479,-155,518,408,727,-380,-54
6003496,-177,501,412,722,-384,-57
6003528,-215,474,385,692,-409,-93
6003546,-206,533,425,737,-412,-71
6003562,-187,512,399,719,-391,-78
6003579,-239,507,407,719,-416,-106
6003596,-233,493,407,714,-423,-98
6003612,-227,515,422,719,-447,-96
6003645,-172,541,450,759,-361,-33
6003662,-156,590,469,787,-351,-12
6003679,-113,595,502,794,-346,40
6003696,-53,633,506,821,-299,103
6003712,-54,619,513,813,-300,108
6003729,-88,593,505,801,-301,86
6003761,-127,556,504,788,-306,62
