TIME,AF3,F7,F3,F4,F8,AF4
4488790,296,361,344,652,-382,3
4488808,347,378,348,662,-380,-2
4488824,356,375,344,668,-370,29
4488840,349,402,354,660,-386,-1
4488857,302,382,350,649,-412,-2
4488889,324,462,354,651,-368,32
4488907,313,468,357,651,-392,8
4488924,291,473,362,649,-419,-28
4488942,291,481,359,638,-415,-9
4488957,294,541,355,654,-380,9
4488975,271,524,350,651,-432,-16
4489005,251,615,342,636,-410,1
4489023,248,635,341,631,-384,-9
4489041,244,641,342,637,-391,-12
4489057,248,681,336,637,-328,22
4489074,203,672,338,631,-383,-27
4489090,217,701,348,626,-373,2
4489122,213,726,338,620,-385,-3
4489140,243,778,337,612,-364,-1
4489156,264,824,327,604,-342,-20
4489174,268,847,339,587,-338,-30
4489190,269,838,340,579,-373,-53
4489206,268,846,343,593,-380,-61
4489238,302,865,344,598,-356,-61
4489255,288,863,345,598,-382,-70
4489273,287,879,345,603,-356,-71
4489290,326,888,345,602,-348,-34
4489306,334,901,346,590,-294,-32
4489323,337,918,354,589,-296,-32
4489354,289,909,351,587,-297,-66
4489371,346,976,351,596,-236,-24
4489388,341,997,340,587,-218,-26
4489406,332,1020,352,589,-240,-53
4489423,359,1052,352,585,-231,-27
4489439,465,1086,359,599,-211,-2
4489471,520,1126,364,603,-176,4
4489488,456,1145,356,602,-161,3
4489506,362,1176,359,602,-164,0
4489522,378,1248,362,606,-140,36
4489539,351,1250,363,607,-155,4
4489555,351,1268,367,597,-168,12
4489588,329,1317,379,594,-117,65
4489605,239,1315,367,591,-135,30
4489622,273,1363,366,588,-141,35
4489639,235,1373,367,580,-153,10
4489655,188,1349,374,571,-196,-15
4489672,166,1339,373,560,-212,-26
4489704,89,1289,373,557,-256,-35
4489722,33,1223,372,552,-304,-71
4489738,-2,1199,356,549,-326,-62
4489755,-33,1154,362,530,-354,-67
4489772,-56,1133,382,546,-318,-67
4489788,-133,1025,382,535,-323,-130
4489805,-132,977,386,529,-336,-136
4489822,-122,959,399,544,-309,-120
4489838,-131,923,397,548,-283,-89
4489856,-162,879,399,565,-260,-94
4489872,-156,876,385,587,-223,-90
4489889,-172,880,393,599,-198,-83
4489905,-207,834,399,589,-198,-90
4489953,-244,737,391,606,-186,-59
4489970,-248,719,400,592,-163,-63
4489988,-219,711,397,603,-157,-56
4490005,-239,699,399,595,-123,-27
4490021,-233,697,400,597,-127,-21
4490038,-253,689,395,599,-128,-3
4490069,-251,709,395,593,-118,34
4490087,-224,738,384,601,-85,39
4490103,-212,810,387,611,-85,69
4490120,-225,848,396,615,-126,52
4490137,-237,851,397,616,-133,62
4490155,-222,906,392,603,-121,77
4490186,-231,961,382,601,-138,67
4490204,-219,979,371,607,-124,96
4490220,-247,957,379,613,-135,62
4490237,-231,989,387,607,-144,91
4490255,-227,1011,382,609,-146,94
4490270,-209,1001,390,613,-117,114
4490303,-228,988,388,616,-146,109
4490319,-230,978,385,618,-147,88
4490337,-233,944,397,632,-131,95
4490354,-226,944,398,636,-185,83
4490370,-205,951,396,618,-162,102
4490387,-208,928,387,619,-206,69
4490419,-229,864,391,619,-240,17
4490437,-203,885,381,618,-207,62
4490453,-207,884,382,620,-205,59
4490469,-194,896,384,617,-180,62
4490487,-214,880,374,622,-191,60
4490504,-217,867,381,619,-193,58
4490536,-221,859,382,615,-173,88
4490553,-248,837,388,622,-177,68
4490570,-219,873,387,620,-123,107
4490587,-267,835,386,614,-154,93
4490603,-260,830,396,615,-151,83
4490620,-271,841,393,614,-121,87
4490653,-295,807,399,622,-163,81
4490670,-282,829,400,644,-139,400
4490686,-277,865,399,650,-128,448
4490703,-299,834,396,653,-158,429
4490719,-292,841,398,656,-161,443
4490736,-259,870,397,666,-128,492
4490768,-279,860,382,664,-163,513
4490785,-245,874,383,664,-155,510
4490802,-221,872,382,668,-125,520
4490819,-182,843,397,671,-119,503
4490836,-213,849,383,669,-124,471
4490853,-212,859,384,673,-118,469
4490885,-199,875,388,672,-126,414
4490902,-203,876,385,658,-118,379
4490918,-194,851,399,656,-131,358
4490936,-165,902,396,661,-123,356
4490952,-145,901,399,650,-130,328
4490969,-148,919,398,660,-150,303
4491001,-127,975,396,669,-131,305
4491018,-126,976,390,665,-112,299
4491035,-95,1050,395,662,-70,328
4491052,-94,1070,380,671,-80,324
4491069,-115,1106,388,659,-95,307
4491085,-89,1171,385,664,-58,318
4491117,-100,1229,396,672,-91,423
4491135,-88,1259,397,683,-90,503
4491151,-89,1294,394,696,-64,564
4491169,-85,1309,394,693,-67,606
4491185,-89,1358,399,686,-31,566
4491202,-92,1351,398,668,2,518
4491233,-30,1387,401,667,84,523
4491250,-67,1371,405,673,43,487
4491267,-58,1350,397,663,47,468
4491284,-26,1383,398,665,67,477
4491303,-50,1375,397,657,67,451
4491319,-56,1376,394,666,89,419
4491351,-62,1409,401,676,89,410
4491368,-61,1408,405,682,78,383
4491385,-66,1421,398,682,92,383
4491401,-79,1414,402,688,94,366
4491418,-98,1407,404,679,59,334
4491435,-99,1426,399,668,63,322
4491466,-97,1428,401,666,48,321
4491484,-91,1429,410,667,34,307
4491500,-96,1414,407,663,30,310
4491518,-116,1421,404,649,3,288
4491534,-98,1407,401,645,3,284
4491551,-98,1413,403,646,35,289
4491584,-112,1384,407,639,-40,216
4491600,-57,1402,407,642,6,245
4491617,-42,1367,406,641,-1,207
4491634,-31,1325,408,637,-34,183
4491651,-32,1283,399,632,-39,175
4491668,-2,1287,403,638,-28,187
4491700,-33,1221,400,674,-118,146
4491717,-6,1221,404,678,-129,137
4491734,4,1230,405,656,-122,154
4491750,-18,1209,400,646,-135,126
4491766,-7,1220,403,645,-118,150
4491784,-14,1210,395,670,-115,121
4491816,-29,1198,401,663,-126,94
4491834,-32,1191,403,647,-125,96
4491850,-35,1162,404,642,-126,60
4491866,-34,1155,406,644,-142,64
4491883,-38,1138,407,645,-153,59
4491900,-36,1155,410,643,-169,57
4491932,-58,1165,410,636,-190,26
4491949,-63,1158,402,633,-211,23
4491966,-52,1145,401,634,-176,41
4491983,-62,1158,402,637,-182,33
4492000,-65,1143,409,640,-191,34
4492017,-68,1129,402,631,-217,28
4492049,-66,1137,403,629,-219,22
4492066,-65,1135,403,631,-236,28
4492082,-67,1129,402,628,-250,-1
4492100,-57,1155,401,633,-246,4
4492116,-64,1126,403,632,-295,-29
4492133,-58,1143,400,631,-277,-19
4492165,-61,1164,398,634,-275,-24
4492183,-54,1162,398,630,-273,-22
4492200,-50,1162,390,631,-282,-38
4492216,-31,1189,399,634,-267,-14
4492232,-36,1189,397,634,-270,-30
4492249,-52,1174,399,643,-273,-31
4492281,-62,1127,393,647,-266,-19
4492299,-30,1111,384,640,-245,3
4492316,-32,1114,387,666,-235,34
4492333,-35,1061,393,680,-269,-3
4492349,-67,1012,399,681,-303,2
4492366,-58,1006,394,667,-330,-5
4492398,-29,1010,392,667,-324,7
4492415,-53,965,394,656,-353,-18
4492432,-61,961,394,663,-353,-8
4492448,-61,972,394,650,-381,-16
4492466,-57,958,402,650,-379,-3
4492482,-74,933,396,656,-417,-10
4492515,-71,930,397,651,-385,44
4492532,-66,914,398,648,-383,80
4492549,-67,888,398,655,-388,88
4492565,-61,885,407,649,-407,108
4492582,-37,890,410,656,-372,128
4492599,-33,922,403,660,-358,156
4492630,-35,892,399,669,-309,156
4492648,-28,941,400,670,-278,167
4492665,-28,912,400,669,-219,174
4492680,-62,916,395,667,-209,168
4492698,-57,923,399,702,-106,189
4492714,-76,912,401,701,-99,150
4492746,-62,975,397,702,14,187
4492763,-63,990,397,697,35,180
4492781,-64,998,395,686,22,161
4492797,-60,1045,396,680,69,189
4492815,-131,1045,393,681,51,171
4492831,-169,1017,398,681,7,135
4492864,-179,998,403,676,-39,111
4492882,-158,1039,403,681,2,139
4492897,-143,995,410,677,-23,118
4492914,-110,991,404,673,-17,155
4492931,-63,1008,406,677,28,203
4492948,-93,968,402,681,25,229
4492979,-67,958,402,666,29,269
4492997,-71,945,402,680,18,248
4493013,-82,942,400,661,16,255
4493030,-60,1010,395,706,66,239
4493047,-52,1061,397,701,104,238
4493064,-73,1122,397,699,124,197
4493096,-35,1406,397,679,256,202
4493113,-47,1478,411,684,293,180
4493131,-59,1544,424,705,316,168
4493146,-33,1648,425,706,317,168
4493163,-62,1720,443,705,257,126
4493180,-57,1802,446,700,273,155
4493212,-49,1908,437,686,307,249
4493230,-46,1943,426,683,281,285
4493246,-62,1928,420,704,253,262
4493264,-54,1993,412,695,262,303
4493280,-44,2036,408,681,279,329
4493296,-46,2108,405,679,266,338
4493329,-66,2172,410,693,239,369
4493347,-126,2192,406,697,219,368
4493363,-125,2219,414,694,208,353
4493380,-162,2219,411,679,183,330
4493397,-128,2243,408,687,206,344
4493413,-133,2264,413,699,224,354
4493445,-94,2306,413,688,260,360
4493462,-117,2344,415,703,209,318
4493480,-98,2355,413,706,222,309
4493496,-108,2366,421,703,234,239
4493512,-100,2364,416,703,248,198
4493530,-123,2360,417,720,254,149
4493562,-128,2285,419,719,192,66
4493579,-136,2263,424,725,187,27
4493595,-142,2254,428,731,188,0
4493613,-147,2225,430,724,152,-15
4493629,-138,2219,416,726,149,-55
4493646,-137,2196,418,729,137,-61
4493678,-149,2207,402,721,122,-122
4493695,-124,2236,409,732,124,-122
4493712,-153,2227,401,725,81,-132
4493729,-130,2237,406,731,125,-118
4493744,-147,2242,404,733,104,-122
4493762,-147,2250,405,730,102,-124
4493778,-145,2256,400,735,95,-129
4493796,-149,2253,402,737,45,-134
4493813,-120,2256,402,742,46,-64
4493830,-101,2230,400,750,26,-27
4493846,-109,2208,402,757,-5,-15
4493862,-102,2175,408,757,2,1
4493879,-91,2156,401,758,-18,-18
4493896,-120,2089,400,748,-55,-35
4493913,-100,2037,398,756,-34,-30
4493929,-74,2014,400,767,-21,11
4493946,-35,1954,400,792,-8,7
4493963,-73,1852,403,787,-88,-47
4493979,-38,1831,407,792,-92,-22
4493996,-30,1790,411,800,-96,19
4494013,9,1746,414,813,-90,75
4494044,-2,1644,424,819,-116,129
4494061,2,1606,418,819,-116,128
4494078,-18,1522,417,800,-148,33
4494095,-34,1465,421,790,-163,-9
4494112,-13,1443,419,794,-129,89
4494128,-5,1393,425,817,-129,315
4494145,-2,1313,425,841,-113,556
4494162,32,1263,415,824,-144,561
4494178,1,1200,418,829,-167,399
4494195,30,1103,424,814,-195,209
4494211,26,1070,414,804,-177,103
4494228,34,1007,414,798,-203,26
4494245,52,988,408,788,-199,-13
4494261,77,973,424,791,-198,-45
4494279,84,937,415,777,-200,-92
4494294,72,907,414,795,-219,-156
4494311,90,880,418,769,-215,-153
4494328,122,890,410,790,-199,-121
4494345,100,857,401,798,-211,-91
4494362,135,843,413,813,-207,-83
4494393,121,780,412,820,-235,-145
4494409,134,778,410,815,-240,-163
4494426,161,810,404,800,-212,-164
4494444,181,829,409,794,-201,-174
4494461,175,807,410,796,-210,-220
4494477,200,851,403,787,-159,-196
4494494,195,851,405,783,-164,-204
4494511,178,853,407,766,-211,-230
4494527,165,845,410,778,-229,-247
4494544,176,865,409,781,-207,-231
4494561,155,871,402,792,-226,-241
4494577,166,876,405,802,-244,-226
4494595,175,866,408,817,-237,-214
4494611,181,889,407,811,-214,-194
4494628,184,896,405,799,-232,-187
4494644,189,891,403,814,-226,-159
4494662,188,868,408,821,-229,-162
4494678,192,877,398,818,-204,-124
4494695,174,873,400,826,-210,-146
4494711,154,867,408,819,-234,-126
4494742,157,879,402,830,-207,-93
4494760,165,848,405,841,-205,52
4494776,170,805,405,825,-225,117
4494793,208,797,401,832,-223,214
4494810,229,796,398,832,-217,251
4494827,183,739,403,824,-252,240
4494843,211,754,403,840,-228,252
4494860,223,755,396,839,-212,265
4494878,210,718,403,818,-247,256
4494894,220,723,398,799,-226,262
4494911,184,666,399,794,-287,220
4494928,212,674,399,796,-184,232
4494944,189,617,402,788,-212,195
4494960,219,633,400,773,-187,183
4494977,189,580,397,782,-220,112
4494994,197,585,394,787,-190,105
4495011,198,565,402,786,-213,92
4495028,199,567,394,773,-202,97
4495044,188,566,402,775,-205,70
4495061,155,536,396,768,-204,33
4495077,125,507,394,763,-242,16
4495093,124,499,393,768,-246,9
4495110,117,496,394,763,-238,30
4495127,114,474,395,767,-256,36
4495144,89,469,401,765,-258,38
4495161,91,468,391,762,-290,4
4495177,66,443,398,757,-302,11
4495194,47,449,394,765,-287,-3
4495210,27,433,394,768,-305,1
4495228,-8,419,389,757,-307,2
4495244,-26,443,399,771,-295,-1
4495260,-47,439,395,760,-287,2
4495278,-62,438,395,761,-300,-3
4495294,-85,446,394,744,-295,20
4495311,-112,424,390,747,-302,3
4495327,-88,458,391,748,-282,40
4495343,-121,444,395,745,-310,23
4495361,-125,450,402,755,-279,31
4495376,-121,428,400,743,-299,39
4495394,-150,383,404,756,-324,33
4495411,-120,382,398,759,-297,64
4495440,-118,341,403,791,-298,85
4495458,-89,332,392,796,-288,100
4495474,-93,320,401,793,-326,91
4495491,-96,306,400,791,-345,88
4495508,-60,327,394,796,-322,117
4495525,-69,296,397,778,-351,100
4495542,-93,250,393,759,-379,91
4495559,-107,240,394,749,-416,85
4495576,-94,262,396,741,-402,99
4495593,-93,252,401,743,-402,97
4495609,-91,262,403,740,-369,101
4495626,-94,236,398,745,-381,61
4495643,-117,206,400,750,-389,55
4495673,-101,189,400,747,-354,34
4495691,-98,185,397,762,-353,34
4495707,-98,169,398,748,-349,31
4495724,-94,183,402,740,-334,43
4495741,-92,185,396,730,-320,45
4495758,-99,184,396,756,-348,42
4495775,-95,149,399,765,-354,66
4495792,-121,120,395,768,-372,30
4495808,-122,131,398,770,-380,36
4495825,-119,132,395,766,-388,37
4495842,-117,133,401,765,-404,40
4495859,-92,158,396,764,-336,73
4495875,-93,188,396,796,-349,75
4495891,-97,160,407,785,-348,58
4495909,-117,158,401,792,-383,56
4495925,-114,186,405,791,-358,33
4495942,-119,188,404,789,-377,30
4495959,-145,167,409,789,-409,0
4495976,-156,173,412,795,-418,-14
4495991,-151,186,414,799,-414,-12
4496008,-151,188,406,819,-393,57
4496025,-146,159,408,842,-381,216
4496041,-153,120,403,842,-377,344
4496059,-127,120,401,833,-351,413
4496075,-141,94,402,821,-377,414
4496092,-125,125,406,828,-349,449
4496108,-129,118,407,848,-351,462
4496125,-156,125,407,839,-381,454
4496141,-147,149,406,835,-400,461
4496158,-156,151,418,839,-427,439
4496176,-171,189,407,847,-416,457
4496192,-189,175,412,840,-447,446
4496208,-191,184,409,835,-429,433
4496226,-192,183,411,830,-439,400
4496255,-206,202,413,823,-419,360
4496273,-227,201,417,825,-430,326
4496288,-227,218,416,820,-425,322
4496306,-234,239,413,811,-442,302
4496322,-240,234,414,814,-444,281
4496339,-237,265,414,812,-440,275
4496356,-250,266,413,811,-449,257
4496373,-282,260,413,819,-453,239
4496390,-275,269,419,821,-444,232
4496406,-298,257,423,824,-469,207
4496423,-292,257,420,830,-452,213
4496439,-293,262,420,826,-432,211
4496456,-295,279,420,827,-418,214
4496473,-312,280,420,827,-450,185
4496490,-322,293,418,825,-439,186
4496506,-323,289,417,824,-414,185
4496524,-337,301,412,827,-445,160
4496540,-340,316,421,826,-441,174
4496556,-339,318,418,822,-449,182
4496572,-354,316,415,818,-450,158
4496604,-353,346,416,821,-409,162
4496622,-339,340,418,823,-412,160
4496638,-348,323,419,821,-403,158
4496655,-343,318,417,817,-410,150
4496672,-382,318,420,780,-414,134
4496688,-350,307,419,750,-408,143
4496706,-332,296,424,767,-416,123
4496723,-279,289,419,770,-415,126
4496739,-258,271,418,766,-436,100
4496756,-226,279,418,765,-418,113
4496773,-186,293,415,764,-404,99
4496789,-161,301,417,765,-379,124
4496806,-153,288,416,761,-399,89
4496823,-119,306,420,765,-385,105
4496840,-79,326,419,762,-371,127
4496856,-65,343,414,760,-352,103
4496872,-62,347,416,744,-351,99
4496890,-56,376,427,742,-318,110
4496907,-57,378,422,747,-307,106
4496922,-59,382,420,753,-315,87
4496954,-64,370,421,757,-320,60
4496971,-45,379,421,755,-305,63
4496987,-39,374,423,748,-311,9
4497004,-64,351,416,744,-347,-36
4497021,-31,355,433,752,-337,-24
4497038,-21,366,422,756,-305,-2
4497055,-30,305,431,752,-355,-43
4497072,-32,305,429,766,-360,-32
4497088,-17,271,432,766,-374,-31
4497106,-37,243,433,769,-390,-55
4497121,-27,234,440,774,-375,-26
4497138,0,237,433,780,-352,-29
4497155,-27,207,432,783,-358,-33
4497186,-1,208,430,773,-326,-3
4497203,0,209,428,774,-329,-34
4497221,2,266,427,772,-295,4
4497237,9,276,432,770,-311,5
4497254,-8,241,428,769,-310,-13
4497270,-35,244,425,765,-324,-29
4497287,-36,228,427,765,-327,-30
4497304,-59,232,427,760,-334,-30
4497321,-32,250,417,764,-332,2
4497337,-35,274,412,763,-321,32
4497354,-37,242,432,771,-342,18
4497370,-43,246,421,775,-379,33
4497387,-28,247,419,787,-380,57
4497419,-35,217,418,783,-415,28
4497437,-62,207,418,774,-448,30
4497454,-30,208,414,791,-425,39
4497470,-27,226,417,791,-411,53
4497488,-63,213,427,785,-442,9
4497503,-67,216,429,784,-447,-29
4497520,-56,233,429,783,-411,-23
4497537,-56,232,430,782,-352,9
4497554,-60,234,424,782,-352,-24
4497570,-72,210,423,780,-358,-30
4497587,-93,225,427,764,-365,-33
4497603,-102,198,433,774,-371,-29
4497620,-106,192,427,772,-317,-36
4497651,-97,167,426,770,-296,-30
4497668,-94,149,429,750,-294,-37
4497685,-87,170,419,752,-288,-21
4497703,-89,155,432,744,-309,-28
4497720,-66,184,433,737,-305,-31
4497736,-66,174,428,749,-326,-31
4497769,-66,198,427,751,-398,-51
4497786,-68,218,432,749,-414,-50
4497802,-61,225,433,743,-428,-34
4497819,-66,237,429,754,-464,-58
4497836,-68,250,433,752,-507,-58
4497853,-73,250,433,761,-531,-65
4497885,-74,255,427,748,-522,-60
4497902,-70,274,427,742,-540,-71
4497919,-79,272,425,762,-496,-59
4497936,-66,264,428,761,-508,-53
4497952,-92,248,423,758,-541,-63
4497969,-69,279,419,754,-537,-32
4497986,-94,263,424,742,-502,-37
4498003,-85,270,418,757,-513,-59
4498020,-90,269,425,743,-518,-41
4498036,-125,256,428,737,-524,-61
4498053,-132,262,428,739,-507,-33
4498069,-168,260,429,690,-509,-33
4498085,-156,274,423,688,-472,-23
4498103,-156,269,423,673,-509,-36
4498119,-134,291,418,641,-467,2
4498135,-145,290,421,638,-476,-5
4498152,-118,294,421,626,-441,27
4498169,-125,291,418,624,-418,37
4498186,-128,283,423,605,-419,32
4498203,-121,291,425,610,-433,61
4498234,-100,321,424,610,-431,66
4498251,-101,338,418,613,-440,63
4498268,-130,323,417,618,-453,57
4498287,-127,351,422,615,-435,64
4498302,-131,329,422,612,-431,64
4498318,-173,293,415,610,-416,59
4498334,-158,300,416,611,-373,80
4498352,-165,270,414,602,-367,62
4498368,-176,253,416,610,-381,57
4498385,-175,256,414,615,-355,61
4498402,-161,263,415,607,-358,64
4498418,-182,266,417,612,-367,65
4498435,-183,278,414,619,-352,62
4498452,-183,282,417,611,-360,79
4498468,-156,304,413,633,-320,135
4498485,-188,286,413,605,-330,154
4498501,-157,330,409,636,-267,218
4498518,-164,333,407,667,-311,194
4498535,-208,321,418,723,-316,140
4498552,-203,350,413,717,-271,160
4498568,-220,361,416,715,-247,123
4498584,-220,366,419,701,-268,106
4498601,-219,350,415,711,-259,93
4498619,-215,368,415,706,-261,65
4498635,-219,368,413,729,-240,62
4498651,-232,384,409,722,-235,57
4498668,-253,359,413,685,-302,17
4498699,-187,407,414,679,-249,38
4498716,-129,412,403,680,-250,68
4498733,-127,409,404,676,-282,51
4498751,-54,426,409,671,-252,63
4498767,10,445,400,678,-246,89
4498784,82,441,410,682,-239,89
4498816,219,489,401,666,-215,125
4498833,283,541,403,668,-233,127
4498850,334,554,400,652,-238,125
4498866,396,600,407,675,-211,147
4498883,470,614,405,680,-220,135
4498900,496,651,409,680,-182,166
4498917,428,652,402,665,-217,158
4498933,359,656,402,655,-217,154
4498950,348,686,400,634,-173,188
4498966,354,682,403,639,-154,188
4498983,384,659,410,640,-189,180
4499001,399,684,405,642,-172,178
4499017,396,677,406,638,-206,162
4499048,421,709,411,628,-150,197
4499065,404,711,402,633,-155,197
4499083,385,689,404,614,-161,205
4499099,388,695,413,631,-155,199
4499116,378,684,423,632,-129,198
4499133,382,693,422,632,-104,196
4499165,367,664,406,622,-62,186
4499183,355,665,410,623,-58,200
4499199,359,671,408,617,-28,218
4499216,328,641,408,614,-59,201
4499233,346,656,408,625,-51,211
4499249,332,625,408,616,-72,215
4499281,342,627,406,628,-34,258
4499299,319,595,406,631,-51,233
4499315,322,594,406,627,-62,231
4499332,321,597,406,629,-30,228
4499349,311,569,399,634,-67,199
4499365,269,560,407,634,-62,177
4499382,280,563,403,638,-28,210
4499399,272,567,401,636,-4,211
4499416,257,546,401,634,2,213
4499432,250,530,405,635,-17,189
4499449,278,548,403,640,-13,228
4499466,248,531,407,638,-39,223
4499482,225,532,411,639,-59,223
4499500,236,517,407,640,-38,259
4499515,254,546,401,642,5,283
4499532,237,540,405,640,-3,269
4499548,211,528,408,637,-20,255
4499566,207,522,404,637,-11,246
4499582,185,471,399,640,-63,222
4499599,222,503,403,644,-1,284
4499630,215,564,407,647,29,291
4499647,193,531,409,643,0,277
4499664,185,529,408,644,-1,277
4499681,189,533,407,667,-39,261
4499698,150,528,404,661,-74,222
4499715,164,564,402,680,-24,262
4499747,185,630,408,688,19,327
4499764,132,606,408,673,-51,320
4499781,155,644,400,684,-30,383
4499798,153,662,405,697,-19,398
4499813,120,633,399,696,-17,393
4499831,126,663,406,702,-6,406
4499863,126,644,403,702,-59,402
4499881,119,588,410,703,-88,380
4499898,117,616,404,694,-92,381
4499914,119,625,402,699,-128,381
4499931,118,622,405,705,-125,381
4499948,120,634,403,710,-123,381
4499980,146,692,407,711,-128,390
4499998,160,676,402,711,-153,382
4500014,117,702,403,706,-152,377
4500031,137,719,407,708,-159,380
4500047,157,741,404,710,-161,381
4500064,181,752,407,715,-175,370
4500096,190,777,401,718,-185,382
4500113,222,791,408,735,-183,385
4500130,214,806,409,730,-230,366
4500147,291,863,417,730,-215,383
4500164,293,879,409,728,-212,386
4500181,290,892,416,727,-248,364
4500212,279,952,408,732,-237,367
4500230,275,950,409,715,-262,349
4500246,261,954,407,724,-269,339
4500263,283,979,410,714,-233,362
4500280,289,958,403,709,-263,335
4500296,307,964,412,714,-270,340
4500329,385,1043,413,714,-211,368
4500346,388,982,406,713,-276,309
4500364,428,982,412,712,-261,290
4500380,470,999,410,724,-233,290
4500396,481,1017,417,721,-220,268
4500414,475,1051,409,725,-242,232
4500445,439,1094,406,717,-213,182
4500462,390,1047,410,717,-246,126
4500480,413,1016,418,720,-244,105
4500496,429,1041,415,728,-244,97
4500513,444,1009,419,735,-281,47
4500529,442,1003,413,735,-269,23
4500547,481,1010,414,735,-264,-2
4500564,512,1020,411,743,-255,1
4500581,489,1000,419,739,-273,-39
4500597,511,993,404,740,-251,-60
4500614,505,966,410,741,-282,-67
4500631,495,940,414,743,-264,-101
4500647,517,934,416,742,-237,-65
4500678,513,865,417,738,-263,-129
4500696,503,856,418,743,-244,-119
4500711,499,862,417,741,-247,-120
4500729,500,842,414,737,-245,-120
4500746,498,827,409,735,-277,-125
4500761,502,831,411,735,-273,-128
4500795,507,830,425,739,-253,-127
4500812,506,815,423,740,-252,-150
4500828,516,837,432,743,-240,-150
4500846,498,815,430,739,-269,-178
4500862,510,813,424,739,-261,-174
4500879,486,797,433,729,-295,-189
4500911,491,813,438,734,-303,-179
4500928,482,831,432,735,-292,-153
4500945,471,830,431,738,-303,-156
4500962,459,819,433,731,-291,-151
4500979,448,811,436,736,-299,-149
4500995,453,814,434,737,-292,-148
4501027,475,836,428,730,-301,-124
4501045,479,826,432,737,-295,-128
4501060,475,841,437,733,-269,-91
4501079,474,847,437,731,-289,-116
4501096,471,843,437,727,-249,-87
4501113,439,834,430,719,-237,-115
4501144,428,816,430,721,-251,-101
4501160,440,816,437,724,-241,-84
4501178,421,791,440,714,-275,-94
4501194,423,755,433,687,-272,-78
4501212,412,755,432,636,-276,-58
4501228,383,727,433,634,-300,-87
4501260,383,741,431,627,-294,-65
4501277,391,748,429,632,-272,-55
4501295,363,719,430,621,-292,-51
4501311,370,728,429,623,-275,-28
4501327,332,722,433,604,-325,-58
4501344,323,724,423,599,-344,-47
4501376,322,752,427,596,-326,-31
4501394,314,744,436,603,-329,-30
4501410,318,755,432,595,-317,-27
4501428,310,734,430,594,-324,-4
4501444,307,741,435,593,-303,-6
4501461,317,747,435,602,-282,10
4501493,301,718,438,602,-243,27
4501510,305,703,434,602,-208,41
4501527,274,682,437,600,-211,32
4501544,268,657,435,600,-223,33
4501561,270,655,435,583,-223,31
4501577,264,623,440,583,-222,32
4501609,263,642,440,579,-206,59
4501627,252,634,438,566,-182,61
4501644,238,604,431,570,-207,60
4501660,215,599,442,558,-238,52
4501677,220,559,428,551,-212,64
4501693,211,546,427,550,-240,65
4501726,184,535,419,551,-245,89
4501743,184,530,427,544,-256,111
4501760,184,540,415,550,-275,127
4501776,181,539,420,549,-272,158
4501793,170,536,416,550,-289,171
4501810,170,526,424,552,-284,199
4501842,158,522,415,571,-245,275
4501860,164,503,423,584,-245,285
4501876,155,488,418,583,-286,284
4501893,144,464,417,576,-278,283
4501909,159,500,425,604,-266,285
4501926,150,468,418,603,-291,238
4501958,139,502,425,588,-248,269
4501976,115,474,417,579,-293,252
4501993,94,471,416,580,-292,268
4502009,98,473,419,602,-293,266
4502026,97,476,409,635,-300,259
4502042,93,474,428,635,-298,249
4502075,93,474,422,639,-287,281
4502091,87,457,427,637,-296,264
4502109,88,471,418,634,-273,260
4502125,57,452,415,637,-296,257
4502142,67,484,418,634,-266,280
4502159,37,471,418,601,-290,267
4502191,24,456,425,603,-330,253
4502209,34,480,426,607,-300,275
4502225,22,502,427,579,-308,273
4502242,22,532,426,560,-287,312
4502259,36,568,428,562,-277,325
4502275,28,543,428,560,-292,326
4502307,-3,534,429,563,-337,306
4502325,7,556,423,555,-314,319
4502341,-1,567,424,560,-309,318
4502358,-3,579,418,542,-296,337
4502375,-7,562,428,542,-334,317
4502391,-17,560,425,537,-339,344
4502424,-9,559,427,536,-318,361
4502442,-1,539,424,524,-317,360
4502457,26,520,429,525,-333,364
4502478,8,495,425,505,-352,361
4502492,6,476,418,495,-333,387
4502509,12,476,418,501,-343,389
4502541,-27,467,419,491,-360,375
4502558,-14,476,419,495,-316,414
4502574,-35,471,418,482,-327,383
4502592,-37,468,423,478,-333,384
4502608,-46,473,416,459,-323,403
4502626,-65,467,423,453,-321,390
4502657,-56,467,415,450,-324,418
4502673,-94,464,418,445,-330,409
4502690,-83,467,422,445,-324,411
4502707,-88,468,431,446,-349,409
4502724,-89,469,427,445,-352,409
4502741,-95,470,428,410,-372,408
4502773,-66,504,429,403,-341,440
4502790,-63,514,421,396,-321,468
4502807,-91,533,421,399,-310,447
4502824,-82,540,426,398,-298,454
4502840,-93,535,426,397,-304,437
4502857,-98,528,429,395,-322,414
4502889,-98,530,428,399,-320,409
4502907,-99,512,427,402,-347,408
4502924,-118,507,431,413,-356,404
4502941,-132,501,431,409,-366,390
4502957,-110,539,434,418,-356,414
4502974,-125,535,423,418,-349,409
4503006,-140,521,429,418,-386,375
4503024,-123,517,415,435,-356,415
4503039,-131,485,426,435,-374,411
4503057,-118,478,427,436,-347,445
4503074,-118,498,419,435,-347,444
4503090,-129,471,425,437,-359,441
4503122,-127,480,426,444,-324,442
4503139,-127,470,418,435,-323,443
4503156,-127,479,413,438,-293,447
4503173,-118,498,414,437,-256,474
4503190,-130,499,410,440,-262,476
4503207,-125,516,419,443,-275,473
4503239,-129,548,418,441,-293,480
4503256,-124,537,413,435,-318,471
4503273,-118,538,413,432,-334,474
4503289,-96,532,412,453,-338,473
4503305,-90,528,417,448,-338,473
4503323,-35,548,406,450,-323,507
4503356,6,558,412,453,-327,510
4503373,-7,525,415,454,-375,477
4503389,26,526,418,450,-382,496
4503406,54,531,420,456,-360,487
4503423,130,540,423,450,-359,472
4503439,175,536,428,457,-349,475
4503471,248,559,426,461,-358,451
4503488,277,558,424,451,-375,441
4503505,310,563,426,456,-369,436
4503522,342,579,417,454,-332,448
4503538,336,541,426,454,-374,408
4503555,372,591,424,452,-367,419
4503588,441,607,423,451,-351,417
4503605,475,636,419,457,-346,427
4503622,501,604,418,451,-375,412
4503639,505,592,423,457,-368,410
4503656,506,583,427,460,-340,397
4503672,550,567,429,461,-328,415
4503704,566,562,418,459,-358,361
4503721,604,557,415,463,-335,382
4503738,600,521,416,455,-360,336
4503755,597,534,414,460,-353,339
4503771,598,534,406,456,-357,331
4503788,599,530,420,459,-383,319
4503821,627,564,420,461,-360,338
4503838,625,565,421,469,-386,317
4503855,622,545,419,467,-375,300
4503871,613,535,424,466,-382,289
4503888,601,528,431,461,-408,277
4503905,627,566,423,470,-392,282
4503937,642,577,427,469,-343,281
4503954,656,598,425,471,-374,275
4503971,621,589,431,473,-423,213
4503987,630,607,426,473,-375,241
4504004,624,591,430,484,-387,234
4504021,600,599,426,478,-412,222
4504054,625,633,431,472,-368,242
4504071,624,632,422,464,-362,232
4504088,573,588,421,466,-412,195
4504104,556,563,416,463,-448,180
4504121,553,558,422,465,-478,173
4504138,554,556,416,474,-442,179
4504170,548,563,415,455,-416,177
4504187,553,562,418,457,-395,183
4504203,555,532,412,454,-395,182
4504221,537,510,415,452,-420,166
4504237,533,521,418,455,-414,158
4504254,523,509,421,449,-443,155
4504286,510,507,423,451,-438,145
4504303,494,484,414,448,-448,108
4504321,466,454,427,448,-453,86
4504338,472,445,426,463,-458,93
4504354,471,435,432,447,-464,94
4504371,468,417,426,448,-480,85
4504402,472,451,424,450,-443,99
4504420,434,416,423,458,-488,61
4504437,425,428,429,453,-471,66
4504454,421,411,427,457,-460,59
4504470,418,418,429,456,-479,68
4504486,433,426,426,458,-423,86
4504519,397,416,427,450,-454,47
4504536,382,420,433,468,-445,26
4504553,389,429,429,576,-422,16
4504569,387,412,430,587,-399,5
4504586,359,410,430,599,-418,-4
4504603,360,441,430,599,-418,19
4504635,337,421,433,603,-421,23
4504652,347,421,439,602,-395,35
4504669,345,438,435,599,-397,36
4504685,345,442,435,600,-410,34
4504703,286,391,437,597,-457,7
4504719,308,433,433,598,-444,35
4504736,276,413,438,599,-471,32
4504753,271,407,431,598,-470,33
4504769,289,440,442,602,-466,36
4504786,270,421,430,594,-483,34
4504802,239,405,433,597,-501,25
4504819,261,442,427,602,-456,57
4504838,252,449,429,606,-446,62
4504868,262,474,426,603,-470,89
4504885,262,471,426,603,-467,94
4504902,246,454,425,600,-508,87
4504918,247,467,434,600,-472,99
4504935,227,438,431,595,-486,86
4504952,227,440,430,602,-471,116
4504968,220,450,428,597,-473,90
4504985,214,447,435,596,-458,110
4505002,234,489,429,596,-435,122
4505019,214,459,434,591,-431,125
4505035,225,484,438,590,-414,129
4505052,181,431,430,587,-477,117
4505068,184,456,430,590,-474,111
4505086,179,472,425,593,-477,117
4505103,181,472,434,598,-445,124
4505118,181,469,437,604,-452,131
4505135,188,470,437,595,-423,160
4505152,155,458,435,597,-442,151
4505168,162,485,435,591,-420,161
4505185,128,458,438,583,-438,158
4505202,124,478,435,585,-443,170
4505218,127,482,436,699,-416,163
4505235,119,501,434,830,-443,90
4505252,125,508,433,842,-439,114
4505270,93,495,436,825,-444,92
4505287,86,501,431,826,-446,121
4505302,84,513,439,823,-432,121
4505334,64,505,435,821,-414,126
4505351,58,524,432,818,-417,137
4505369,56,531,429,821,-423,132
4505385,60,591,438,818,-372,162
4505401,64,572,439,827,-383,163
4505418,62,583,437,814,-378,172
4505435,74,614,440,821,-339,193
4505451,80,598,440,822,-343,191
4505468,60,576,439,827,-351,188
4505484,59,600,435,820,-325,200
4505501,27,568,442,815,-383,180
4505517,24,535,436,807,-412,183
4505535,29,535,432,817,-414,205
4505551,31,519,436,811,-420,193
4505568,14,516,433,810,-406,195
4505585,11,531,433,809,-404,196
4505601,10,540,433,809,-390,204
4505617,-9,531,430,801,-409,192
4505634,-7,543,430,803,-382,217
4505651,-3,523,431,800,-371,224
4505668,-26,535,428,803,-365,232
4505685,-26,534,430,798,-383,223
4505701,-35,528,426,795,-394,215
4505719,-32,524,432,796,-388,225
4505735,-55,535,430,792,-391,243
4505752,-52,552,431,793,-386,243
4505768,-57,521,435,794,-415,246
4505799,-72,503,442,795,-415,233
4505816,-62,533,438,794,-369,250
4505832,-69,563,442,793,-362,250
4505850,-29,611,433,789,-278,285
4505867,-53,618,433,793,-299,280
4505883,-74,572,432,787,-315,254
4505916,-68,597,435,790,-309,262
4505933,-89,610,433,783,-303,253
4505950,-90,608,426,782,-324,244
4505967,-92,630,430,780,-322,253
4505983,-90,623,429,782,-304,266
4506000,-92,625,429,784,-291,280
4506032,-92,633,431,785,-294,277
4506050,-128,600,429,777,-345,248
4506065,-122,634,427,780,-294,273
4506082,-130,625,429,777,-314,260
4506100,-158,596,431,781,-318,253
4506116,-163,580,435,778,-348,239
4506133,-179,597,430,775,-335,254
4506149,-179,592,436,780,-332,262
4506166,-184,600,438,771,-326,265
4506183,-207,602,432,765,-324,250
4506200,-218,556,435,765,-339,243
4506216,-206,595,430,828,-313,255
4506233,-216,549,431,874,-333,216
4506250,-234,540,434,867,-354,193
4506266,-237,510,433,862,-350,201
4506284,-236,531,436,849,-322,216
4506300,-239,505,433,823,-324,219
4506317,-262,517,433,813,-328,193
4506333,-270,500,433,806,-322,199
4506350,-271,535,429,802,-310,221
4506382,-300,514,433,803,-322,213
4506399,-306,540,439,793,-323,210
4506416,-326,546,436,798,-306,222
4506432,-321,546,436,799,-295,240
4506449,-346,572,440,789,-291,238
4506465,-377,563,440,780,-285,243
4506482,-398,558,440,758,-291,255
4506498,-412,599,442,739,-278,284
4506515,-423,626,437,745,-269,312
4506532,-462,608,439,750,-268,302
4506548,-476,620,439,744,-271,294
4506565,-478,634,437,739,-270,289
4506581,-489,613,439,739,-318,245
4506599,-530,600,438,740,-320,248
4506615,-537,625,441,747,-306,260
4506632,-544,624,435,753,-304,264
4506649,-565,628,439,753,-290,271
4506665,-569,625,437,748,-284,276
4506682,-566,657,440,758,-273,274
4506698,-585,664,440,753,-296,271
4506716,-575,691,440,757,-261,297
4506732,-569,699,437,749,-243,307
4506748,-599,688,431,758,-277,278
4506766,-622,683,432,752,-300,279
4506782,-625,694,433,746,-306,272
4506799,-628,705,429,756,-253,292
4506816,-645,688,428,749,-297,275
4506848,-657,696,431,753,-292,260
4506864,-688,687,432,759,-291,261
4506881,-718,680,430,756,-296,251
4506898,-688,686,431,754,-288,266
4506914,-686,692,433,759,-278,278
4506932,-686,678,426,748,-245,295
4506948,-689,642,424,751,-275,284
4506965,-693,632,426,750,-274,290
4506981,-694,602,428,747,-288,273
4506998,-722,593,430,741,-318,244
4507015,-722,567,423,746,-328,227
4507032,-720,572,427,741,-317,229
4507048,-718,584,419,743,-306,245
4507065,-716,574,418,738,-320,239
4507096,-716,580,424,736,-326,239
4507113,-729,546,420,732,-328,216
4507130,-726,563,419,733,-311,229
4507147,-715,571,423,737,-310,230
4507164,-719,564,416,734,-303,207
4507181,-717,569,426,733,-293,230
4507212,-724,570,423,737,-255,237
4507230,-721,592,424,734,-227,215
4507246,-693,592,419,730,-217,233
4507263,-717,577,420,731,-220,236
4507280,-716,596,417,729,-214,238
4507297,-712,594,413,722,-205,252
4507328,-690,574,414,725,-221,251
4507346,-695,566,418,729,-234,248
4507363,-687,595,427,726,-214,254
4507379,-687,602,415,728,-213,245
4507396,-687,602,419,725,-204,263
4507413,-687,602,410,716,-198,261
4507430,-687,580,415,717,-224,260
4507446,-678,598,420,723,-223,274
4507463,-649,632,417,732,-152,319
4507479,-646,633,415,729,-158,315
4507498,-657,652,420,723,-162,304
4507513,-652,661,419,727,-172,328
4507530,-626,657,415,725,-173,346
4507563,-605,681,421,724,-191,334
4507579,-604,688,420,728,-179,333
4507595,-628,651,421,727,-200,325
4507612,-618,617,415,729,-227,305
4507645,-572,636,410,726,-213,332
4507662,-594,595,419,719,-247,305
4507679,-573,600,408,726,-251,303
4507695,-556,597,422,730,-250,297
4507712,-559,595,412,726,-258,277
4507729,-559,588,421,728,-264,285
4507746,-536,595,415,725,-245,288
4507762,-544,568,416,720,-251,289
4507794,-511,595,421,728,-209,275
4507812,-507,588,416,727,-201,243
4507828,-511,559,418,724,-242,222
4507845,-513,556,417,728,-243,195
4507862,-506,561,418,727,-225,202
4507879,-509,535,423,723,-250,181
4507911,-508,500,420,727,-250,160
4507929,-521,477,417,728,-262,151
4507945,-555,473,414,700,-272,137
4507962,-573,472,410,708,-278,123
4507978,-571,489,413,699,-279,131
4507995,-558,507,418,702,-256,157
4508012,-572,503,408,708,-252,130
4508043,-567,500,417,704,-249,120
4508063,-565,469,414,701,-266,112
4508078,-547,503,417,705,-241,132
4508095,-556,501,417,698,-265,125
4508112,-560,497,415,702,-286,143
4508128,-537,498,415,706,-292,156
4508145,-538,502,414,703,-261,167
4508162,-527,509,419,697,-275,164
4508179,-540,485,415,696,-313,156
4508195,-525,505,417,697,-308,155
4508211,-505,505,420,688,-288,162
4508229,-511,507,424,690,-293,157
4508246,-511,509,423,701,-274,157
4508276,-514,464,416,682,-311,162
4508294,-497,474,417,704,-295,195
4508311,-513,410,413,698,-352,157
4508327,-482,446,420,689,-326,189
4508344,-476,425,421,567,-341,210
4508361,-475,415,418,562,-355,221
4508393,-472,415,416,564,-364,237
4508410,-463,419,424,551,-386,228
4508427,-483,404,413,565,-399,208
4508444,-450,416,426,569,-357,232
4508461,-444,436,423,571,-366,223
4508477,-437,437,430,568,-370,218
4508509,-441,435,416,571,-355,213
4508526,-439,427,413,574,-355,211
4508543,-444,412,419,566,-368,184
4508560,-460,401,416,567,-397,184
4508577,-437,412,419,573,-367,202
4508593,-441,411,422,572,-386,183
4508626,-429,403,424,570,-372,181
4508643,-419,440,415,543,-320,180
4508661,-424,448,415,519,-329,185
4508677,-441,448,416,513,-352,170
4508693,-433,440,419,515,-369,156
4508710,-449,431,419,519,-430,142
4508742,-414,468,420,517,-380,158
4508760,-407,481,418,528,-345,165
4508775,-428,473,413,537,-391,120
4508792,-441,480,410,527,-384,119
4508810,-435,476,427,529,-394,116
4508826,-443,499,414,521,-364,117
4508842,-416,516,428,537,-328,126
4508859,-418,536,418,540,-328,120
4508876,-435,531,426,541,-336,90
4508893,-448,503,422,543,-351,67
4508910,-445,526,419,549,-324,84
4508927,-452,527,423,556,-341,79
4508943,-427,536,424,558,-328,105
4508959,-408,514,425,558,-325,112
4508977,-407,505,428,557,-325,111
4508994,-405,512,433,555,-326,97
4509009,-406,501,430,553,-346,91
4509026,-391,519,427,550,-353,86
4509043,-373,531,416,551,-354,94
4509060,-363,565,425,540,-347,100
4509091,-365,565,423,532,-354,99
4509109,-367,572,426,530,-355,73
4509125,-367,585,428,528,-367,91
4509142,-384,584,427,533,-391,60
4509159,-388,578,429,521,-419,64
4509176,-373,606,421,528,-380,87
4509192,-351,632,429,541,-358,98
4509208,-368,615,420,532,-390,79
4509225,-415,591,424,537,-414,54
4509242,-367,616,423,541,-368,60
4509258,-392,589,429,544,-422,29
4509275,-382,597,431,543,-408,48
4509292,-387,594,428,539,-390,58
4509324,-391,590,430,545,-397,45
4509341,-379,632,427,548,-376,63
4509357,-382,651,427,554,-366,61
4509374,-380,675,429,550,-383,51
4509392,-387,681,429,552,-355,29
4509408,-375,717,427,544,-357,49
4509440,-344,817,427,543,-351,71
4509458,-375,814,431,530,-385,36
4509476,-367,834,426,528,-403,29
4509491,-383,847,430,530,-409,26
4509508,-363,867,432,538,-388,30
4509525,-319,940,431,536,-357,57
4509556,-354,945,430,544,-379,-4
4509574,-346,952,430,545,-364,-28
4509592,-352,925,422,541,-399,-43
4509607,-349,939,420,539,-386,-55
4509624,-322,937,427,539,-368,-62
4509641,-336,901,410,533,-385,-59
4509657,-339,895,428,545,-394,-67
4509674,-344,874,421,545,-389,-66
4509691,-345,869,428,549,-388,-80
4509708,-349,874,428,551,-390,-93
4509724,-354,843,431,549,-401,-103
4509741,-316,858,435,553,-372,-102
4509758,-331,872,435,548,-387,-102
4509790,-333,889,440,553,-373,-97
4509808,-323,879,436,559,-335,-65
4509824,-326,858,437,555,-322,-62
4509841,-323,840,426,552,-349,-70
4509857,-353,794,434,556,-391,-103
4509874,-367,781,435,555,-388,-98
4509906,-356,782,432,548,-375,-95
4509923,-353,780,422,552,-339,-89
4509940,-361,778,426,549,-357,-97
4509956,-346,787,410,551,-359,-94
4509974,-331,818,418,576,-347,-75
4509989,-326,825,418,571,-360,-90
4510022,-340,836,405,582,-372,-124
4510040,-340,832,410,569,-369,-127
4510056,-341,847,405,570,-358,-116
4510073,-338,847,408,556,-381,-122
4510090,-338,874,405,556,-370,-92
4510106,-336,868,408,558,-391,-105
4510139,-337,888,402,548,-364,-89
4510156,-339,882,412,553,-360,-95
4510174,-321,917,406,550,-327,-86
4510190,-326,909,410,552,-339,-67
4510206,-320,910,408,555,-353,-83
4510224,-316,906,407,556,-346,-57
4510256,-320,849,419,552,-371,-58
4510273,-321,842,424,569,-382,-59
4510289,-318,833,422,587,-366,-60
4510306,-322,814,425,630,-382,-80
4510323,-332,775,415,644,-413,-96
4510339,-313,780,431,649,-412,-81
4510372,-326,775,408,638,-456,-95
4510390,-318,805,410,630,-417,-76
4510406,-288,842,416,615,-403,-51
4510422,-317,817,432,629,-446,-68
4510439,-321,818,422,640,-436,-69
4510456,-322,811,430,644,-421,-72
4510472,-304,812,421,645,-409,-68
4510489,-293,840,419,648,-373,-55
4510506,-284,847,423,643,-363,-30
4510523,-284,867,421,645,-354,-31
4510540,-294,858,417,637,-351,-34
4510557,-291,863,413,638,-343,-32
4510573,-302,843,410,633,-355,-66
4510605,-292,835,410,644,-298,-57
4510622,-290,830,409,620,-325,-72
4510639,-288,848,406,631,-304,-63
4510655,-301,843,408,636,-297,-68
4510672,-295,835,405,637,-292,-73
4510688,-290,840,409,634,-296,-80
4510705,-292,828,415,633,-300,-62
4510722,-292,816,410,638,-304,-62
4510738,-285,824,421,626,-294,-57
4510755,-269,853,414,635,-272,-25
4510772,-288,825,409,640,-284,-51
4510789,-304,792,406,607,-300,-64
4510805,-295,802,409,591,-303,-64
4510822,-297,783,409,585,-299,-68
4510839,-305,775,407,584,-306,-66
4510857,-315,743,407,583,-307,-93
4510872,-290,750,408,588,-292,-54
4510889,-301,716,405,585,-289,-63
4510906,-320,688,409,585,-308,-66
4510922,-323,710,401,585,-306,-69
4510953,-322,683,406,584,-331,-85
4510970,-306,686,401,586,-320,-84
4510987,-295,698,403,583,-325,-61
4511005,-317,692,403,579,-327,-97
4511021,-316,726,398,578,-321,-63
4511038,-324,720,403,582,-317,-68
4511054,-316,747,410,583,-280,-58
4511071,-326,736,402,573,-282,-55
4511088,-354,714,412,573,-321,-105
4511104,-356,717,401,561,-321,-134
4511121,-317,729,403,564,-278,-112
4511138,-295,774,405,566,-235,-102
4511154,-311,773,407,562,-261,-124
4511186,-338,750,409,540,-291,-143
4511203,-325,749,408,539,-269,-123
4511219,-324,777,410,550,-268,-119
4511237,-332,781,405,537,-301,-129
4511253,-345,782,406,540,-312,-106
4511271,-317,808,405,542,-266,-65
4511287,-352,780,408,537,-282,-66
4511304,-353,776,409,528,-321,-71
4511321,-357,779,407,541,-310,-60
4511337,-341,795,411,546,-268,-22
4511354,-320,841,409,553,-242,3
4511370,-344,862,409,540,-262,4
4511388,-366,849,409,543,-274,-11
4511420,-370,837,402,539,-221,1
4511436,-359,836,402,546,-204,18
4511453,-368,833,406,541,-226,23
4511470,-350,846,402,541,-247,31
4511486,-370,818,410,535,-258,26
4511503,-357,807,408,546,-289,5
4511536,-360,814,408,545,-327,-1
4511553,-344,851,406,534,-313,2
4511571,-349,840,399,541,-328,-11
4511588,-346,836,403,544,-323,-5
4511604,-349,847,403,545,-311,-21
4511620,-302,866,402,545,-271,6
4511651,-307,837,402,549,-299,-28
4511670,-311,835,404,551,-307,-29
4511686,-334,802,405,551,-348,-68
4511702,-323,813,407,547,-349,-61
4511720,-310,818,407,558,-334,-83
4511736,-293,815,408,552,-350,-114
4511768,-271,824,406,555,-330,-148
4511784,-263,828,405,557,-336,-157
4511819,-260,815,406,552,-311,-203
4511838,-268,793,412,558,-333,-229
4511854,-260,788,411,555,-327,-244
4511902,-245,796,406,563,-350,-273
4511919,-247,812,408,577,-345,-287
4511936,-245,809,404,562,-333,-283
4511953,-237,798,404,568,-354,-299
4511970,-241,796,412,569,-354,-310
4512001,-224,813,407,564,-344,-317
4512018,-212,827,402,580,-332,-312
4512035,-203,829,412,570,-336,-322
4512052,-198,824,409,572,-326,-324
4512068,-186,830,410,581,-313,-320
4512085,-190,798,402,573,-337,-330
4512102,-184,789,406,580,-324,-322
4512134,-167,750,408,647,-340,-347
4512150,-182,714,401,641,-345,-353
4512168,-186,697,405,634,-379,-373
4512185,-158,694,408,637,-386,-374
4512201,-148,714,407,633,-366,-348
4512219,-133,689,409,639,-386,-357
4512251,-127,665,405,648,-370,-351
4512267,-129,649,409,647,-382,-385
4512285,-149,628,406,652,-391,-394
4512301,-115,665,412,667,-359,-380
4512318,-127,655,408,652,-379,-385
4512335,-130,658,411,663,-390,-388
4512352,-96,662,406,665,-348,-378
4512369,-100,644,405,653,-343,-362
4512386,-99,641,407,656,-370,-362
4512402,-90,657,406,661,-363,-349
4512418,-97,653,407,664,-369,-360
4512436,-92,658,406,648,-369,-357
4512452,-88,646,404,651,-354,-357
4512483,-90,643,401,642,-363,-354
4512500,-93,626,404,647,-391,-362
4512517,-62,666,405,644,-349,-346
4512534,-69,663,394,650,-372,-357
4512551,-68,655,401,649,-380,-358
4512567,-51,674,400,659,-326,-318
4512584,-61,651,397,655,-338,-346
4512601,-83,623,401,655,-383,-372
4512618,-57,685,405,632,-356,-346
4512634,-65,692,397,612,-366,-357
4512651,-93,685,401,613,-386,-370
4512668,-85,684,399,612,-389,-365
4512685,-95,660,405,617,-387,-380
4512716,-60,687,408,617,-347,-357
4512733,-83,646,400,611,-373,-386
4512751,-57,641,406,602,-340,-372
4512767,-64,644,408,607,-330,-373
4512783,-52,616,404,601,-341,-404
4512800,-63,587,411,603,-360,-416
4512817,-60,580,407,602,-335,-430
4512834,-62,558,406,599,-348,-440
4512850,-62,543,411,604,-337,-443
4512868,-58,557,401,598,-343,-443
4512884,-51,527,406,591,-328,-440
4512900,-58,497,405,590,-362,-456
4512917,-60,499,405,585,-368,-457
4512933,-53,504,404,588,-337,-444
4512950,-31,506,400,594,-298,-411
4512967,-64,488,399,590,-317,-443
4512983,-73,472,399,580,-348,-444
4513000,-70,472,408,491,-364,-446
4513017,-67,485,403,498,-343,-407
4513033,-57,480,408,497,-329,-402
4513065,-80,445,399,488,-354,-420
4513082,-78,463,404,495,-324,-422
4513099,-99,426,402,487,-378,-448
4513116,-96,438,396,492,-353,-442
4513133,-90,443,389,489,-337,-442
4513150,-94,439,395,492,-345,-445
4513181,-90,472,397,496,-346,-447
4513198,-93,489,398,493,-353,-468
4513216,-92,477,396,492,-348,-476
4513233,-94,496,397,490,-347,-479
4513249,-89,503,396,495,-333,-493
4513266,-104,474,396,506,-354,-514
4513298,-119,506,401,507,-389,-561
4513316,-109,506,408,504,-379,-556
4513332,-116,514,411,501,-367,-564
4513349,-114,513,402,505,-359,-565
4513366,-108,529,410,508,-341,-566
4513382,-120,500,409,511,-358,-589
4513414,-122,473,409,510,-349,-596
4513432,-128,445,409,514,-388,-605
4513448,-128,450,416,517,-379,-605
4513464,-111,476,409,518,-351,-594
4513482,-102,467,406,521,-351,-579
4513499,-118,441,415,518,-366,-573
4513531,-117,416,411,518,-347,-572
4513548,-131,399,412,523,-389,-604
4513565,-148,388,403,524,-399,-612
4513582,-156,386,408,529,-414,-626
4513598,-168,380,404,530,-416,-623
4513615,-175,385,408,537,-417,-617
4513647,-179,365,405,541,-412,-600
4513664,-189,360,405,540,-428,-607
4513682,-213,325,410,558,-442,-633
4513698,-188,347,407,549,-415,-598
4513714,-197,353,417,531,-415,-591
4513732,-198,366,406,525,-366,-564
4513763,-191,363,406,527,-349,-562
4513781,-218,343,410,526,-341,-561
4513798,-230,345,404,523,-352,-567
4513815,-236,377,408,529,-365,-565
4513831,-217,396,404,537,-368,-545
4513848,-229,394,410,530,-406,-566
4513865,-226,404,411,529,-382,-536
4513881,-241,404,406,533,-416,-540
4513897,-230,425,406,535,-401,-529
4513914,-223,440,406,533,-408,-506
4513931,-229,443,407,524,-410,-503
4513947,-226,458,407,527,-431,-502
4513964,-224,473,405,527,-445,-487
4513996,-215,473,413,524,-451,-476
4514014,-201,477,413,539,-434,-470
4514030,-204,483,408,527,-420,-467
4514047,-201,494,415,529,-417,-466
4514064,-213,476,407,525,-446,-477
4514080,-213,463,410,521,-474,-474
4514098,-213,439,407,528,-474,-479
4514114,-213,440,410,530,-475,-478
4514130,-205,429,403,534,-481,-480
4514147,-213,401,409,548,-484,-496
4514164,-206,413,404,537,-471,-475
4514181,-208,413,408,528,-452,-486
4514197,-200,411,408,524,-446,-472
4514229,-211,373,405,519,-440,-470
4514246,-213,378,405,512,-437,-468
4514263,-209,383,399,517,-417,-440
4514280,-206,386,402,514,-424,-447
4514297,-237,376,398,514,-440,-453
4514313,-208,418,400,517,-386,-417
4514345,-217,405,400,507,-422,-411
4514363,-222,417,402,528,-409,-407
4514380,-219,406,401,537,-430,-419
4514396,-218,403,400,760,-435,-461
4514413,-236,377,399,730,-486,-500
4514430,-223,404,395,744,-455,-467
4514462,-239,415,396,729,-445,-481
4514479,-242,393,396,729,-458,-474
4514496,-224,410,396,734,-447,-448
4514513,-218,425,399,725,-461,-447
4514530,-216,425,401,733,-435,-428
4514546,-210,443,398,730,-420,-414
4514578,-227,421,404,723,-444,-415
4514597,-230,442,404,711,-446,-414
4514612,-224,428,398,711,-456,-391
4514629,-210,466,395,711,-442,-372
4514646,-203,479,400,712,-438,-359
4514662,-235,450,396,708,-472,-388
4514695,-226,450,397,696,-456,-358
4514712,-219,462,395,701,-447,-349
4514729,-212,469,398,692,-471,-349
4514745,-220,478,397,696,-438,-331
4514762,-214,477,401,687,-442,-325
4514778,-218,465,396,692,-443,-326
4514811,-210,451,397,674,-467,-309
4514829,-219,443,397,654,-481,-319
4514847,-197,444,395,653,-455,-299
4514863,-193,443,400,650,-446,-292
4514879,-186,445,398,648,-453,-296
4514895,-185,477,397,642,-435,-284
4514927,-177,442,397,533,-447,-249
4514945,-158,475,400,521,-441,-232
4514960,-145,493,399,515,-444,-193
4514978,-139,515,395,523,-422,-181
4514996,-145,506,399,516,-426,-165
4515012,-151,473,404,521,-451,-177
4515043,-151,497,407,524,-402,-142
4515060,-162,475,404,521,-421,-159
4515078,-159,481,403,518,-409,-127
4515095,-138,485,402,523,-385,-115
4515113,-151,477,395,522,-393,-120
4515129,-155,472,405,522,-402,-118
4515160,-148,469,401,517,-381,-89
4515178,-163,472,400,521,-361,-103
4515194,-150,480,406,504,-353,-93
4515211,-172,441,399,489,-386,-125
4515228,-164,466,405,496,-351,-99
4515245,-159,467,407,524,-315,-91
4515276,-155,475,407,519,-327,-82
4515293,-176,461,400,519,-340,-98
4515310,-183,458,405,508,-348,-94
4515328,-186,469,402,489,-374,-97
4515344,-196,460,401,480,-392,-99
4515360,-165,477,404,486,-385,-81
4515395,-186,489,400,483,-410,-86
4515413,-174,508,402,481,-400,-56
4515429,-184,497,401,473,-416,-58
4515446,-187,483,405,478,-416,-64
4515462,-199,484,409,474,-447,-69
4515479,-178,512,406,476,-402,-36
4515509,-202,487,405,493,-384,-49
4515526,-217,477,400,478,-396,-60
4515544,-218,440,408,481,-402,-61
4515560,-214,443,403,472,-403,-36
4515577,-207,441,410,480,-389,-36
4515594,-214,419,410,471,-396,-30
4515625,-202,425,408,476,-389,-19
4515643,-206,434,408,473,-380,-7
4515660,-181,472,399,473,-330,17
4515677,-195,442,398,469,-372,6
4515694,-206,453,405,473,-359,5
4515710,-190,475,396,459,-344,35
4515742,-206,443,401,459,-357,31
4515759,-217,442,396,466,-350,16
4515776,-215,421,400,468,-384,16
4515793,-232,417,405,480,-381,17
4515810,-229,414,404,481,-409,1
4515827,-226,418,400,479,-349,29
4515858,-240,417,405,483,-391,3
4515875,-218,452,394,496,-350,33
4515893,-232,429,397,492,-359,30
4515909,-234,426,392,491,-343,41
4515926,-220,451,397,492,-336,67
4515943,-250,408,403,492,-382,25
4515975,-235,432,404,499,-360,33
4515993,-248,417,398,491,-351,32
4516009,-241,415,401,499,-356,41
4516026,-226,454,399,493,-320,70
4516042,-245,414,397,499,-343,53
4516060,-238,429,397,496,-345,59
4516091,-242,410,398,492,-355,57
4516109,-251,380,397,490,-356,65
4516126,-240,401,397,492,-348,76
4516142,-209,432,397,493,-294,109
4516159,-231,411,394,485,-318,92
4516176,-225,422,397,484,-301,119
4516208,-236,435,395,476,-312,114
4516224,-225,446,400,486,-274,122
4516241,-212,455,399,488,-273,121
4516260,-226,444,409,482,-291,105
4516276,-207,453,397,476,-274,136
4516293,-223,409,405,474,-334,102
4516341,-212,383,405,481,-322,120
4516358,-187,401,404,472,-318,122
4516375,-211,379,408,478,-339,88
4516393,-218,371,401,466,-357,87
4516410,-217,373,407,465,-358,65
4516426,-214,381,407,476,-349,71
4516460,-188,421,398,466,-288,94
4516477,-184,421,394,473,-270,101
4516493,-199,404,401,466,-291,91
4516509,-214,385,393,472,-294,84
4516526,-216,370,402,463,-304,62
4516543,-242,350,398,469,-330,56
4516559,-220,385,398,465,-311,63
4516591,-191,397,395,470,-262,102
4516608,-234,373,394,481,-279,60
4516624,-229,385,398,472,-289,69
4516641,-230,386,385,473,-315,54
4516658,-245,380,399,482,-316,53
4516674,-207,410,398,480,-283,87
4516707,-214,391,400,482,-292,74
4516724,-211,407,399,477,-258,90
4516741,-215,403,391,472,-280,91
4516757,-187,435,397,471,-249,114
4516774,-211,417,398,471,-264,91
4516791,-224,382,399,469,-292,89
4516823,-222,416,399,466,-256,103
4516839,-232,413,396,459,-262,93
4516856,-229,397,397,454,-301,89
4516873,-232,383,395,452,-322,75
4516891,-234,394,400,460,-315,85
4516908,-241,375,400,453,-307,76
4516939,-212,398,405,458,-268,99
4516956,-219,405,405,454,-266,100
4516974,-218,410,418,502,-282,93
4516990,-205,400,420,503,-288,90
4517007,-235,334,414,500,-346,-19
4517023,-228,322,421,498,-355,-88
4517056,-212,342,414,501,-335,-191
4517074,-219,346,410,505,-351,-236
4517090,-205,338,404,509,-340,-261
4517107,-182,352,402,515,-338,-298
4517124,-204,341,404,508,-334,-326
4517140,-200,337,400,510,-357,-357
4517157,-198,360,399,517,-324,-353
4517174,-219,332,397,508,-359,-392
4517191,-194,355,399,516,-346,-398
4517208,-191,354,396,514,-333,-396
4517224,-213,322,397,513,-356,-447
4517240,-211,340,393,512,-345,-451
4517257,-188,359,382,515,-300,-442
4517288,-183,372,385,515,-296,-462
4517306,-184,380,400,518,-329,-486
4517323,-184,359,395,516,-345,-512
4517340,-189,354,398,519,-337,-517
4517356,-150,388,400,515,-308,-501
4517373,-155,389,394,516,-307,-524
4517404,-148,438,398,519,-284,-536
4517421,-185,404,403,513,-321,-588
4517439,-187,383,401,517,-354,-604
4517455,-179,384,401,518,-335,-598
4517473,-159,392,397,516,-320,-592
4517489,-193,360,399,513,-341,-626
4517521,-176,386,404,517,-335,-618
4517539,-190,356,396,513,-355,-640
4517556,-187,337,400,515,-394,-662
4517572,-191,341,397,512,-383,-659
4517590,-174,361,394,518,-380,-652
4517606,-196,339,397,515,-357,-675
4517638,-195,311,395,516,-380,-686
4517655,-204,275,395,513,-418,-716
4517672,-189,289,397,512,-398,-685
4517688,-189,291,396,514,-399,-695
4517706,-186,296,394,513,-408,-721
4517723,-172,306,391,517,-399,-692
4517754,-190,281,385,519,-442,-722
4517772,-193,281,400,518,-414,-717
4517788,-183,282,386,513,-430,-712
4517805,-182,298,394,521,-436,-713
4517822,-184,275,394,520,-455,-718
4517840,-178,299,396,522,-433,-685
4517870,-165,292,396,520,-438,-686
4517888,-161,300,390,526,-432,-691
4517904,-183,282,394,513,-443,-687
4517921,-164,293,393,510,-419,-677
4517938,-184,293,398,501,-438,-685
4517955,-178,297,395,495,-446,-687
4517986,-154,325,394,487,-428,-669
4518004,-191,295,399,493,-460,-714
4518021,-183,313,398,489,-473,-720
4518038,-191,294,400,495,-494,-741
4518055,-228,271,402,495,-512,-783
4518072,-219,271,406,494,-504,-765
4518103,-205,291,405,492,-465,-748
4518121,-199,292,403,494,-464,-738
4518137,-171,328,407,492,-415,-689
4518154,-181,308,403,497,-430,-705
4518170,-186,325,409,501,-439,-708
4518187,-183,332,409,502,-440,-692
4518220,-193,316,411,494,-451,-717
4518237,-182,347,407,495,-435,-680
4518254,-193,328,414,501,-453,-686
4518271,-211,292,408,519,-483,-707
4518287,-207,305,409,516,-476,-689
4518303,-182,307,405,521,-478,-684
4518336,-180,319,414,520,-449,-654
4518352,-165,319,416,515,-451,-654
4518370,-191,302,414,519,-474,-667
4518387,-183,303,408,511,-478,-661
4518403,-176,325,409,518,-449,-633
4518420,-193,300,413,510,-461,-644
4518453,-154,330,406,510,-406,-590
4518470,-177,309,405,515,-437,-606
4518487,-181,293,406,501,-444,-597
4518504,-166,311,405,501,-429,-582
4518520,-166,323,402,502,-419,-562
4518537,-191,292,405,508,-439,-597
4518569,-153,317,404,521,-412,-528
4518587,-178,309,406,517,-445,-557
4518603,-174,319,399,516,-410,-530
4518620,-166,330,406,524,-416,-539
4518636,-182,323,397,515,-416,-533
4518653,-168,337,406,514,-400,-517
4518686,-159,363,400,498,-387,-477
4518702,-156,370,397,513,-401,-478
4518720,-192,340,400,503,-435,-494
4518736,-154,369,399,502,-402,-459
4518753,-160,381,397,513,-380,-439
4518770,-172,370,391,506,-408,-448
4518801,-155,390,392,510,-398,-420
4518819,-172,396,396,503,-414,-420
4518835,-155,403,397,505,-392,-413
4518853,-159,401,401,509,-384,-400
4518869,-152,393,396,504,-372,-380
4518885,-146,393,399,511,-375,-361
4518918,-155,372,401,520,-406,-358
4518935,-159,381,397,517,-391,-347
4518952,-152,343,393,509,-420,-348
4518968,-178,328,398,515,-445,-353
4518985,-171,338,400,507,-439,-333
4519002,-178,332,402,513,-441,-335
4519034,-179,326,393,505,-437,-323
4519051,-181,326,393,496,-424,-315
4519069,-174,332,390,500,-406,-311
4519085,-159,331,398,501,-410,-291
4519102,-181,309,395,505,-406,-276
4519119,-185,322,388,498,-394,-283
4519150,-187,315,392,499,-414,-295
4519167,-199,304,391,497,-413,-294
4519184,-181,318,395,510,-381,-267
4519201,-181,320,399,509,-373,-258
4519218,-192,303,390,499,-381,-289
4519234,-186,311,393,500,-362,-257
4519267,-175,324,395,494,-365,-241
4519284,-191,293,395,497,-381,-263
4519301,-202,270,394,495,-378,-261
4519318,-186,287,390,500,-366,-250
4519335,-213,272,392,493,-381,-263
4519351,-214,295,394,492,-382,-274
4519383,-181,351,394,500,-328,-240
4519401,-196,331,393,499,-348,-242
4519417,-205,349,389,494,-337,-244
4519434,-214,343,391,498,-357,-248
4519451,-220,322,393,501,-356,-254
4519467,-227,316,395,491,-356,-259
4519500,-199,342,391,489,-310,-215
4519517,-213,329,385,493,-330,-226
4519535,-211,313,393,486,-353,-225
4519550,-209,302,387,488,-353,-231
4519567,-215,292,396,490,-352,-232
4519584,-207,293,391,489,-353,-217
4519616,-205,301,395,492,-336,-216
4519633,-216,301,398,490,-343,-215
4519650,-200,306,386,492,-319,-209
4519666,-218,298,384,493,-342,-232
4519684,-214,315,385,493,-328,-211
4519700,-201,317,396,492,-334,-211
4519732,-195,325,399,492,-330,-192
4519750,-188,360,398,495,-323,-183
4519767,-194,348,398,494,-339,-188
4519783,-179,386,397,494,-308,-173
4519801,-187,365,388,499,-328,-183
4519817,-202,349,389,497,-321,-181
4519850,-204,363,393,496,-324,-177
4519867,-213,362,395,500,-342,-182
4519883,-214,362,402,495,-349,-176
4519900,-169,402,398,502,-294,-120
4519917,-181,395,398,504,-270,-118
4519933,-187,396,405,502,-313,-152
4519965,-184,422,398,503,-276,-116
4519982,-152,450,397,490,-242,-90
4520000,-162,443,394,503,-230,-68
4520016,-192,413,396,490,-286,-98
4520033,-207,402,399,507,-297,-98
4520050,-200,408,393,493,-298,-80
4520081,-185,441,401,500,-288,-45
4520099,-204,436,396,494,-274,-55
4520116,-195,413,396,509,-277,-36
4520132,-204,405,395,502,-289,-38
4520149,-199,418,395,507,-307,-32
4520166,-180,442,395,496,-310,-1
4520198,-182,447,397,502,-295,-3
4520214,-196,397,399,496,-330,-6
4520248,-216,387,405,491,-330,-11
4520266,-199,414,403,490,-319,-18
4520282,-191,415,400,491,-303,2
4520314,-219,390,399,486,-311,-25
4520332,-188,439,405,485,-284,20
4520349,-196,431,401,491,-293,1
4520364,-228,391,408,480,-308,-7
4520381,-216,383,399,488,-295,3
4520399,-216,399,403,488,-276,3
4520431,-213,411,403,484,-277,8
4520449,-214,389,404,488,-270,0
4520465,-228,386,402,486,-310,-11
4520483,-199,423,399,488,-258,20
4520498,-207,415,401,490,-252,32
4520516,-208,427,403,489,-278,6
4520532,-233,409,399,487,-315,-43
4520564,-236,396,399,488,-305,-65
4520581,-228,416,398,492,-304,-62
4520598,-231,406,395,494,-308,-66
4520615,-226,399,399,499,-328,-68
4520631,-236,377,397,491,-337,-62
4520649,-218,382,398,512,-335,-61
4520680,-202,402,398,495,-340,-67
4520698,-198,405,397,483,-335,-64
4520714,-218,391,384,493,-359,-98
4520730,-197,415,389,500,-351,-94
4520748,-191,445,378,498,-351,-68
4520765,-182,453,386,492,-352,-79
4520781,-157,476,391,494,-383,-65
4520813,-144,495,395,492,-371,-66
4520830,-123,524,400,496,-381,-65
4520847,-106,498,397,490,-371,-70
4520864,-66,532,399,494,-357,-36
4520881,-46,532,390,486,-333,-21
4520900,-12,549,410,490,-334,0
4520930,30,541,399,496,-353,-1
4520947,82,553,401,495,-343,13
4520964,84,535,393,487,-395,-12
4520980,113,552,399,490,-346,1
4520997,147,570,395,487,-331,24
4521013,176,577,397,493,-316,32
4521031,201,586,399,486,-342,28
4521063,263,600,391,494,-320,51
4521080,296,601,396,502,-296,64
4521097,337,596,393,498,-300,86
4521113,348,611,384,496,-304,83
4521129,365,595,385,490,-281,94
4521147,387,591,386,493,-287,105
4521195,427,597,388,488,-282,152
4521213,458,602,390,480,-256,180
4521230,475,627,390,491,-243,187
4521247,478,613,396,492,-240,204
4521263,469,609,398,508,-263,186
4521280,478,627,386,506,-263,202
4521312,476,597,400,501,-268,202
4521330,470,567,393,497,-269,201
4521346,471,566,394,500,-285,214
4521363,485,558,396,508,-275,232
4521380,508,567,396,512,-276,253
4521396,488,534,401,515,-305,240
4521428,493,532,399,510,-294,258
4521447,470,505,404,504,-265,263
4521462,485,553,398,502,-229,263
4521480,475,568,405,513,-208,271
4521496,477,608,403,511,-187,291
4521513,480,665,405,508,-161,295
4521530,478,729,408,503,-158,295
4521562,471,865,404,501,-168,300
4521579,456,929,408,507,-117,319
4521595,460,1010,408,511,-125,324
4521612,435,1032,404,515,-159,303
4521629,438,1103,404,513,-135,320
4521645,441,1174,399,511,-113,337
4521663,439,1232,405,517,-125,334
4521695,412,1320,402,524,-129,323
4521712,419,1374,388,523,-123,347
4521729,404,1385,379,523,-129,340
4521745,419,1444,379,520,-116,364
4521762,399,1475,378,643,-120,346
4521779,401,1529,378,665,-103,320
4521811,354,1546,378,639,-97,321
4521827,354,1563,387,632,-83,324
4521845,340,1592,384,621,-98,321
4521862,332,1597,384,619,-94,330
4521877,317,1597,377,612,-107,334
4521895,306,1592,382,598,-127,332
4521912,305,1577,378,604,-124,346
4521944,275,1509,390,599,-146,341
4521962,351,1504,399,606,-151,357
4521979,355,1468,399,606,-177,356
4521995,374,1469,400,609,-168,380
4522012,351,1454,392,600,-163,384
4522028,351,1419,389,608,-203,379
4522048,353,1405,384,588,-184,390
4522077,322,1328,383,597,-223,363
4522095,311,1298,384,612,-233,350
4522110,303,1279,381,608,-262,349
4522127,298,1249,386,607,-245,366
4522144,290,1207,381,607,-240,358
4522161,274,1137,384,603,-283,347
4522178,292,1118,397,607,-272,351
4522210,258,1006,390,615,-297,343
4522228,263,968,395,612,-285,352
4522243,227,884,387,611,-335,324
4522261,218,845,391,606,-315,313
4522285,214,824,387,604,-309,310
4522312,214,791,386,604,-299,310
4522345,190,646,392,583,-336,295
4522363,151,585,398,585,-355,292
4522379,151,544,394,585,-357,306
4522395,149,510,401,582,-384,299
4522413,158,498,400,581,-353,322
4522443,144,423,402,581,-363,308
4522480,142,409,405,582,-361,307
4522496,127,414,405,577,-360,328
4522512,122,418,404,569,-345,330
4522529,105,380,402,564,-364,298
4522546,89,372,409,576,-380,288
4522563,98,366,398,567,-357,306
4522592,94,342,395,567,-357,315
4522610,93,333,401,570,-375,306
4522627,94,321,396,566,-386,323
4522644,88,325,400,574,-406,300
4522661,87,306,390,563,-387,308
4522677,92,329,399,574,-372,319
4522709,66,327,400,557,-375,310
4522729,55,302,390,576,-400,297
4522743,54,322,394,579,-395,301
4522760,82,345,386,579,-363,326
4522777,59,323,394,582,-375,313
4522794,53,307,395,586,-385,291
4522811,59,331,394,584,-349,324
4522842,28,294,402,582,-380,306
4522860,29,284,395,578,-388,305
4522876,25,289,402,581,-386,308
4522893,28,296,397,577,-375,319
4522910,18,289,394,576,-382,315
4522927,22,297,393,583,-376,319
4522959,25,325,396,577,-389,318
4522976,24,329,398,576,-382,337
4522993,29,336,394,579,-346,360
4523011,-4,307,382,582,-392,342
4523026,4,300,381,572,-413,354
4523042,-4,309,384,579,-413,343
4523075,-16,305,387,582,-430,331
4523092,-23,322,387,574,-443,324
4523109,-23,305,385,572,-451,318
4523126,-36,274,393,570,-470,307
4523142,-36,270,394,572,-445,324
4523159,-29,284,395,581,-428,346
4523176,-22,296,399,570,-424,358
4523207,0,327,401,567,-402,363
4523226,-4,321,397,570,-398,369
4523243,-31,273,400,569,-410,349
4523259,-12,295,391,572,-404,367
4523275,-36,276,394,580,-423,360
4523292,-30,281,399,574,-430,350
4523308,-29,294,390,576,-397,358
4523340,-30,280,392,567,-394,358
4523358,-30,246,392,556,-402,356
4523374,-29,258,401,559,-386,364
4523391,-29,259,393,559,-387,369
4523409,-35,247,392,559,-385,365
4523426,-34,247,399,560,-383,380
4523457,-37,212,396,569,-410,359
4523474,-62,212,396,572,-414,367
4523492,-57,229,394,572,-420,370
4523509,-49,235,395,566,-384,384
4523525,-62,244,389,554,-396,384
4523543,-66,244,394,557,-404,362
4523574,-93,233,393,563,-426,346
4523591,-62,254,399,561,-417,363
4523608,-89,263,400,562,-417,360
4523625,-93,261,396,564,-413,357
4523641,-93,281,401,558,-409,366
4523657,-94,285,397,565,-405,380
4523693,-100,268,398,574,-447,360
4523709,-99,284,404,572,-443,363
4523725,-64,308,400,567,-429,387
4523742,-83,299,397,577,-436,377
4523759,-98,265,394,569,-448,348
4523776,-98,275,396,576,-442,377
4523808,-93,243,397,572,-450,358
4523825,-88,229,401,575,-471,355
4523842,-101,207,399,568,-491,336
4523859,-112,201,401,568,-512,328
4523875,-89,231,399,576,-477,347
4523892,-90,215,402,565,-488,347
4523909,-79,264,400,579,-469,354
4523925,-82,262,406,572,-467,355
4523942,-81,268,398,577,-450,356
4523958,-63,273,396,571,-480,364
4523975,-59,293,401,581,-448,356
4523992,-96,270,397,577,-451,350
4524008,-89,273,401,580,-438,350
4524039,-99,250,397,575,-452,357
4524057,-61,298,399,580,-396,418
4524073,-63,289,394,582,-406,391
4524090,-85,243,398,571,-456,382
4524107,-115,255,400,580,-442,373
4524123,-90,261,393,576,-447,387
4524156,-97,272,398,570,-437,391
4524173,-127,256,396,573,-460,372
4524190,-118,274,394,556,-459,386
4524206,-123,291,399,546,-480,376
4524239,-122,296,398,528,-460,391
4524271,-123,303,406,513,-469,425
4524289,-120,318,404,520,-462,439
4524305,-118,340,397,513,-448,446
4524322,-133,327,406,516,-482,426
4524340,-128,336,403,509,-471,443
4524356,-129,337,404,502,-457,447
4524373,-153,319,410,515,-471,443
4524405,-147,335,404,527,-442,466
4524422,-161,309,402,525,-445,445
4524439,-150,309,397,539,-465,471
4524457,-157,300,400,527,-475,474
4524473,-152,281,401,523,-447,481
4524489,-157,246,405,528,-464,474
4524521,-179,230,407,539,-465,477
4524539,-178,240,399,544,-459,495
4524555,-177,260,396,537,-459,497
4524572,-162,259,401,541,-448,528
4524590,-157,280,402,544,-441,535
4524605,-164,275,404,543,-462,531
4524638,-194,248,404,548,-449,538
4524655,-188,275,396,550,-437,551
4524672,-215,245,400,545,-462,538
4524688,-213,240,405,546,-445,553
4524706,-191,272,395,542,-428,568
4524723,-219,251,395,549,-444,562
4524754,-178,307,394,546,-377,618
4524772,-179,296,399,549,-393,625
4524789,-199,301,398,547,-397,605
4524805,-185,316,399,547,-369,632
4524822,-193,321,396,546,-368,631
4524844,-212,291,400,545,-381,622
4524870,-219,288,402,538,-399,628
4524888,-210,314,402,540,-389,631
4524904,-209,340,405,546,-367,668
4524920,-209,346,398,541,-379,663
4524938,-215,326,403,539,-381,684
4524955,-215,346,396,540,-390,685
4524986,-215,349,399,535,-420,687
4525021,-227,358,394,541,-407,670
4525038,-247,360,399,546,-382,691
4525054,-228,379,399,532,-355,689
4525071,-239,363,392,530,-390,685
4525087,-250,344,391,530,-403,663
4525104,-216,366,397,524,-359,695
4525121,-219,361,401,531,-360,692
4525137,-214,387,405,535,-349,691
4525154,-239,362,405,527,-384,667
4525171,-244,375,398,528,-386,676
4525187,-264,383,398,528,-402,655
4525204,-285,379,400,542,-432,650
4525221,-277,414,396,526,-409,663
4525237,-299,409,390,530,-403,654
4525270,-292,418,393,535,-382,676
4525287,-298,403,396,528,-423,651
4525303,-318,399,400,540,-393,664
4525320,-320,404,401,543,-426,647
4525337,-324,378,406,556,-423,649
4525354,-325,383,405,578,-420,625
4525385,-315,404,407,536,-390,653
4525403,-322,383,402,538,-374,654
4525420,-328,353,398,521,-369,652
4525438,-323,389,404,532,-336,657
4525454,-329,369,396,524,-345,660
4525471,-359,344,397,526,-352,620
4525502,-324,384,396,526,-319,655
4525521,-333,379,397,536,-340,624
4525538,-322,375,400,525,-354,625
4525555,-310,413,398,532,-314,643
4525572,-307,412,403,526,-323,655
4525589,-328,406,402,538,-331,624
4525620,-332,390,405,527,-357,620
4525637,-345,423,403,521,-338,624
4525654,-356,394,408,521,-356,599
4525669,-349,366,399,525,-383,603
4525686,-388,337,400,518,-408,559
4525703,-386,327,398,517,-383,585
4525734,-370,324,399,564,-416,527
4525751,-358,317,403,562,-406,525
4525770,-356,345,395,553,-436,491
4525787,-349,324,399,558,-452,471
4525806,-344,357,392,555,-409,474
4525820,-341,354,397,555,-431,454
4525851,-355,363,396,556,-402,430
4525869,-370,356,398,557,-414,424
4525886,-343,378,397,561,-391,432
4525903,-334,392,401,558,-376,442
4525919,-339,413,400,562,-389,410
4525936,-318,443,404,560,-346,431
4525967,-332,423,399,569,-367,402
4525984,-331,412,400,554,-390,381
4526002,-339,412,401,554,-378,385
4526018,-351,406,398,563,-391,376
4526036,-351,421,403,558,-378,368
4526051,-367,401,402,561,-415,351
4526068,-363,378,394,558,-387,352
4526100,-370,399,406,554,-367,377
4526118,-385,386,408,551,-381,354
4526135,-386,385,406,554,-381,359
4526152,-385,397,408,555,-377,372
4526169,-381,414,401,556,-353,385
4526186,-389,408,408,554,-362,356
4526217,-383,414,407,563,-375,362
4526234,-387,411,400,556,-384,364
4526251,-389,432,410,550,-379,362
4526268,-416,428,406,556,-420,332
4526285,-408,433,407,553,-421,324
4526302,-407,440,404,552,-395,341
4526318,-387,442,395,550,-387,353
4526335,-384,438,402,548,-401,352
4526351,-388,431,399,549,-381,345
4526368,-384,413,402,552,-382,352
4526384,-386,406,403,549,-388,329
4526401,-409,393,369,555,-419,321
4526418,-417,383,366,551,-419,299
4526435,-403,397,356,554,-387,323
4526451,-383,415,352,550,-380,320
4526468,-391,411,361,556,-369,313
4526485,-383,430,360,549,-389,317
4526502,-394,409,359,556,-398,300
4526534,-415,430,355,556,-396,307
4526566,-399,440,380,553,-389,296
4526584,-397,431,412,556,-434,292
4526601,-404,434,409,554,-436,275
4526617,-399,473,408,553,-392,291
4526634,-379,470,363,554,-384,289
4526651,-392,470,360,557,-398,291
4526682,-397,498,358,561,-365,301
4526700,-411,506,359,552,-373,282
4526717,-412,518,358,550,-360,272
4526734,-378,535,360,561,-343,297
4526752,-406,532,357,551,-362,252
4526768,-391,543,358,560,-322,287
4526799,-403,549,362,561,-334,277
4526817,-389,567,366,562,-320,293
4526833,-416,548,364,567,-344,273
4526850,-389,587,364,569,-332,297
4526867,-409,589,367,568,-337,283
4526883,-419,564,362,574,-361,269
4526915,-400,596,365,578,-288,308
4526933,-381,614,359,567,-282,326
4526950,-433,587,357,574,-350,271
4526967,-437,605,361,563,-351,272
4526983,-416,635,357,572,-327,274
4527000,-405,667,358,579,-283,294
4527033,-400,674,357,559,-301,279
4527050,-374,718,356,571,-267,306
4527066,-406,690,364,570,-326,269
4527083,-414,699,367,569,-336,256
4527099,-412,718,364,563,-325,259
4527116,-410,720,362,555,-313,262
4527133,-379,728,365,559,-283,284
4527165,-365,722,364,556,-280,290
4527182,-368,691,361,552,-313,275
4527198,-365,694,364,549,-305,282
4527217,-354,693,359,552,-314,281
4527232,-350,683,359,552,-310,276
4527249,-347,685,360,550,-306,275
4527281,-318,689,358,553,-256,297
4527299,-309,686,366,547,-262,287
4527315,-315,659,359,553,-260,272
4527333,-287,690,371,551,-224,298
4527349,-274,707,365,547,-189,309
4527365,-259,691,367,552,-185,308
4527382,-255,716,365,561,-154,308
4527414,-226,686,366,558,-155,290
4527432,-209,690,367,562,-129,300
4527448,-193,685,368,560,-133,292
4527465,-181,677,365,569,-151,294
4527482,-180,654,366,568,-161,284
4527500,-162,652,371,570,-152,292
4527531,-156,670,370,570,-122,299
4527548,-184,636,367,565,-178,247
4527565,-187,610,375,559,-185,247
4527581,-161,629,371,564,-153,266
4527598,-151,631,372,568,-148,280
4527615,-172,608,365,565,-182,248
4527647,-180,618,372,568,-178,252
4527665,-157,630,368,565,-166,258
4527681,-162,632,367,557,-154,261
4527697,-175,630,371,574,-154,243
4527715,-176,634,366,570,-149,238
4527731,-156,634,368,579,-145,244
4527764,-155,604,366,575,-143,253
4527782,-181,538,363,575,-164,247
4527814,-193,504,365,573,-219,184
4527831,-184,478,364,578,-178,194
4527847,-182,472,370,579,-173,186
4527879,-174,480,363,584,-178,184
4527897,-174,477,358,572,-167,175
4527914,-181,499,363,579,-156,185
4527930,-157,497,362,579,-129,182
4527947,-181,504,362,574,-145,154
4527964,-186,489,356,570,-156,153
4527996,-174,506,355,574,-148,157
4528012,-144,526,358,580,-118,154
4528031,-156,522,364,576,-125,132
4528049,-151,516,362,576,-96,145
4528064,-128,504,363,577,-123,121
4528083,-123,523,362,582,-119,125
4528129,-95,541,359,574,-70,142
4528147,-102,516,363,576,-107,122
4528164,-97,502,362,583,-128,115
4528181,-66,522,354,579,-107,133
4528197,-32,548,361,577,-84,153
4528213,-31,559,357,576,-104,123
4528245,-10,554,365,578,-100,121
4528263,-34,531,365,572,-122,92
4528281,6,542,366,574,-121,111
4528298,3,567,364,573,-126,108
4528315,9,566,361,573,-129,107
4528332,26,585,361,572,-125,99
4528362,30,613,354,576,-112,112
4528380,33,624,364,574,-95,107
4528396,29,619,364,573,-98,96
4528414,12,579,355,577,-152,87
4528430,-2,569,359,570,-157,74
4528446,-1,550,359,574,-137,83
4528495,2,506,353,574,-126,95
4528512,27,504,364,574,-98,123
4528531,12,493,358,576,-112,106
4528548,-6,444,362,573,-144,84
4528562,-3,445,355,576,-152,91
4528580,-1,448,359,570,-147,94
4528611,14,446,357,574,-92,108
4528628,-2,421,354,572,-110,88
4528646,-4,407,359,576,-125,86
4528663,8,423,365,574,-84,125
4528679,1,411,363,570,-121,91
4528696,5,384,364,579,-140,97
4528728,6,412,365,578,-122,95
4528745,-4,402,355,571,-151,66
4528762,2,400,364,574,-138,95
4528779,10,418,361,578,-118,97
4528796,5,387,358,574,-149,82
4528814,-18,406,361,577,-152,72
4528844,-28,389,361,581,-182,62
4528861,-19,421,360,574,-154,109
4528878,6,460,365,575,-120,136
4528895,-1,468,359,571,-146,125
4528911,-30,450,360,575,-160,110
4528929,-1,476,359,572,-142,129
4528960,3,503,354,569,-129,155
4528978,9,516,368,572,-122,169
4528995,2,569,354,579,-121,155
4529011,-1,560,366,573,-144,158
4529028,29,574,353,577,-91,193
4529045,9,557,366,584,-116,175
4529077,-14,492,366,584,-185,154
4529094,-1,505,364,581,-174,183
4529111,8,477,363,579,-193,180
4529128,24,483,360,581,-214,179
4529144,34,481,364,585,-179,196
4529161,47,488,365,579,-172,192
4529193,19,434,363,572,-250,119
4529211,36,436,361,577,-256,148
4529228,30,443,361,581,-252,163
4529244,63,479,367,576,-215,165
4529261,67,499,366,578,-208,191
4529278,59,460,366,580,-233,160
4529310,62,457,365,582,-235,170
4529328,40,449,367,580,-236,158
4529345,33,445,372,577,-236,154
4529362,41,442,368,578,-227,184
4529378,63,473,370,584,-213,194
4529395,30,452,368,575,-238,180
4529412,33,450,359,581,-225,171
4529442,37,476,364,580,-184,194
4529459,27,475,367,577,-212,183
4529478,28,476,362,580,-218,180
4529493,32,474,366,580,-215,185
4529511,31,483,367,577,-208,189
4529527,-2,470,370,583,-241,157
4529559,-10,477,367,578,-252,150
4529577,16,534,367,579,-227,165
4529594,-7,509,373,580,-256,151
4529611,-25,507,370,579,-297,122
4529626,-2,530,369,580,-269,159
4529643,-7,524,370,575,-261,157
4529675,0,543,375,575,-241,159
4529693,1,551,372,580,-238,153
4529710,-2,523,365,577,-255,137
4529729,-2,494,369,582,-273,114
4529745,0,445,373,575,-288,93
4529762,-9,418,368,574,-291,92
4529791,-4,419,367,580,-293,88
4529809,6,421,364,572,-293,91
4529827,14,413,366,576,-293,87
4529843,49,409,365,582,-303,86
4529860,63,425,368,575,-290,89
4529876,62,433,368,577,-306,85
4529908,27,405,368,578,-329,22
4529925,37,427,375,582,-308,62
4529942,31,438,369,581,-326,27
4529958,34,439,369,578,-326,31
4529976,36,435,368,574,-341,30
4529992,27,415,381,581,-362,8
4530024,25,441,374,579,-370,-2
4530042,22,442,371,579,-355,-5
4530059,31,451,372,578,-335,2
4530075,31,445,372,578,-348,-1
4530092,5,440,372,578,-357,-10
4530109,33,484,362,583,-300,9
4530141,17,512,372,580,-284,2
4530157,1,518,366,579,-288,-3
4530175,0,509,375,576,-329,-39
4530192,37,566,371,580,-293,-1
4530208,28,539,366,577,-278,-2
4530225,8,543,373,582,-254,3
4530257,-10,534,372,582,-289,-23
4530275,-2,557,374,583,-241,-3
4530292,4,545,381,585,-263,1
4530308,-2,533,368,578,-268,-24
4530325,-1,526,370,579,-279,-27
4530342,-30,480,369,583,-303,-36
4530358,-29,493,368,584,-300,-22
4530391,-42,444,370,583,-362,-31
4530408,-31,475,368,586,-350,-29
4530425,-37,438,374,575,-369,-36
4530444,-32,440,369,584,-349,-26
4530458,-4,470,367,579,-350,-4
4530474,-4,443,370,587,-359,-3
4530506,5,462,367,589,-370,-21
4530525,3,433,368,586,-357,-7
4530541,10,469,369,582,-349,-6
4530557,15,469,372,585,-335,1
4530575,-3,465,367,584,-370,-5
4530591,10,509,370,582,-334,10
4530608,-3,508,373,583,-354,11
4530640,-36,494,373,580,-382,0
4530657,-36,507,374,584,-343,34
4530673,-42,539,370,585,-329,41
4530690,-22,532,369,588,-345,70
4530708,-73,511,372,584,-351,28
4530724,-75,525,366,590,-334,34
4530756,-98,522,366,585,-370,29
4530773,-129,513,367,583,-356,30
4530790,-125,494,371,582,-379,34
4530808,-140,538,374,585,-385,20
4530825,-152,503,375,583,-361,17
4530841,-155,537,374,590,-385,7
4530873,-160,564,378,591,-341,29
4530890,-150,567,363,582,-323,44
4530907,-167,568,367,582,-322,32
4530924,-181,579,365,588,-314,26
4530940,-151,603,368,586,-306,59
4530956,-149,597,363,593,-291,45
4530990,-152,596,376,600,-320,31
4531007,-155,600,368,581,-325,26
4531023,-159,625,372,588,-321,29
4531040,-151,625,371,584,-297,38
4531057,-151,612,367,591,-324,34
4531074,-147,567,368,585,-331,31
4531105,-124,557,378,590,-351,4
4531122,-133,514,364,584,-383,-10
4531140,-123,499,370,595,-365,-10
4531156,-100,501,374,586,-365,-13
4531173,-95,500,374,594,-350,-7
4531190,-87,503,374,592,-360,-33
4531222,-70,501,375,592,-341,-29
4531239,-24,500,370,588,-336,-32
4531255,-25,493,368,581,-349,-54
4531273,6,510,366,599,-355,-65
4531289,-5,480,367,586,-330,-77
4531306,3,515,377,603,-315,-67
4531338,23,499,374,601,-321,-95
4531355,26,499,370,582,-303,-96
4531371,58,520,367,605,-293,-93
4531389,56,526,372,589,-288,-99
4531406,67,567,368,590,-284,-100
4531422,77,558,373,597,-290,-100
4531455,57,583,368,588,-337,-151
4531472,100,629,378,591,-290,-120
4531489,116,657,377,588,-304,-164
4531506,99,626,367,593,-321,-189
4531522,109,657,378,584,-292,-203
4531538,102,653,372,592,-298,-230
4531571,106,655,373,584,-329,-297
4531590,169,689,372,587,-332,-291
4531606,186,691,371,594,-325,-315
4531623,183,708,369,587,-308,-321
4531640,164,707,376,592,-327,-353
4531657,178,723,363,585,-311,-350
4531687,91,714,366,589,-312,-385
4531705,96,720,365,585,-287,-376
4531722,70,694,370,590,-317,-424
4531739,54,694,370,592,-330,-460
4531755,66,697,364,589,-326,-484
4531771,76,670,378,605,-369,-540
4531789,61,634,373,587,-379,-568
4531806,95,619,373,597,-366,-578
4531823,120,635,366,587,-311,-567
4531842,130,623,368,604,-295,-583
4531856,130,593,366,607,-311,-606
4531872,128,596,364,608,-309,-643
4531889,122,567,376,609,-334,-681
4531920,96,560,371,611,-339,-722
4531938,95,563,371,625,-323,-752
4531955,81,548,371,622,-332,-774
4531971,90,546,366,628,-352,-795
4531988,60,537,375,631,-375,-815
4532005,59,535,374,633,-370,-811
4532036,53,534,375,625,-367,-828
4532054,54,526,376,624,-366,-812
4532071,43,521,372,621,-365,-813
4532087,62,539,374,623,-354,-802
4532105,72,568,366,611,-324,-777
4532120,62,564,367,617,-338,-778
4532153,60,579,369,614,-335,-777
4532170,56,568,370,612,-336,-780
4532187,27,566,370,612,-346,-776
4532204,26,563,372,614,-352,-781
4532220,7,565,371,614,-354,-780
4532237,3,542,371,612,-381,-783
4532270,-2,567,375,608,-399,-782
4532287,-5,563,369,612,-396,-782
4532303,-4,591,379,612,-361,-758
4532320,10,621,372,608,-344,-749
4532337,31,639,378,602,-334,-746
4532354,25,661,372,602,-318,-743
4532370,17,679,372,609,-327,-753
4532403,29,694,368,604,-323,-743
4532420,2,666,367,600,-350,-752
4532437,-2,632,369,601,-368,-755
4532454,-1,664,368,599,-356,-719
4532470,-12,621,367,605,-357,-723
4532486,-31,627,365,607,-386,-729
4532519,-29,620,371,603,-349,-718
4532535,-29,595,369,602,-337,-714
4532553,-65,595,372,602,-346,-720
4532570,-49,591,364,601,-325,-697
4532586,-55,598,365,607,-304,-690
4532603,-75,591,368,599,-316,-706
4532620,-65,597,367,603,-297,-687
4532653,-93,616,369,602,-313,-696
4532669,-102,601,370,602,-262,-711
4532686,-125,597,370,601,-263,-715
4532703,-116,623,370,612,-236,-682
4532719,-126,603,364,600,-259,-693
4532736,-148,604,370,600,-270,-687
4532770,-157,608,365,599,-267,-653
4532787,-158,614,369,602,-248,-624
4532803,-174,592,364,601,-280,-628
4532820,-185,605,367,610,-255,-611
4532837,-179,599,363,608,-244,-591
4532853,-184,598,371,612,-239,-582
4532885,-211,620,370,614,-185,-567
4532902,-197,628,372,611,-160,-549
4532919,-240,591,367,612,-198,-554
4532935,-262,562,366,613,-218,-548
4532952,-258,564,363,612,-205,-531
4532970,-265,585,365,614,-195,-530
4533001,-291,565,368,631,-205,-526
4533019,-304,562,375,667,-214,-521
4533035,-291,589,370,674,-193,-508
4533052,-291,566,372,674,-199,-506
4533069,-301,572,371,706,-214,-518
4533085,-307,567,367,712,-228,-513
4533117,-276,602,366,734,-188,-467
4533134,-271,577,366,725,-193,-454
4533151,-328,546,368,711,-224,-479
4533169,-316,569,375,724,-223,-449
4533185,-334,539,371,764,-220,-451
4533201,-325,568,373,753,-207,-441
4533234,-341,533,371,742,-226,-443
4533251,-325,528,368,749,-207,-411
4533268,-308,566,371,755,-179,-396
4533285,-329,542,366,766,-205,-417
4533301,-328,548,365,760,-217,-417
4533317,-321,568,375,761,-182,-385
4533335,-354,534,365,759,-219,-419
4533351,-363,529,372,763,-226,-426
4533368,-346,546,373,760,-205,-387
4533385,-370,535,372,766,-222,-399
4533401,-365,519,376,764,-230,-395
4533418,-351,538,381,791,-215,-377
4533434,-356,505,376,795,-211,-387
4533467,-333,506,378,792,-197,-356
4533484,-366,479,371,792,-231,-382
4533501,-364,480,372,792,-215,-365
4533517,-379,474,372,796,-233,-366
4533534,-371,505,370,811,-198,-343
4533551,-397,455,372,835,-256,-372
4533582,-392,495,373,829,-212,-319
4533599,-379,511,378,829,-210,-295
4533617,-406,495,377,831,-207,-301
4533633,-403,507,378,829,-208,-288
4533650,-409,501,378,831,-214,-305
4533667,-412,502,376,826,-221,-320
4533700,-415,505,378,827,-183,-306
4533717,-416,503,374,827,-178,-304
4533733,-427,499,373,823,-207,-321
4533750,-415,505,375,822,-197,-299
4533767,-418,501,376,825,-193,-305
4533783,-413,503,376,820,-176,-282
4533815,-407,503,374,823,-120,-253
4533833,-416,475,376,820,-122,-271
4533850,-429,491,375,812,-106,-296
4533866,-416,519,375,816,-56,-264
4533883,-416,536,372,808,-26,-254
4533900,-446,544,376,812,-48,-274
4533932,-424,632,383,817,-34,-244
4533950,-409,695,376,818,-67,-242
4533966,-417,694,371,823,-89,-246
4533983,-441,692,380,813,-119,-242
4533999,-435,683,373,819,-154,-231
4534016,-453,629,382,816,-200,-231
4534048,-455,572,375,816,-236,-202
4534065,-471,520,371,821,-278,-206
4534082,-477,481,374,820,-302,-212
4534099,-472,480,374,814,-301,-188
4534116,-482,462,374,820,-327,-190
4534133,-479,451,376,808,-307,-182
4534164,-506,421,373,807,-330,-199
4534182,-502,408,370,801,-330,-196
4534199,-498,411,377,815,-288,-175
4534216,-480,413,375,807,-279,-182
4534232,-474,428,381,809,-237,-145
4534249,-473,417,381,804,-243,-157
4534297,-489,397,375,811,-188,-150
4534314,-501,318,376,814,-107,-161
4534331,-484,368,369,810,-59,-157
4534349,-443,442,375,806,-7,-154
4534366,-443,581,373,824,69,-154
4534382,-419,716,376,834,66,-142
4534414,-362,1068,382,824,226,-124
4534432,-364,1268,375,820,291,-116
4534448,-338,1362,379,811,305,-129
4534465,-308,1526,378,815,333,-91
4534482,-274,1799,375,815,446,-90
4534498,-279,1924,378,821,520,-93
4534530,-226,2182,375,819,639,-57
4534547,-243,2293,374,851,771,-63
4534565,-245,2281,376,873,744,-63
4534582,-250,2148,377,883,735,-114
4534597,-247,2357,368,883,842,-79
4534615,-259,2334,374,871,829,-125
4534636,-250,2268,370,868,873,-158
4534663,-279,2261,371,886,944,-173
4534681,-276,2241,374,880,932,-176
4534698,-284,2185,372,876,946,-189
4534713,-279,2191,374,878,950,-182
4534730,-253,2162,369,876,960,-154
4534749,-239,2176,366,873,966,-148
4534785,-179,2166,370,873,929,-121
4534814,-92,2258,371,889,880,-55
4534831,-91,2214,371,880,888,-53
4534847,-89,2218,371,882,863,-59
4534864,-87,2185,371,927,877,-67
4534881,-96,2125,369,924,839,-88
4534913,-64,2051,368,922,762,-117
4534931,-70,1967,379,913,717,-126
4534947,-62,1934,369,912,664,-129
4534964,-64,1825,376,911,597,-155
4534981,-62,1708,375,907,502,-156
4534997,-35,1526,370,910,473,-138
4535014,-26,1353,374,911,396,-152
4535064,-28,999,368,905,234,-139
4535080,-3,732,374,913,123,-123
4535097,3,647,370,914,84,-131
4535113,-22,556,372,913,9,-158
4535130,-29,456,373,905,-61,-185
4535147,-29,416,367,900,-135,-183
4535179,-68,319,371,896,-182,-185
4535197,-57,278,376,893,-186,-179
4535213,-89,237,375,893,-250,-185
4535229,-88,227,376,899,-223,-181
4535247,-88,216,376,891,-215,-201
4535263,-60,213,376,893,-182,-205
4535280,-67,204,378,893,-204,-216
4535313,-13,199,382,891,-231,-229
4535330,4,181,384,894,-245,-231
4535348,1,167,379,893,-283,-243
4535370,1,149,383,899,-287,-246
4535400,23,162,375,894,-274,-225
4535461,-83,-13,374,875,-529,-236
4535479,0,-3,377,872,-609,-243
4535496,244,30,373,865,-633,-244
4535512,541,49,375,865,-632,-244
4535529,835,57,376,858,-591,-221
4535546,1032,71,380,859,-603,-227
4535578,1117,104,370,861,-548,-225
4535595,1144,131,369,853,-493,-213
4535613,1239,111,371,848,-488,-242
4535629,1258,90,372,834,-475,-240
4535647,1211,67,369,827,-463,-259
4535662,1218,67,368,831,-406,-261
4535695,1190,76,377,829,-298,-258
4535712,1186,57,376,827,-308,-252
4535729,1184,102,376,822,-95,-256
4535745,1197,147,377,827,-69,-209
4535763,1166,177,374,821,-12,-237
4535779,1157,267,373,824,96,-225
4535811,1103,396,374,839,120,-236
4535828,1072,483,375,849,177,-221
4535845,1060,586,375,843,195,-233
4535862,1039,622,372,853,133,-238
4535878,1012,734,375,857,263,-246
4535895,1006,816,383,872,317,-251
4535912,1004,862,377,883,263,-222
4535945,984,1137,375,890,376,-197
4535961,963,1249,381,886,414,-223
4535978,980,1326,380,884,558,-170
4535995,936,1428,379,875,482,-220
4536011,918,1423,373,883,523,-202
4536037,898,1455,375,883,579,-226
4536076,814,1736,371,900,692,-255
4536094,797,1769,375,900,754,-272
4536110,762,1834,370,898,761,-237
4536128,720,1851,371,920,757,-188
4536144,717,1847,377,938,780,-175
4536161,687,1878,378,955,839,-98
4536193,655,1870,376,963,782,-45
4536210,629,1873,377,970,814,-34
4536228,589,1893,380,964,783,61
4536244,567,1879,375,963,814,121
4536261,552,1839,373,961,760,126
4536277,540,1813,375,964,753,162
4536309,484,1738,376,961,640,133
4536327,467,1667,375,946,530,103
4536344,450,1538,377,948,376,93
4536361,434,1382,380,946,239,55
4536377,397,1210,375,938,107,32
4536394,355,1022,378,937,-22,0
4536426,296,678,372,916,-194,-57
4536444,269,547,377,894,-249,-93
4536460,260,403,378,895,-310,-90
4536477,210,292,377,887,-366,-145
4536494,207,200,377,888,-389,-143
4536510,168,71,382,889,-450,-168
4536527,154,-8,370,890,-496,-168
4536544,129,-103,387,891,-547,-184
4536560,123,-155,374,885,-565,-162
4536577,120,-208,375,887,-582,-151
4536593,89,-259,377,890,-635,-162
4536610,62,-308,373,889,-701,-185
4536627,35,-293,376,894,-726,-182
4536659,-22,-307,375,890,-727,-194
4536677,-54,-297,370,885,-718,-213
4536694,-60,-276,364,887,-705,-192
4536710,-87,-277,371,886,-728,-232
4536727,-124,-263,361,887,-729,-243
4536743,-157,-155,373,885,-694,-238
4536775,-238,-143,369,884,-686,-251
4536793,-293,-111,368,891,-696,-265
4536810,-336,-70,366,890,-644,-274
4536828,-364,-31,372,892,-577,-269
4536844,-410,-22,377,881,-556,-286
4536861,-420,-21,368,890,-504,-286
4536892,-445,61,366,885,-467,-273
4536909,-489,73,365,882,-446,-275
4536926,-500,112,373,885,-439,-261
4536943,-503,152,374,876,-477,-273
4536960,-507,158,374,864,-497,-278
4536976,-513,143,371,870,-490,-245
4537008,-545,286,374,866,58,-296
4537024,-574,559,367,861,127,-267
4537042,-534,887,374,861,293,-243
4537059,-572,1019,373,861,204,-252
4537076,-564,1113,369,867,255,-251
4537094,-530,1282,375,865,377,-216
4537125,-521,1327,380,882,391,-136
4537142,-536,1396,378,885,386,-28
4537159,-534,1265,376,885,285,-50
4537175,-486,1389,376,889,317,27
4537192,-519,1262,376,884,390,3
4537208,-467,1313,371,892,463,100
4537241,-508,1268,372,887,590,109
4537258,-429,1588,374,901,924,273
4537275,-463,1492,371,887,1031,236
4537292,-460,1475,371,886,913,306
4537311,-470,1562,377,880,1238,232
4537342,-500,1502,374,880,1312,268
4537374,-492,1583,378,884,1293,436
4537391,-485,1621,381,878,1627,373
4537408,-475,1711,374,890,1608,500
4537425,-478,1352,378,885,1459,452
4537441,-467,1883,377,897,1955,602
4537458,-525,1595,376,888,2021,526
4537474,-511,1660,376,890,2093,592
4537491,-482,1921,376,902,2149,802
4537508,-523,1788,369,904,2542,654
4537525,-521,1752,377,898,2433,713
4537542,-543,1904,368,906,2561,716
4537558,-536,1804,374,901,2430,684
4537577,-536,1891,373,900,2438,684
4537640,-557,1770,374,889,2260,590
4537657,-617,1578,369,877,1966,505
4537674,-490,1676,373,883,2025,599
4537691,-540,1557,376,877,1821,504
4537707,-508,1439,373,873,1696,452
4537723,-505,1414,373,866,1583,440
4537758,-493,1294,374,861,1415,381
4537775,-487,1217,377,849,1338,326
4537791,-489,1272,371,853,1300,307
4537808,-470,1075,379,852,1215,251
4537824,-535,1208,379,849,1198,233
4537840,-518,1143,374,851,1150,183
4537858,-547,1084,376,841,1083,160
4537874,-535,1064,381,835,1035,155
4537892,-525,1076,374,843,998,124
4537907,-510,1049,373,829,941,73
4537925,-507,1030,371,832,902,64
4537941,-531,976,371,826,860,27
4537958,-537,939,368,825,789,-3
4537989,-533,881,366,827,671,-11
4538006,-524,809,368,826,600,-37
4538025,-536,623,371,821,432,-64
4538041,-539,475,367,832,330,-69
4538058,-552,382,369,798,251,-77
4538073,-568,228,376,817,142,-58
4538105,-600,-28,382,828,-93,426
4538122,-624,-175,381,826,-206,506
4538140,-629,-315,382,829,-363,495
4538157,-651,-435,390,821,-462,432
4538173,-652,-522,378,815,-550,396
4538190,-657,-571,378,809,-626,368
4538222,-691,-628,379,800,-783,261
4538239,-718,-660,373,795,-828,217
4538256,-737,-671,375,790,-884,166
4538273,-750,-690,377,793,-913,128
4538291,-792,-703,384,795,-940,84
4538307,-817,-689,379,795,-969,23
4538338,-852,-675,373,781,-983,-36
4538356,-858,-653,387,789,-1007,-60
4538371,-884,-664,384,779,-1032,-94
4538389,-897,-657,384,779,-1038,-93
4538406,-901,-615,374,783,-1026,-94
4538423,-928,-603,386,781,-1079,-93
4538454,-995,-605,381,781,-1040,-126
4538472,-1028,-576,376,774,-1026,-136
4538489,-1057,-569,379,789,-988,-124
4538505,-1100,-557,384,787,-1001,-130
4538522,-1123,-575,382,780,-1033,-156
4538540,-1120,-540,376,774,-992,-136
4538571,-1105,-546,376,771,-920,-156
4538588,-1102,-537,378,767,-877,-179
4538605,-1150,-559,379,777,-912,-175
4538622,-1183,-533,382,777,-748,-188
4538639,-1232,-486,381,775,-689,-202
4538655,-1215,-398,398,780,-581,-213
4538688,-1180,-214,383,779,-368,-214
4538705,-1198,-67,389,789,-221,-150
4538722,-1158,202,389,804,-75,-24
4538753,-1161,714,375,809,3,46
4538771,-1155,867,389,803,7,-1
4538803,-1126,1037,396,802,26,-22
4538821,-1143,969,400,810,75,-14
4538838,-1128,1038,397,817,176,35
4538855,-1114,993,395,815,166,17
4538872,-1073,859,381,808,40,-33
4538888,-1047,937,380,812,173,-20
4538905,-987,1151,378,823,267,5
4538936,-1052,1010,376,815,253,-140
4538955,-951,1083,378,816,279,-29
4538970,-1015,1234,378,809,655,-162
4538988,-987,1153,375,820,666,-119
4539004,-957,1059,376,805,764,-232
4539021,-1070,1219,362,801,871,-308
4539054,-973,1380,356,804,1307,-275
4539070,-975,1510,364,810,1219,-189
4539087,-975,1365,374,814,1305,-279
4539104,-930,1652,376,819,1456,-226
4539121,-902,1614,379,811,1409,-210
4539138,-931,1602,375,822,1374,-184
4539154,-940,1630,378,814,1389,-206
4539186,-949,1551,374,816,1277,-287
4539204,-970,1486,368,820,1160,-322
4539220,-957,1282,370,825,926,-317
4539237,-968,1071,375,827,708,-369
4539254,-978,838,371,820,497,-410
4539271,-982,579,377,829,232,-445
4539287,-970,323,377,811,-12,-448
4539303,-978,32,374,812,-186,-462
4539320,-1023,-247,375,792,-345,-496
4539337,-1018,-393,374,803,-409,-377
4539354,-1013,-507,374,800,-523,-280
4539371,-992,-541,378,798,-598,-229
4539388,-986,-582,370,797,-701,-275
4539418,-971,-583,374,811,-728,-248
4539435,-955,-563,376,806,-718,-271
4539452,-1001,-614,370,797,-776,-352
4539470,-1013,-637,375,767,-797,-399
4539486,-1003,-624,373,766,-814,-428
4539502,-1044,-655,374,767,-883,-503
4539519,-1041,-669,377,761,-872,-520
4539536,-1029,-644,376,762,-861,-531
4539553,-1032,-649,375,765,-876,-563
4539570,-999,-620,374,767,-843,-553
4539586,-1017,-656,374,760,-873,-594
4539605,-1009,-627,376,764,-846,-575
4539620,-994,-635,365,762,-894,-595
4539637,-1009,-617,371,759,-888,-595
4539668,-977,-566,376,765,-848,-588
4539685,-971,-555,375,763,-846,-600
4539703,-931,-520,373,763,-812,-586
4539719,-923,-477,369,763,-788,-592
4539736,-911,-438,364,763,-770,-595
4539752,-894,-425,372,761,-779,-600
4539785,-886,-401,367,751,-750,-618
4539803,-890,-359,362,752,-741,-624
4539820,-881,-352,363,752,-730,-596
4539839,-886,-293,366,746,-651,-633
4539853,-881,-289,365,743,-653,-626
4539871,-840,-231,370,745,-631,-627
4539901,-846,-191,370,753,-559,-621
4539919,-799,-118,372,737,-423,-567
4539935,-837,-107,372,740,-442,-600
4539952,-810,-22,371,737,-325,-584
4539969,-809,37,372,738,-284,-582
4539985,-832,65,370,758,-254,-621
4540002,-811,156,372,779,-87,-610
4540035,-812,284,366,779,23,-630
4540051,-769,470,367,790,196,-569
4540068,-729,495,368,789,176,-388
4540085,-722,549,359,793,160,-334
4540102,-700,671,357,796,373,-256
4540118,-685,707,359,796,353,-233
4540152,-647,903,355,796,449,-163
4540168,-590,892,345,797,481,-11
4540185,-592,861,360,808,473,95
4540201,-504,991,361,834,532,394
4540218,-507,1180,362,831,873,391
4540235,-537,1148,363,843,722,498
4540267,-722,1317,363,862,970,632
4540284,-759,1291,356,868,913,621
4540302,-797,1354,358,892,1034,634
4540319,-762,1568,356,911,1209,694
4540335,-746,1515,348,904,1284,630
4540351,-799,1477,347,905,1153,532
4540400,-739,1576,350,903,1312,432
4540418,-764,1559,347,891,1254,364
4540434,-767,1533,340,893,1303,226
4540451,-755,1528,346,887,1337,108
4540468,-752,1531,345,885,1313,93
4540484,-744,1543,350,881,1344,-35
4540501,-719,1567,346,872,1277,-33
4540518,-771,1509,350,869,1298,-158
4540534,-733,1520,348,871,1302,-157
4540552,-750,1516,349,860,1319,-198
4540568,-742,1530,344,857,1257,-211
4540584,-734,1485,347,857,1196,-251
4540600,-751,1395,349,861,1115,-307
4540633,-742,1197,350,863,873,-352
4540650,-742,1029,353,858,715,-389
4540667,-730,857,350,862,525,-411
4540683,-724,696,352,857,344,-439
4540700,-694,464,348,862,159,-443
4540717,-690,291,350,850,63,-452
4540749,-681,18,352,854,-75,-470
4540766,-656,-58,348,857,-151,-466
4540784,-663,-187,358,866,-345,-486
4540801,-664,-204,350,862,-429,-511
4540818,-657,-255,353,859,-509,-534
4540834,-666,-309,353,849,-578,-547
4540865,-683,-442,365,849,-700,-607
4540882,-653,-444,349,847,-727,-598
4540900,-653,-474,349,849,-761,-604
4540916,-643,-477,351,842,-807,-626
4540933,-635,-494,348,837,-884,-628
4540950,-630,-474,349,841,-898,-628
4540981,-625,-479,348,836,-986,-668
4540999,-627,-477,348,843,-1035,-687
4541016,-581,-396,348,839,-1054,-657
4541033,-562,-347,348,843,-1009,-633
4541050,-561,-299,351,836,-1011,-678
4541067,-551,-280,350,840,-960,-682
4541098,-522,-213,352,842,-882,-720
4541115,-522,-202,359,847,-862,-758
4541133,-503,-185,362,847,-818,-746
4541149,-523,-213,361,836,-839,-792
4541166,-509,-188,362,826,-785,-782
4541182,-509,-198,364,816,-749,-809
4541214,-505,-148,365,823,-622,-846
4541231,-523,-159,357,817,-589,-854
4541248,-531,-88,360,823,-506,-869
4541265,-537,-68,356,822,-465,-885
4541282,-515,43,358,823,-344,-886
4541299,-500,159,347,822,-271,-882
4541332,-484,295,344,826,-138,-904
4541349,-469,385,361,840,-85,-937
4541365,-484,466,348,843,-55,-952
4541381,-478,544,355,835,1,-985
4541399,-454,668,347,844,43,-975
4541415,-481,728,353,830,62,-1010
4541447,-407,852,357,844,96,-995
4541465,-458,806,357,848,85,-1054
4541482,-407,937,360,852,125,-1010
4541498,-376,881,362,856,159,-994
4541515,-418,751,365,852,147,-1112
4541532,-324,1055,365,864,263,-988
4541564,-381,1199,361,858,421,-1077
4541581,-339,1384,356,857,549,-1050
4541598,-334,1416,350,860,614,-1042
4541616,-401,1371,354,856,562,-1106
4541631,-327,1556,348,869,849,-1025
4541648,-347,1399,350,858,781,-1064
4541665,-322,1579,348,868,892,-936
4541681,-311,1601,350,871,954,-864
4541698,-384,1571,346,878,913,-782
4541715,-312,1563,344,880,991,-678
4541732,-368,1636,345,893,988,-735
4541749,-351,1512,349,886,1043,-785
4541766,-354,1570,347,897,995,-813
4541797,-337,1594,341,898,974,-837
4541814,-355,1528,347,903,902,-867
4541831,-369,1489,357,890,843,-900
4541847,-385,1412,353,901,763,-938
4541864,-305,1420,354,899,787,-880
4541881,-254,1376,346,906,808,-845
4541913,-219,1317,350,906,768,-881
4541931,-203,1288,350,902,829,-900
4541946,-218,1206,347,906,810,-953
4541963,-195,1161,343,899,879,-929
4541981,-211,1123,345,910,812,-970
4541997,-184,1101,348,899,822,-981
4542029,-191,1071,349,893,725,-1035
4542047,-180,1054,344,902,664,-1057
4542064,-207,976,352,896,589,-1077
4542081,-184,958,351,897,608,-1083
4542097,-224,895,350,903,501,-1125
4542113,-242,819,356,898,460,-1176
4542145,-277,662,362,890,462,-1199
4542162,-290,628,349,899,541,-1148
4542180,-279,585,360,899,512,-1129
4542197,-275,596,354,893,505,-1153
4542213,-301,556,355,901,496,-1176
4542230,-310,510,354,890,466,-1203
4542262,-390,362,350,881,314,-1332
4542279,-408,392,347,880,330,-1354
4542297,-403,351,353,872,287,-1371
4542313,-418,347,354,863,223,-1387
4542330,-410,357,352,860,277,-1370
4542346,-478,277,351,854,187,-1431
4542380,-472,318,353,851,158,-1434
4542397,-396,395,357,851,232,-1349
4542413,-276,511,350,861,306,-1219
4542430,-243,596,357,862,324,-1184
4542446,-280,585,360,855,333,-1204
4542463,-331,537,354,854,235,-1244
4542495,-423,452,348,845,162,-1353
4542513,-451,412,355,841,108,-1379
4542528,-485,356,349,834,40,-1413
4542546,-502,358,360,831,-29,-1456
4542562,-512,313,356,824,-63,-1469
4542579,-515,322,363,824,-97,-1506
4542611,-376,437,353,824,6,-1376
4542628,-290,529,354,828,149,-1275
4542645,-288,528,350,835,238,-1252
4542662,-308,540,359,829,271,-1284
4542679,-313,592,346,825,247,-1306
4542696,-333,528,360,831,204,-1333
4542713,-384,529,361,832,124,-1386
4542744,-490,372,359,821,-29,-1491
4542761,-511,358,360,818,-68,-1521
4542778,-540,308,362,816,-133,-1545
4542795,-559,262,355,812,-198,-1584
4542811,-567,291,353,808,-187,-1580
4542828,-574,283,358,811,-232,-1600
4542861,-541,323,356,801,-229,-1556
4542878,-543,303,349,794,-233,-1570
4542895,-523,332,353,802,-241,-1538
4542911,-436,426,357,805,-103,-1446
4542929,-328,513,361,811,-8,-1309
4542945,-317,506,358,815,29,-1285
4542963,-376,475,358,807,-51,-1356
4542993,-477,367,355,794,-188,-1440
4543011,-522,309,360,782,-277,-1492
4543031,-538,274,359,779,-328,-1500
4543045,-560,261,366,778,-352,-1502
4543061,-567,246,364,780,-394,-1516
4543079,-570,249,362,777,-375,-1508
4543110,-419,391,361,776,-283,-1366
4543126,-317,497,353,773,-207,-1259
4543144,-323,540,347,768,-260,-1269
4543163,-388,468,351,758,-378,-1368
4543178,-452,331,345,760,-472,-1427
4543195,-497,279,351,760,-518,-1462
4543211,-535,248,359,759,-545,-1486
4543243,-528,234,358,761,-578,-1468
4543260,-541,208,347,756,-597,-1470
4543277,-524,221,352,753,-565,-1446
4543295,-525,208,356,761,-583,-1442
4543310,-513,256,345,758,-550,-1398
4543327,-441,355,350,766,-481,-1366
4543344,-302,449,359,774,-326,-1191
4543377,-340,412,354,783,-320,-1198
4543394,-396,327,340,784,-375,-1246
4543410,-466,206,345,775,-462,-1293
4543427,-485,156,353,769,-504,-1318
4543444,-500,124,358,765,-564,-1323
4543460,-523,89,345,767,-634,-1337
4543477,-537,85,353,761,-660,-1349
4543509,-532,73,349,768,-699,-1321
4543526,-525,60,343,768,-679,-1317
4543543,-531,64,346,766,-728,-1302
4543560,-469,119,348,774,-681,-1260
4543576,-358,303,341,788,-535,-1127
4543593,-297,332,348,791,-497,-1022
4543626,-413,223,351,790,-588,-1140
4543643,-453,167,347,787,-645,-1199
4543660,-503,112,355,778,-702,-1255
4543676,-497,127,355,782,-694,-1252
4543692,-513,96,351,791,-719,-1258
4543710,-510,75,350,786,-716,-1251
4543742,-489,54,356,784,-733,-1234
4543760,-440,111,352,792,-703,-1198
4543776,-306,231,350,791,-592,-1058
4543793,-245,316,355,799,-545,-979
4543809,-246,318,348,803,-533,-989
4543827,-315,237,351,806,-610,-1046
4543859,-418,128,351,808,-702,-1162
4543876,-421,128,348,801,-733,-1167
4543892,-415,129,354,809,-760,-1166
4543909,-448,111,353,796,-795,-1186
4543927,-441,86,348,804,-780,-1169
4543942,-444,67,356,808,-790,-1177
4543975,-315,233,358,823,-635,-1041
4543992,-200,306,352,833,-586,-901
4544008,-242,292,356,823,-634,-976
4544026,-324,223,349,824,-704,-1048
4544042,-355,173,353,817,-749,-1078
4544059,-369,141,358,810,-775,-1094
4544091,-386,105,355,815,-802,-1096
4544109,-380,91,354,807,-802,-1065
4544125,-405,94,359,807,-816,-1054
4544142,-402,104,363,811,-816,-1050
4544159,-389,113,361,815,-820,-1016
4544175,-321,171,358,826,-745,-905
4544207,-135,378,360,843,-525,-595
4544225,-157,379,365,829,-597,-609
4544242,-187,393,362,823,-603,-617
4544258,-253,334,364,819,-676,-666
4544274,-321,246,365,823,-697,-686
4544291,-357,171,367,814,-722,-724
4544358,-388,111,367,798,-789,-654
4544374,-406,99,368,808,-800,-657
4544391,-335,126,369,814,-745,-590
4544408,-247,236,368,817,-628,-448
4544424,-180,305,357,827,-540,-295
4544441,-176,371,361,835,-493,-181
4544473,-241,354,362,833,-522,-120
4544491,-279,335,357,827,-591,-141
4544507,-381,275,356,825,-644,-244
4544524,-419,221,358,812,-678,-276
4544541,-457,158,356,819,-700,-289
4544558,-462,146,361,805,-724,-290
4544590,-436,127,365,796,-752,-293
4544608,-339,146,371,792,-773,-309
4544624,-311,153,362,790,-780,-315
4544641,-301,144,368,788,-780,-300
4544657,-301,114,364,792,-778,-277
4544674,-301,132,363,790,-784,-266
4544706,-218,292,357,790,-776,-153
4544723,-93,430,356,795,-614,-10
4544740,-83,483,364,794,-481,6
4544758,-88,485,359,790,-494,-28
4544774,-185,415,352,774,-599,-145
4544790,-241,346,358,760,-649,-212
4544823,-296,285,360,756,-726,-280
4544840,-312,290,353,743,-751,-301
4544857,-323,268,353,746,-782,-323
4544874,-321,249,353,738,-800,-317
4544890,-324,241,347,739,-831,-339
4544907,-317,216,354,731,-842,-328
4544939,-278,230,347,723,-877,-357
4544956,-181,341,351,735,-795,-253
4544973,-65,425,337,738,-656,-135
4544989,-76,434,344,743,-637,-126
4545006,-119,412,353,743,-676,-173
4545023,-163,308,348,734,-749,-235
4545055,-233,170,343,739,-717,-292
4545073,-243,146,349,738,-740,-297
4545090,-260,112,343,737,-780,-330
4545105,-265,105,346,736,-777,-330
4545124,-248,111,347,739,-748,-304
4545141,-184,180,349,737,-632,-244
4545189,-118,202,367,739,-565,-176
4545206,-189,151,359,733,-613,-250
4545223,-224,103,358,733,-656,-275
4545240,-242,88,355,726,-687,-278
4545256,-265,69,343,727,-748,-303
4545273,-284,66,348,726,-768,-321
4545305,-304,27,345,717,-846,-336
4545322,-293,19,349,726,-845,-326
4545339,-283,33,353,730,-886,-316
4545356,-270,137,354,715,-928,-321
4545373,-264,165,353,733,-999,-347
4545389,-280,143,356,732,-1026,-356
4545405,-247,157,350,739,-1026,-341
4545423,-251,143,351,750,-1023,-339
4545443,-212,194,368,756,-982,-293
4545461,-108,282,363,770,-862,-199
4545477,-18,395,359,777,-706,-109
4545496,-41,376,358,774,-717,-129
4545521,-83,308,351,771,-828,-216
4545539,-119,210,359,766,-939,-282
4545555,-128,192,357,767,-932,-297
4545572,-154,151,358,768,-951,-294
4545589,-150,147,363,763,-968,-293
4545605,-156,142,360,764,-960,-290
4545621,-154,118,360,759,-981,-289
4545639,-179,87,357,756,-979,-293
4545657,-157,89,362,748,-964,-276
4545675,-176,64,366,736,-955,-280
4545704,-153,89,365,734,-956,-257
4545722,-85,183,357,734,-901,-180
4545738,31,304,367,732,-792,-37
4545755,60,333,367,744,-693,17
4545787,22,297,366,736,-704,-17
4545804,-18,244,362,728,-736,-81
4545822,-62,173,368,719,-789,-178
4545840,-128,121,360,707,-853,-214
4545854,-177,87,357,702,-892,-283
4545873,-191,68,358,707,-902,-289
4545903,-212,25,351,700,-892,-326
4545921,-206,49,355,699,-884,-326
4545938,-229,28,366,694,-933,-369
4545955,-232,31,366,694,-906,-383
4545971,-253,-6,361,700,-906,-393
4545988,-242,5,368,687,-903,-387
4546020,-244,31,365,695,-873,-404
4546037,-244,25,371,693,-880,-412
4546055,-252,39,371,695,-854,-407
4546071,-193,141,367,693,-746,-365
4546089,-55,236,368,703,-642,-220
4546105,-15,279,364,713,-502,-157
4546136,-20,273,360,710,-498,-171
4546153,-30,264,361,707,-524,-183
4546172,-27,262,358,704,-538,-181
4546189,-24,272,368,710,-552,-185
4546204,-28,288,358,715,-568,-207
4546221,-78,273,359,712,-595,-275
4546252,-169,186,360,722,-646,-365
4546269,-214,136,365,713,-694,-411
4546287,-255,102,361,714,-741,-463
4546304,-285,90,357,713,-762,-482
4546321,-268,93,360,705,-748,-472
4546337,-305,59,361,700,-780,-503
4546369,-296,87,364,684,-742,-463
4546386,-295,89,364,672,-725,-473
4546404,-282,85,368,667,-719,-465
4546420,-262,121,352,680,-673,-446
4546438,-224,169,352,678,-597,-394
4546454,-88,292,353,698,-480,-257
4546471,-57,345,352,702,-321,-199
4546502,-48,383,351,701,-341,-226
4546520,-59,382,349,693,-355,-252
4546536,-82,377,352,688,-379,-268
4546553,-97,370,357,681,-386,-282
4546571,-106,342,359,680,-406,-301
4546587,-118,361,345,680,-385,-287
4546619,-94,391,344,681,-325,-294
4546636,-87,395,358,679,-297,-299
4546653,-118,372,350,680,-318,-331
4546669,-143,331,349,681,-310,-360
4546687,-172,281,353,682,-315,-395
4546704,-199,248,350,678,-326,-429
4546735,-271,121,347,677,-472,-479
4546752,-272,120,345,683,-477,-481
4546769,-273,107,345,686,-498,-480
4546786,-291,108,358,686,-511,-502
4546803,-275,124,340,690,-511,-507
4546819,-288,117,361,684,-508,-511
4546852,-275,96,353,695,-503,-517
4546869,-293,76,352,694,-501,-532
4546886,-294,79,353,690,-502,-560
4546902,-295,76,352,702,-496,-554
4546919,-295,61,349,698,-477,-566
4546937,-290,62,348,698,-447,-538
4546967,-277,52,352,692,-418,-536
4546985,-260,58,355,680,-386,-523
4547002,-259,54,353,677,-394,-521
4547019,-234,90,345,678,-366,-493
4547035,-219,91,350,677,-340,-485
4547052,-244,94,344,683,-351,-500
4547068,-250,95,345,687,-365,-523
4547085,-275,73,349,696,-403,-563
4547103,-251,87,349,702,-351,-534
4547120,-247,73,352,700,-305,-530
4547136,-261,58,360,697,-338,-554
4547153,-263,54,351,694,-321,-558
4547169,-235,73,359,697,-296,-546
4547200,-248,64,349,690,-326,-564
4547218,-250,73,345,695,-342,-573
4547238,-242,98,351,701,-335,-563
4547251,-262,63,349,684,-339,-576
4547267,-262,86,347,688,-329,-568
4547284,-244,93,348,684,-330,-568
4547302,-247,88,342,689,-357,-571
4547318,-228,98,344,685,-340,-565
4547334,-238,88,344,685,-364,-581
4547351,-219,82,348,694,-381,-578
4547368,-235,76,354,682,-383,-597
4547384,-219,74,363,681,-387,-593
4547401,-226,62,350,680,-399,-596
4547433,-222,95,348,684,-384,-593
4547450,-224,86,354,679,-405,-601
4547467,-214,99,352,690,-386,-594
4547484,-221,92,354,683,-416,-594
4547501,-221,119,348,685,-397,-592
4547518,-221,88,346,697,-404,-584
4547549,-226,150,354,690,-443,-597
4547567,-223,150,355,691,-445,-594
4547584,-210,187,346,692,-442,-574
4547600,-219,178,355,689,-450,-595
4547616,-209,203,344,695,-445,-590
4547634,-211,181,349,696,-448,-592
4547665,-209,184,348,695,-428,-593
4547683,-225,179,351,692,-459,-606
4547700,-193,219,351,700,-444,-588
4547717,-196,243,362,698,-442,-567
4547732,-113,314,350,703,-342,-468
4547750,15,463,347,703,-179,-319
4547783,20,506,347,682,-144,-300
4547801,8,515,349,682,-189,-336
4547816,-85,451,363,689,-255,-414
4547833,-126,394,363,696,-331,-481
4547850,-154,346,362,684,-363,-509
4547867,-162,301,359,678,-366,-539
4547899,-217,231,347,676,-419,-575
4547916,-194,245,349,677,-407,-560
4547932,-162,290,346,683,-367,-517
4547950,-36,365,361,690,-304,-405
4547966,-22,408,347,697,-276,-390
4547983,-95,334,349,692,-340,-495
4547999,-145,300,349,677,-382,-551
4548016,-166,269,349,685,-415,-574
4548033,-188,263,349,681,-464,-597
4548050,-189,248,355,685,-506,-620
4548066,-210,238,354,680,-522,-630
4548083,-217,224,353,679,-535,-635
4548099,-216,224,350,682,-549,-635
4548131,-219,227,359,683,-581,-661
4548150,-233,218,367,685,-595,-655
4548167,-224,219,359,683,-586,-662
4548184,-211,220,357,679,-581,-660
4548201,-227,205,358,681,-580,-658
4548217,-245,184,348,680,-586,-675
4548234,-236,203,344,683,-588,-688
4548264,-228,250,351,681,-577,-691
4548283,-223,258,343,688,-597,-667
4548298,-172,309,343,683,-543,-628
4548316,-82,432,349,702,-341,-525
4548332,15,452,345,695,-261,-401
4548349,5,446,345,698,-239,-412
4548381,1,447,353,696,-281,-449
4548398,-1,453,348,699,-261,-425
4548415,-2,428,350,701,-276,-442
4548432,2,465,355,703,-242,-446
4548448,-10,469,354,704,-268,-454
4548465,5,466,346,704,-206,-440
4548497,-15,453,343,704,-213,-472
4548515,-31,434,343,711,-243,-499
4548532,-68,414,344,708,-304,-533
4548548,-71,378,346,705,-299,-534
4548565,-83,383,338,710,-330,-546
4548581,-93,362,347,715,-315,-563
4548598,-121,322,343,723,-370,-601
4548614,-129,302,352,711,-405,-612
4548631,-145,302,342,729,-422,-619
4548649,-150,288,349,715,-430,-627
4548665,-153,289,344,716,-445,-624
4548683,-155,285,352,723,-446,-627
4548698,-157,279,349,714,-448,-625
4548730,-155,286,347,717,-454,-628
4548747,-156,293,348,714,-449,-618
4548764,-164,285,353,716,-446,-610
4548781,-164,274,350,713,-441,-603
4548797,-188,257,347,707,-478,-630
4548816,-185,268,349,715,-458,-610
4548846,-180,264,347,709,-477,-600
4548863,-183,292,346,699,-448,-595
4548880,-191,288,344,704,-479,-598
4548897,-190,306,348,699,-479,-598
4548914,-189,308,350,701,-501,-609
4548932,-195,325,353,696,-500,-613
4548963,-214,304,344,695,-558,-634
4548980,-220,291,360,694,-565,-645
4548996,-215,308,344,696,-540,-624
4549014,-223,298,360,697,-553,-664
4549030,-237,279,350,680,-552,-657
4549047,-234,296,364,682,-538,-658
4549079,-230,278,348,680,-526,-666
4549096,-241,278,347,670,-511,-684
4549113,-247,244,338,668,-505,-687
4549130,-248,245,348,667,-499,-694
4549149,-256,252,342,668,-499,-720
4549163,-255,238,345,673,-503,-715
4549196,-245,243,350,680,-480,-740
4549214,-247,258,348,681,-471,-744
4549230,-262,226,349,680,-513,-768
4549247,-274,228,347,680,-514,-801
4549264,-273,239,356,695,-507,-813
4549281,-271,264,353,681,-501,-813
4549312,-268,292,350,689,-480,-817
4549328,-292,293,350,689,-497,-847
4549362,-295,311,354,678,-473,-858
4549381,-288,320,352,677,-444,-847
4549400,-313,282,345,676,-464,-833
4549445,-315,297,352,681,-373,-491
4549462,-322,306,352,675,-381,-500
4549480,-339,306,349,673,-385,-502
4549496,-340,311,349,681,-385,-468
4549514,-338,338,349,675,-369,-466
4549529,-332,339,350,689,-353,-529
4549562,-380,319,346,682,-412,-716
4549579,-352,361,356,684,-413,-762
4549596,-360,371,353,677,-397,-829
4549612,-353,374,352,678,-384,-905
4549629,-375,361,357,676,-355,-941
4549645,-385,332,358,680,-395,-950
4549677,-422,309,358,674,-421,-942
4549695,-412,315,358,667,-398,-944
4549711,-433,313,359,666,-421,-976
4549729,-437,313,352,668,-408,-1012
4549745,-444,290,347,660,-412,-1018
4549762,-468,246,348,659,-456,-1037
4549794,-476,233,348,656,-477,-1075
4549811,-501,246,357,658,-465,-1085
4549829,-499,246,364,657,-483,-1109
4549845,-510,244,355,659,-475,-1140
4549863,-507,245,363,658,-464,-1123
4549879,-538,238,362,659,-467,-1129
4549911,-561,264,364,654,-445,-1085
4549929,-573,260,363,649,-454,-1084
4549945,-573,251,366,668,-462,-1071
4549961,-594,244,360,659,-481,-1075
4549978,-594,243,365,675,-473,-1062
4549996,-620,245,366,667,-484,-1070
4550027,-655,225,365,664,-510,-1103
4550045,-682,241,355,668,-501,-1068
4550060,-685,258,358,661,-497,-1043
4550078,-693,244,359,667,-502,-1039
4550094,-710,268,349,647,-497,-1031
4550111,-718,237,352,647,-517,-1039
4550143,-720,256,361,645,-508,-1020
4550161,-708,274,356,646,-503,-1009
4550178,-692,288,339,641,-510,-985
4550194,-683,317,353,643,-527,-961
4550212,-688,328,349,644,-554,-976
4550228,-704,312,361,647,-596,-985
4550259,-692,288,359,651,-605,-957
4550277,-659,308,353,650,-601,-932
4550293,-656,323,351,652,-594,-909
4550311,-656,325,345,652,-605,-897
4550328,-631,329,354,652,-597,-879
4550344,-636,326,358,654,-601,-871
4550360,-648,324,357,647,-602,-874
4550378,-620,321,364,651,-590,-840
4550396,-630,313,360,656,-621,-854
4550412,-623,301,359,647,-633,-849
4550429,-624,294,354,646,-653,-859
4550445,-595,310,350,650,-631,-819
4550463,-571,314,351,666,-629,-808
4550492,-559,325,357,667,-622,-778
4550510,-542,345,354,651,-626,-779
4550526,-539,340,347,661,-597,-752
4550559,-535,342,353,672,-590,-738
4550576,-526,366,346,673,-561,-715
4550594,-503,389,349,672,-565,-685
4550625,-474,406,352,677,-507,-660
4550642,-453,388,352,682,-496,-643
4550660,-416,404,349,681,-445,-606
4550676,-387,398,345,678,-448,-600
4550696,-363,413,349,682,-442,-566
4550710,-347,409,349,681,-440,-553
4550742,-246,506,344,678,-315,-441
4550760,-231,537,351,677,-300,-436
4550775,-253,498,354,675,-311,-444
4550792,-264,475,346,679,-308,-451
4550810,-223,519,351,683,-233,-394
4550826,-232,476,357,680,-255,-387
4550858,-224,463,352,680,-226,-351
4550876,-216,442,351,670,-248,-370
4550892,-205,438,344,675,-266,-349
4550909,-238,402,355,678,-287,-374
4550926,-235,400,353,678,-310,-354
4550943,-240,402,347,695,-293,-353
4550976,-219,410,350,710,-267,-310
4550993,-215,417,351,706,-275,-292
4551009,-191,417,353,707,-278,-278
4551027,-211,395,353,718,-305,-302
4551042,-180,377,355,715,-289,-285
4551059,-204,348,357,706,-324,-303
4551091,-189,372,362,696,-297,-285
4551109,-185,375,346,695,-295,-279
4551126,-193,359,363,683,-307,-274
4551142,-187,387,352,681,-272,-252
4551159,-167,388,349,683,-280,-216
4551175,-180,384,355,681,-264,-221
4551207,-180,393,344,674,-249,-212
4551225,-174,393,342,680,-225,-185
4551241,-180,375,351,683,-225,-182
4551259,-164,367,352,683,-213,-183
4551275,-186,357,354,685,-211,-183
4551292,-199,360,351,685,-199,-184
4551323,-185,349,356,689,-222,-154
4551341,-154,377,348,678,-201,-119
4551358,-178,356,349,678,-246,-122
4551375,-155,369,355,675,-248,-119
4551391,-166,369,355,676,-240,-114
4551409,-177,368,355,680,-250,-122
4551445,-161,375,359,681,-240,-100
4551459,-156,384,362,684,-223,-96
4551475,-150,424,358,685,-206,-71
4551492,-133,428,358,683,-199,-60
4551509,-179,391,354,683,-228,-62
4551526,-199,373,346,686,-249,-69
4551557,-183,375,352,671,-186,-33
4551574,-188,348,351,670,-181,-37
4551590,-183,341,350,671,-182,-38
4551608,-186,325,359,665,-194,-41
4551624,-152,283,361,667,-155,-36
4551641,-150,271,367,668,-153,-33
4551673,-125,261,365,661,-122,-30
4551691,-121,262,363,672,-121,-23
4551708,-116,266,363,671,-130,-27
4551724,-126,247,360,663,-174,-33
4551741,-128,237,363,656,-179,-34
4551758,-155,221,365,665,-205,-33
4551790,-151,219,363,653,-216,-31
4551807,-149,216,352,645,-202,-23
4551823,-151,218,364,658,-174,-12
4551840,-177,175,360,656,-214,-36
4551858,-188,188,361,648,-192,-42
4551874,-188,180,362,642,-185,-37
4551907,-151,218,360,648,-175,6
4551923,-157,197,359,642,-192,3
4551940,-114,276,356,644,-183,39
4551957,-116,271,352,643,-179,46
4551974,-105,319,346,641,-180,55
4551991,-120,313,355,646,-180,59
4552023,-126,295,357,647,-202,59
4552040,-153,278,353,648,-225,40
4552056,-146,292,345,649,-230,62
4552073,-126,313,357,643,-230,62
4552090,-130,301,341,639,-255,62
4552107,-127,311,349,648,-255,64
4552139,-131,315,359,645,-301,61
4552156,-154,309,346,646,-302,47
4552173,-158,301,349,649,-305,44
4552190,-157,296,352,648,-304,36
4552206,-171,294,344,645,-344,27
4552223,-153,308,353,654,-336,32
4552256,-185,265,353,649,-363,5
4552274,-177,263,361,664,-361,-1
4552290,-170,263,355,656,-381,-2
4552307,-168,268,358,654,-381,-1
4552324,-159,291,345,665,-380,3
4552341,-153,290,362,666,-412,2
4552372,-155,305,348,662,-406,7
4552389,-177,313,354,665,-421,9
4552407,-171,325,362,661,-444,7
4552423,-183,325,363,667,-462,7
4552440,-190,337,346,666,-467,1
4552457,-202,329,365,662,-488,3
4552488,-243,305,360,645,-506,-16
4552505,-247,310,360,654,-490,-29
4552522,-245,324,362,649,-464,-24
4552539,-274,317,361,650,-441,-36
4552556,-274,328,360,647,-413,-31
4552572,-283,363,366,662,-378,-31
4552604,-292,419,369,648,-356,-23
4552622,-312,438,365,642,-366,-32
4552638,-308,441,370,648,-364,-18
4552655,-320,477,368,651,-388,-3
4552671,-330,474,369,647,-438,-9
4552688,-329,469,369,647,-377,8
4552720,-317,507,377,661,-389,38
4552737,-325,503,364,657,-428,42
4552754,-349,542,372,663,-457,34
4552772,-363,520,371,646,-485,33
4552787,-389,503,372,657,-482,31
4552805,-393,508,365,645,-481,38
4552837,-419,466,366,648,-476,40
4552855,-425,471,361,651,-444,34
4552870,-428,441,359,642,-451,27
4552887,-412,441,365,648,-440,54
4552905,-410,474,365,650,-438,58
4552921,-447,482,369,661,-459,67
4552953,-517,537,371,665,-430,98
4552971,-602,549,380,665,-435,94
4552987,-333,538,372,663,-411,89
4553004,211,502,387,672,-421,72
4553021,313,523,375,668,-424,58
4553037,415,525,386,672,-411,94
4553069,-63,493,379,665,-468,51
4553087,-484,460,374,670,-481,27
4553103,-476,514,367,673,-467,51
4553121,-458,502,366,677,-505,24
4553137,-424,533,369,677,-505,27
4553154,-447,525,365,676,-516,0
4553187,-392,557,359,679,-450,-3
4553204,536,635,366,686,-398,21
4553220,624,694,364,681,-389,9
4553237,687,775,365,677,-409,-6
4553254,845,924,361,690,-345,34
4553271,1144,1012,365,684,-387,14
4553304,2321,1154,369,685,-385,1
4553320,2638,1109,376,692,-428,-23
4553337,2506,1071,375,700,-441,-30
4553353,2345,1021,382,705,-425,-28
4553370,2197,975,394,703,-420,-28
4553386,2050,906,383,711,-418,-39
4553419,1830,776,377,732,-410,-76
4553436,1723,733,371,730,-392,-96
4553453,1706,731,371,733,-407,-95
4553470,1683,690,387,723,-446,-99
4553487,1655,671,376,721,-453,-93
4553503,1627,636,383,727,-476,-54
4553536,1627,592,393,724,-464,7
4553552,1611,623,381,721,-541,-2
4553570,1588,609,372,730,-583,-3
4553587,1547,598,387,723,-653,0
4553603,1554,577,389,732,-666,-29
4553619,1493,575,386,734,-755,-61
4553652,1449,387,387,736,-943,-163
4553669,1449,177,382,728,-942,-185
4553691,1446,46,387,717,-1059,-151
4553719,1362,-169,382,647,-1087,-130
4553736,1260,-437,381,770,-1085,-194
4553769,1196,-614,385,797,-1032,-204
4553786,1177,-671,387,818,-1080,-205
4553802,1110,-804,389,814,-1175,-240
4553819,1048,-871,386,793,-1252,-224
4553836,1040,-910,389,768,-1326,-228
4553852,1113,-843,387,734,-1308,-132
4553869,1099,-815,395,719,-1435,-182
4553902,1083,-859,393,689,-1514,-222
4553919,1184,-717,389,685,-1362,-108
4553935,1158,-690,378,671,-1438,-135
4553952,1171,-617,377,646,-1419,-132
4553968,1101,-627,361,662,-1472,-251
4553984,1072,-632,369,672,-1361,-237
4554001,1105,-575,363,681,-1255,-227
4554034,1056,-564,361,678,-1089,-270
4554052,1043,-561,363,681,-979,-279
4554069,1045,-579,336,685,-794,-255
4554085,1112,-569,347,688,-597,-199
4554102,1084,-601,353,689,-619,-270
4554118,1078,-572,353,683,-580,-269
4554150,1020,-595,345,668,-654,-331
4554168,1021,-629,344,663,-721,-317
4554185,997,-676,350,641,-803,-322
4554201,959,-697,353,659,-888,-349
4554218,989,-632,350,658,-897,-297
4554235,913,-657,337,632,-1077,-366
4554267,856,-658,336,594,-1336,-375
4554284,804,-768,347,582,-1481,-413
4554301,834,-749,347,582,-1479,-358
4554318,793,-793,347,573,-1592,-395
4554334,782,-812,362,571,-1622,-382
4554351,715,-835,359,571,-1737,-456
4554368,780,-759,354,569,-1619,-367
4554400,728,-745,349,543,-1626,-412
4554417,721,-757,350,527,-1593,-410
4554434,712,-725,347,477,-1563,-415
4554451,693,-724,340,422,-1524,-425
4554468,724,-647,347,420,-1461,-403
4554484,719,-637,344,431,-1329,-419
4554516,656,-608,355,433,-1185,-515
4554533,620,-622,359,432,-983,-555
4554551,596,-613,368,438,-672,-579
4554567,560,-645,369,437,-592,-610
4554584,601,-612,378,441,81,-569
4554601,558,-625,386,454,546,-607
4554632,512,-606,396,460,2106,-680
4554649,495,-592,388,483,3165,-701
4554667,467,-601,390,504,3862,-653
4554683,463,-614,378,517,4294,-661
4554700,438,-650,372,513,4540,-740
4554716,439,-643,383,536,4622,-724
4554749,417,-625,402,554,4900,-941
4554766,407,-642,433,559,4320,-986
4554783,349,-731,453,559,4202,-884
4554801,333,-722,459,556,4385,-762
4554816,373,-642,435,549,4620,-660
4554833,364,-580,401,550,4879,-627
4554866,351,-454,295,505,4887,-564
4554883,347,-292,250,475,4503,-580
4554899,311,-215,207,445,4218,-616
4554916,285,-201,232,455,4019,-685
4554933,230,-144,243,459,3979,-855
4554950,162,-213,337,509,3849,-972
4554982,174,-4,132,389,3806,-930
4555000,129,113,14,331,3817,-947
4555016,96,135,122,397,3722,-980
4555033,36,129,124,382,3675,-1039
4555049,-1,115,142,402,3854,-1061
4555066,-52,26,182,420,4109,-1088
4555098,-90,-24,214,436,4627,-1066
4555115,-123,-52,250,458,4691,-1049
4555133,-159,-92,263,458,4713,-1078
4555149,-147,-101,302,476,4749,-1049
4555165,-194,-116,333,497,4759,-1049
4555182,-252,-210,351,509,4673,-1013
4555214,-386,-505,781,743,4298,-1144
4555232,-478,-759,1086,869,4017,-1240
4555248,-465,-643,929,739,3974,-1235
4555266,-461,-569,912,729,3886,-1176
4555282,-474,-504,831,656,3682,-1137
4555299,-499,-548,942,730,3539,-1128
4555315,-461,-483,756,605,3542,-1054
4555347,-442,-304,639,528,3539,-1037
4555364,-423,-98,412,434,3549,-974
4555381,-426,-89,412,457,3664,-959
4555398,-444,-64,457,497,3817,-989
4555415,-430,-32,463,490,4080,-1026
4555432,-459,-5,461,485,4134,-1049
4555449,-460,-4,427,458,4169,-1086
4555466,-461,72,386,450,4174,-1035
4555482,-434,217,354,426,4187,-854
4555499,-483,262,316,413,4143,-725
4555516,-463,364,228,380,4234,-927
4555532,-516,383,95,310,4462,-874
4555548,-512,445,-23,238,4661,-793
4555565,-498,515,-165,187,4717,-843
4555582,-511,558,-249,144,4714,-961
4555599,-495,613,-316,139,4892,-934
4555616,-505,584,-393,95,4983,-901
4555632,-503,547,-299,165,4914,-927
4555649,-506,344,-124,270,4807,-1028
4555666,-538,267,1,346,4830,-1049
4555697,-566,171,218,464,4784,-1043
4555714,-595,131,404,566,4760,-1019
4555731,-597,152,463,572,4685,-1012
4555747,-650,71,701,694,4548,-1042
4555764,-651,46,597,600,4468,-1008
4555782,-658,-29,486,527,4464,-996
4555798,-619,231,375,476,4643,-937
4555814,-589,378,340,465,4862,-940
4555832,-549,476,268,434,4960,-943
4555849,-516,488,227,412,4828,-930
4555866,-475,373,199,397,4740,-863
4555882,-449,322,153,370,4653,-815
4555899,-440,309,89,332,4609,-805
4555930,-378,292,118,368,4633,-772
4555947,-354,223,143,392,4636,-674
4555964,-295,201,157,400,4593,-626
4555980,-253,207,207,411,4786,-614
4555998,-243,97,218,408,4823,-618
4556014,-238,64,261,451,4941,-580
4556030,-240,25,273,446,4971,-562
4556047,-240,-7,310,468,5103,-560
4556064,-231,-58,323,485,5316,-555
4556080,-213,-55,339,500,5441,-530
4556097,-237,-67,350,506,5409,-544
4556114,-330,14,359,505,5394,-605
4556130,-311,86,342,504,5489,-612
4556147,-357,92,369,515,5327,-665
4556165,-344,126,358,488,4730,-682
4556180,-383,186,305,439,4675,-690
4556197,-443,191,274,433,4725,-697
4556215,-451,218,277,429,4665,-704
4556231,-480,209,304,436,4414,-781
4556247,-478,201,313,434,4098,-791
4556265,-474,210,332,430,3759,-817
4556281,-498,190,350,436,3499,-860
