TIME,AF3,F7,F3,F4,F8,AF4
1674100,-33,595,367,30,-131,-707
1674118,8,599,390,22,-202,-789
1674135,27,656,364,3,-153,-754
1674151,55,657,365,10,-173,-724
1674168,-41,637,335,-26,-196,-787
1674200,27,663,347,-20,-188,-738
1674217,46,671,354,9,-117,-703
1674234,34,695,354,7,-131,-675
1674251,64,722,350,1,-173,-725
1674268,57,720,350,0,-200,-731
1674284,27,716,341,2,-206,-758
1674316,40,717,349,12,-206,-802
1674334,49,705,350,10,-227,-710
1674350,35,742,353,19,-217,-822
1674367,51,721,323,16,-168,-664
1674384,-1,679,325,13,-231,-815
1674400,-5,696,321,18,-212,-750
1674432,71,682,353,24,-203,-614
1674449,135,727,360,19,-286,-656
1674466,102,749,350,14,-322,-634
1674483,107,747,369,26,-364,-706
1674500,58,748,349,11,-396,-691
1674517,15,725,321,17,-434,-718
1674549,-55,686,322,22,-486,-739
1674566,-12,691,330,13,-452,-777
1674584,-76,674,312,15,-477,-754
1674600,-25,704,324,18,-454,-741
1674617,-85,688,301,19,-481,-775
1674634,-43,696,315,23,-452,-736
1674665,-89,703,317,14,-439,-734
1674682,-75,728,325,23,-430,-718
1674700,-62,701,319,21,-402,-635
1674717,-101,706,317,18,-474,-801
1674733,-55,716,319,22,-386,-599
1674749,-96,703,334,15,-421,-738
1674782,-151,692,280,19,-435,-693
1674799,-214,684,250,15,-395,-689
1674815,-97,726,280,36,-433,-656
1674833,-221,706,275,24,-461,-714
1674850,-167,722,277,19,-457,-677
1674866,-191,788,262,29,-437,-680
1674898,-201,777,236,12,-482,-702
1674916,-164,768,264,23,-361,-646
1674933,-197,771,252,15,-412,-622
1674949,-158,746,274,31,-402,-688
1674966,-187,730,274,22,-406,-671
1674982,-184,744,259,29,-379,-628
1675015,-184,748,234,44,-361,-652
1675033,-173,784,241,52,-336,-564
1675049,-133,763,229,47,-294,-593
1675066,-145,789,268,66,-286,-516
1675082,-243,748,237,59,-329,-605
1675099,-211,762,231,61,-320,-562
1675131,-219,719,253,95,-174,-479
1675148,-243,664,241,103,-181,-512
1675166,-273,608,255,112,-146,-563
1675182,-234,667,271,102,-49,-390
1675199,-227,660,334,107,-58,-435
1675216,-267,662,289,102,-99,-541
1675247,-218,738,324,115,-10,-412
1675264,-221,714,308,120,-5,-418
1675281,-265,694,299,135,-39,-443
1675298,-291,704,285,127,-18,-401
1675315,-203,753,312,117,45,-388
1675332,-128,761,337,125,-7,-403
1675349,-228,681,314,127,8,-424
1675365,-182,673,320,123,14,-385
1675382,-214,640,313,126,-14,-455
1675398,-199,664,356,123,65,-421
1675415,-213,648,337,138,61,-408
1675432,-199,657,319,135,21,-443
1675449,-213,661,344,160,21,-417
1675465,-194,656,345,139,10,-466
1675483,-183,626,342,144,-67,-385
1675499,-206,626,337,139,4,-524
1675516,-218,623,343,145,-59,-519
1675532,-198,607,328,141,31,-491
1675549,-252,633,323,125,-40,-524
1675565,-229,584,331,136,-37,-527
1675582,-135,681,356,146,-71,-456
1675599,-161,665,356,139,-94,-488
1675616,-169,693,338,144,-203,-462
1675633,-191,685,352,115,-130,-552
1675649,-178,687,349,145,-123,-489
1675665,-228,694,315,128,-110,-598
1675682,-253,647,321,133,-216,-550
1675700,-256,616,308,125,-223,-644
1675716,-257,653,324,135,-197,-569
1675732,-176,642,325,147,-196,-620
1675749,-220,666,308,143,-224,-590
1675766,-206,609,327,133,-234,-648
1675783,-187,689,290,131,-137,-579
1675798,-204,686,298,127,-198,-605
1675815,-239,670,325,127,-195,-563
1675833,-306,645,308,133,-226,-669
1675850,-236,674,273,116,-169,-554
1675866,-291,621,300,146,-264,-641
1675883,-314,663,278,130,-211,-601
1675899,-235,653,307,149,-213,-590
1675916,-295,655,321,131,-216,-564
1675932,-239,675,321,150,-218,-617
1675949,-241,681,340,151,-192,-572
1675966,-251,684,326,149,-233,-570
1675982,-229,698,333,151,-262,-613
1676000,-211,728,330,140,-271,-610
1676016,-244,723,343,142,-282,-624
1676032,-198,718,330,147,-237,-594
1676062,-250,720,322,152,-276,-610
1676079,-239,730,344,155,-258,-687
1676097,-226,721,313,153,-259,-622
1676114,-289,682,336,156,-303,-721
1676130,-209,720,356,154,-238,-616
1676146,-268,655,332,156,-316,-696
1676163,-252,719,347,161,-239,-662
1676180,-221,680,335,157,-294,-637
1676196,-250,707,336,159,-232,-639
1676213,-229,659,339,154,-329,-710
1676230,-278,718,355,155,-257,-665
1676247,-197,717,382,170,-249,-631
1676264,-186,743,376,157,-242,-634
1676281,-234,695,357,153,-263,-663
1676296,-200,720,388,158,-261,-624
1676313,-104,756,422,173,-221,-595
1676330,-150,703,418,171,-210,-545
1676347,-89,717,379,167,-156,-535
1676364,-97,677,376,168,-168,-559
1676379,-123,670,347,157,-164,-614
1676397,-125,665,345,162,-129,-564
1676414,-134,654,336,163,-182,-632
1676430,-175,641,333,167,-148,-648
1676447,-149,668,360,161,-147,-622
1676463,-167,616,321,152,-203,-720
1676480,-185,625,355,156,-234,-651
1676496,-227,651,347,163,-122,-663
1676513,-138,650,347,161,-166,-636
1676530,-155,648,387,170,-158,-669
1676547,-185,652,350,156,-146,-633
1676564,-146,661,384,153,-117,-656
1676580,-125,665,388,158,-169,-588
1676596,-173,653,366,142,-118,-674
1676613,-147,665,388,156,-131,-670
1676630,-184,651,372,150,-162,-647
1676647,-140,684,383,153,-107,-607
1676663,-185,678,381,147,-110,-651
1676680,-229,662,361,145,-123,-630
1676697,-192,661,355,147,-149,-691
1676714,-265,651,316,146,-127,-688
1676730,-238,661,234,133,-138,-688
1676761,-207,650,210,133,-143,-706
1676778,-155,662,233,139,-117,-673
1676795,-181,666,243,137,-86,-706
1676812,-168,674,244,142,-100,-671
1676828,-186,657,243,143,-100,-720
1676845,-161,661,256,147,-118,-778
1676862,-197,617,248,149,-155,-723
1676878,-162,641,252,143,-93,-748
1676894,-168,622,281,155,-70,-709
1676911,-178,657,272,139,-121,-814
1676928,-191,628,252,136,-98,-702
1676945,-232,607,259,144,-160,-806
1676961,-196,636,280,155,-107,-741
1676978,-199,630,278,153,-137,-807
1676994,-196,660,315,158,-98,-655
1677011,-224,585,295,158,-160,-797
1677028,-251,608,295,149,-131,-757
1677044,-223,609,305,148,-118,-716
1677062,-249,637,304,158,-134,-732
1677078,-235,612,315,159,-135,-728
1677095,-222,624,314,162,-117,-678
1677111,-242,592,301,166,-140,-719
1677128,-228,599,300,151,-137,-687
1677144,-179,632,323,172,-189,-742
1677162,-203,639,317,153,-131,-694
1677178,-218,599,292,154,-219,-749
1677195,-210,626,308,157,-182,-726
1677211,-182,659,316,159,-179,-649
1677228,-230,644,303,164,-192,-761
1677244,-201,659,326,157,-141,-616
1677264,-240,628,301,161,-184,-751
1677278,-177,624,321,169,-146,-649
1677294,-238,634,330,169,-219,-719
1677312,-177,654,330,154,-139,-588
1677328,-202,637,340,173,-93,-627
1677345,-211,553,319,165,-76,-550
1677362,-247,572,322,162,-86,-662
1677378,-154,625,386,172,-59,-487
1677395,-175,594,323,157,-78,-526
1677411,-252,525,314,150,-109,-602
1677428,-287,579,313,148,-172,-586
1677445,-186,666,362,172,-40,-524
1677462,-293,576,313,152,-107,-574
1677478,-290,601,324,175,-89,-566
1677496,-257,627,367,183,-74,-549
1677512,-262,654,342,169,-101,-501
1677528,-333,591,302,161,-175,-576
1677545,-235,640,359,178,-38,-482
1677575,-285,589,352,175,-71,-497
1677591,-280,602,337,167,-51,-473
1677609,-305,587,358,171,-37,-513
1677626,-305,585,327,167,-104,-512
1677643,-262,616,335,176,-31,-480
1677660,-304,609,356,172,-79,-551
1677691,-270,657,337,174,-51,-559
1677709,-262,631,340,174,-104,-553
1677725,-275,671,354,183,-119,-508
1677742,-282,661,359,180,-53,-495
1677759,-274,657,345,182,-102,-447
1677776,-338,625,361,180,-87,-551
1677808,-280,653,378,177,-52,-521
1677825,-277,660,384,197,-29,-426
1677842,-302,650,399,199,-78,-408
1677859,-241,659,396,202,-6,-450
1677876,-247,652,417,208,-53,-431
1677893,-234,663,411,209,-60,-314
1677909,-218,625,418,210,-60,-486
1677926,-188,681,401,207,-26,-304
1677942,-173,678,398,219,-55,-411
1677958,-193,725,383,210,-53,-388
1677975,-199,722,402,217,-61,-333
1677992,-184,723,380,209,-42,-385
1678008,-214,720,387,198,-113,-416
1678025,-218,708,372,194,-124,-412
1678042,-242,694,355,199,-73,-475
1678059,-268,692,356,188,-164,-511
1678075,-224,716,377,201,-103,-426
1678092,-240,690,346,206,-163,-515
1678108,-251,675,351,189,-152,-467
1678126,-242,699,358,203,-154,-520
1678142,-174,719,389,194,-93,-429
1678160,-187,712,385,194,-79,-469
1678176,-141,704,372,187,-199,-422
1678193,-222,702,375,189,-208,-451
1678209,-152,723,393,198,-110,-503
1678227,-165,707,369,187,-194,-447
1678244,-195,651,380,200,-142,-533
1678273,-227,645,365,189,-150,-556
1678291,-177,698,385,194,-143,-455
1678307,-213,681,361,181,-267,-634
1678325,-193,688,345,180,-263,-516
1678341,-124,750,376,187,-207,-585
1678357,-191,703,345,190,-339,-597
1678375,-103,710,359,194,-261,-638
1678391,-198,670,336,187,-295,-595
1678408,-158,687,358,198,-284,-656
1678424,-107,710,372,195,-294,-533
1678441,-168,689,326,187,-305,-610
1678458,-167,686,375,200,-320,-641
1678475,-178,684,336,184,-365,-676
1678492,-110,699,375,192,-317,-560
1678522,-100,694,374,190,-273,-566
1678540,-118,648,364,197,-393,-661
1678557,-169,671,326,186,-283,-688
1678573,-91,644,365,198,-360,-652
1678590,-143,662,344,188,-349,-683
1678607,-90,714,358,194,-282,-618
1678623,-61,675,376,189,-290,-635
1678640,-75,694,352,187,-286,-593
1678657,-87,685,353,187,-290,-612
1678674,-50,684,364,192,-239,-578
1678690,-84,689,357,198,-278,-670
1678707,-101,676,380,185,-297,-566
1678724,-59,672,382,206,-198,-632
1678740,-26,642,384,199,-149,-493
1678757,-36,614,392,215,-82,-562
1678773,-59,627,401,207,-106,-448
1678790,-11,602,386,217,-89,-534
1678807,-61,641,382,208,-63,-453
1678824,-82,596,386,213,-73,-562
1678840,-54,600,386,211,-141,-521
1678872,-55,572,389,216,-62,-553
1678890,-92,537,359,197,-98,-610
1678906,-56,578,395,204,-13,-534
1678923,-88,543,366,201,-103,-637
1678940,-46,566,398,207,-14,-509
1678956,-33,570,385,214,-75,-609
1678989,-69,564,384,210,-23,-554
1679006,-77,529,386,206,-86,-603
1679023,-125,514,350,206,-109,-608
1679039,-78,543,399,220,-22,-471
1679056,-83,537,382,215,34,-517
1679073,-91,503,386,222,-2,-492
1679089,-111,520,383,226,104,-478
1679106,-63,540,394,236,33,-454
1679123,-48,569,423,225,106,-437
1679139,-68,576,404,238,30,-474
1679156,-72,563,395,218,37,-464
1679172,-82,564,375,233,-12,-497
1679189,-65,596,391,227,49,-457
1679207,-56,570,417,232,-13,-482
1679222,-98,569,383,227,35,-509
1679239,-29,556,408,220,-53,-482
1679257,-26,600,414,225,7,-466
1679273,-36,547,391,209,-12,-494
1679290,-29,570,416,204,30,-439
1679307,-25,571,410,203,-1,-474
1679338,-53,602,412,200,31,-439
1679356,-12,563,418,187,8,-437
1679372,-47,602,404,185,27,-420
1679389,-9,595,415,189,43,-414
1679405,-85,577,397,187,-8,-465
1679422,-30,589,425,192,39,-371
1679454,-9,668,446,191,-12,-348
1679472,-40,670,418,203,-81,-469
1679489,-17,696,445,198,-51,-332
1679504,-70,688,419,195,-90,-444
1679521,-26,719,433,200,-76,-359
1679538,-32,704,440,202,-79,-405
1679555,-39,732,442,209,-54,-372
1679572,-18,706,444,202,-95,-390
1679588,-78,676,417,201,-113,-415
1679605,-2,700,429,200,-100,-424
1679622,28,713,444,206,-92,-387
1679639,41,725,443,220,-107,-396
1679655,37,718,466,229,-56,-352
1679686,32,694,440,227,-113,-421
1679703,-15,684,442,228,-97,-425
1679720,29,712,450,217,-77,-420
1679738,2,681,438,230,-103,-460
1679755,15,707,449,225,-26,-433
1679771,-10,655,429,221,-136,-509
1679803,-39,639,421,226,-107,-501
1679821,-28,685,443,228,-104,-519
1679838,-24,724,451,241,-186,-538
1679854,-73,679,438,223,-211,-558
1679871,-5,702,450,220,-188,-526
1679887,-50,719,449,230,-203,-610
1679919,-52,698,448,228,-241,-615
1679937,-73,700,427,239,-156,-589
1679954,-12,725,455,236,-141,-537
1679969,-78,719,439,226,-156,-597
1679987,-17,722,439,227,-142,-552
1680004,-86,698,438,226,-160,-630
1680036,-107,650,426,214,-187,-616
1680053,-7,715,447,230,-133,-581
1680070,-34,697,443,231,-188,-579
1680087,-54,679,428,221,-173,-590
1680104,0,725,449,227,-189,-618
1680120,-27,718,433,226,-212,-629
1680152,6,749,459,239,-209,-624
1680170,1,716,446,232,-209,-584
1680186,-4,733,445,230,-191,-634
1680203,-1,717,438,226,-217,-575
1680220,-18,717,451,234,-190,-612
1680237,21,741,451,219,-167,-528
1680254,-9,706,444,230,-193,-635
1680270,-28,703,453,232,-193,-578
1680286,-20,721,446,239,-174,-597
1680304,-11,763,449,230,-169,-512
1680320,24,746,474,235,-249,-641
1680336,27,791,446,233,-268,-585
1680353,41,785,453,224,-290,-628
1680385,32,795,459,224,-260,-557
1680403,-2,766,449,230,-270,-684
1680419,-15,769,448,222,-249,-545
1680436,6,785,443,232,-219,-578
1680452,-47,774,451,234,-289,-592
1680470,-26,785,431,227,-187,-487
1680486,-129,734,402,226,-316,-604
1680503,-75,768,422,238,-248,-512
1680520,-150,728,407,236,-343,-603
1680537,-136,783,410,235,-242,-436
1680554,-184,738,408,229,-314,-572
1680570,-194,729,411,240,-365,-578
1680587,-127,753,410,232,-298,-497
1680618,-133,745,410,249,-340,-607
1680636,-115,770,422,241,-318,-566
1680652,-152,704,418,247,-260,-562
1680669,-131,678,441,245,-176,-534
1680686,-117,691,448,251,-95,-382
1680702,-159,629,439,243,-135,-514
1680734,-129,698,440,252,-66,-464
1680751,-201,642,410,244,-189,-555
1680769,-129,686,415,250,-129,-434
1680785,-197,651,415,249,-157,-528
1680802,-98,704,402,250,-110,-429
1680818,-144,679,407,254,-174,-543
1680836,-120,680,381,254,-169,-450
1680853,-152,627,380,239,-190,-518
1680870,-128,661,389,256,-185,-518
1680886,-120,666,409,254,-150,-472
1680903,-85,680,413,259,-150,-464
1680919,-119,650,417,245,-123,-451
1680936,-89,659,409,243,-168,-477
1680967,-142,623,413,242,-168,-488
1680984,-96,653,380,234,-209,-541
1681000,-117,657,422,238,-173,-507
1681020,-124,652,384,233,-217,-528
1681034,-118,636,386,229,-236,-529
1681051,-120,637,415,238,-234,-521
1681084,-117,628,407,234,-208,-526
1681101,-173,632,415,250,-219,-645
1681118,-99,667,432,250,-139,-481
1681134,-97,653,417,252,-141,-507
1681151,-93,618,425,258,-195,-577
1681168,-70,616,444,256,-103,-462
1681184,-58,660,440,267,-68,-447
1681201,-23,650,436,267,-68,-499
1681218,-60,628,420,270,-66,-468
1681234,-63,629,416,275,-68,-475
1681251,-75,610,419,278,-73,-602
1681268,-67,599,420,278,-122,-527
1681285,-95,595,411,286,-114,-597
1681316,-123,612,395,283,-104,-601
1681333,-138,623,399,284,-168,-643
1681350,-128,632,409,279,-146,-595
1681367,-157,645,411,285,-181,-660
1681384,-122,627,418,280,-136,-559
1681402,-138,625,410,295,-215,-714
1681433,-143,593,386,269,-229,-672
1681450,-166,596,411,271,-188,-621
1681467,-162,599,407,271,-240,-641
1681484,-138,592,430,272,-206,-691
1681500,-157,598,423,277,-256,-648
1681517,-149,593,415,276,-211,-673
1681549,-208,568,415,275,-220,-733
1681566,-114,636,423,270,-205,-616
1681584,-159,596,413,267,-219,-704
1681600,-169,624,418,275,-228,-694
1681617,-153,602,399,283,-243,-657
1681633,-141,631,414,279,-210,-653
1681666,-75,631,440,288,-184,-579
1681683,-56,630,442,289,-261,-635
1681700,-58,631,411,276,-201,-591
1681717,-86,628,443,292,-254,-642
1681733,-57,646,428,288,-192,-617
1681750,-82,626,414,295,-221,-612
1681782,-139,593,399,286,-236,-672
1681799,-77,625,415,284,-231,-653
1681816,-94,634,421,291,-149,-542
1681832,-110,625,410,304,-178,-563
1681849,-117,597,400,295,-251,-721
1681867,-172,575,417,311,-186,-530
1681898,-155,616,398,306,-195,-623
1681916,-63,641,449,311,-101,-520
1681932,-115,598,415,312,-172,-512
1681948,-47,642,406,303,-140,-501
1681965,-99,637,417,308,-165,-556
1681983,-68,600,376,297,-172,-567
1682014,-137,597,377,299,-141,-659
1682032,-114,596,375,307,-151,-675
1682049,-175,570,368,301,-194,-754
1682065,-201,594,350,315,-163,-652
1682081,-196,600,342,312,-186,-661
1682099,-287,558,352,319,-200,-610
1682131,-284,581,354,318,-145,-407
1682148,-304,566,348,326,-216,-579
1682165,-336,493,346,322,-249,-491
1682182,-214,640,421,334,-56,-264
1682199,-213,652,414,331,-89,-317
1682215,-156,679,442,322,-106,-299
1682247,-79,707,373,310,-107,-334
1682267,-52,717,384,312,-162,-500
1682284,-89,694,388,316,-137,-542
1682300,-150,678,384,310,-154,-581
1682317,-156,683,393,302,-193,-620
1682334,-165,663,343,297,-213,-601
1682365,-163,692,362,287,-168,-493
1682382,-264,646,331,287,-276,-606
1682399,-235,673,357,287,-248,-561
1682415,-237,672,373,283,-238,-579
1682431,-213,692,387,290,-234,-603
1682448,-235,656,379,288,-273,-586
1682481,-245,680,413,296,-272,-628
1682498,-223,626,376,283,-288,-612
1682514,-204,658,395,287,-231,-588
1682531,-194,667,394,297,-263,-591
1682548,-192,674,388,294,-240,-554
1682564,-225,657,384,297,-228,-550
1682596,-271,660,359,288,-225,-572
1682614,-215,666,388,283,-251,-528
1682631,-238,654,369,283,-263,-572
1682647,-181,657,391,286,-216,-492
1682663,-236,651,373,283,-301,-568
1682681,-173,683,374,287,-199,-507
1682712,-206,655,400,290,-252,-548
1682730,-212,661,412,284,-228,-559
1682746,-288,623,377,277,-234,-576
1682763,-226,635,386,280,-259,-574
1682780,-267,622,394,283,-238,-613
1682797,-239,639,385,288,-259,-553
1682829,-229,621,403,286,-253,-608
1682847,-263,639,392,282,-236,-589
1682864,-275,615,384,283,-296,-640
1682880,-241,629,391,282,-281,-593
1682897,-224,633,412,283,-228,-616
1682914,-258,629,374,271,-264,-595
1682945,-143,656,414,280,-198,-552
1682963,-180,637,423,277,-192,-489
1682980,-179,627,430,285,-241,-530
1682997,-114,668,435,276,-177,-467
1683013,-199,632,419,278,-180,-418
1683030,-174,620,435,280,-207,-559
1683062,-236,604,420,264,-220,-511
1683079,-212,623,464,276,-172,-531
1683095,-211,627,167,269,-156,-525
1683113,-292,585,75,269,-215,-592
1683129,-255,609,78,272,-176,-523
1683147,-297,621,93,270,-164,-571
1683179,-243,620,118,264,-131,-601
1683196,-291,638,126,282,-130,-569
1683213,-235,648,124,274,-105,-562
1683229,-264,658,141,271,-106,-571
1683245,-276,627,21,277,-115,-603
1683263,-280,632,-14,271,-116,-596
1683294,-302,639,31,273,-144,-668
1683311,-275,661,57,274,-56,-572
1683329,-254,670,92,279,-82,-552
1683346,-187,665,90,279,-55,-523
1683362,-188,708,127,285,-55,-460
1683379,-111,715,185,283,20,-364
1683411,-124,702,195,287,1,-382
1683429,-174,652,197,284,-43,-418
1683446,-156,692,203,284,6,-426
1683463,-219,638,183,271,-9,-456
1683478,-209,637,216,275,-26,-494
1683496,-253,660,209,262,-1,-517
1683527,-246,659,238,268,-16,-567
1683545,-239,659,246,269,-6,-527
1683562,-229,671,261,270,-24,-559
1683578,-205,693,267,272,10,-576
1683595,-267,655,257,271,-37,-603
1683612,-229,667,259,266,-41,-645
1683644,-248,646,284,269,-2,-635
1683661,-243,654,240,270,-48,-667
1683679,-240,633,266,283,-38,-636
1683695,-209,665,273,277,9,-675
1683711,-233,629,294,278,-7,-613
1683728,-222,631,290,278,-63,-678
1683761,-204,653,305,270,-31,-656
1683778,-178,640,308,267,-36,-660
1683794,-157,679,338,279,-30,-636
1683811,-124,650,348,270,-36,-592
1683828,-110,700,354,278,-53,-599
1683844,-132,657,348,275,-44,-626
1683876,-172,659,335,272,-64,-675
1683894,-209,649,322,280,-95,-704
1683910,-178,645,344,279,-96,-697
1683928,-189,690,355,277,-52,-670
1683945,-196,642,330,279,-61,-681
1683961,-217,671,361,281,-56,-713
1683994,-257,646,324,282,-78,-738
1684011,-212,687,322,281,-34,-642
1684028,-259,634,291,270,-99,-754
1684044,-237,653,293,278,-82,-705
1684061,-230,665,310,278,-65,-659
1684078,-265,663,268,282,-53,-697
1684110,-265,658,272,287,-60,-697
1684127,-265,658,272,287,-60,-697
1684144,-265,658,272,287,-60,-697
1684161,-265,658,272,287,-60,-697
1684177,-265,658,272,287,-60,-697
1684194,-265,658,272,287,-60,-697
1684226,-235,702,194,290,-44,-649
1684244,-181,710,197,295,-15,-545
1684260,-177,719,180,293,-68,-614
1684277,-219,721,163,293,-37,-543
1684293,-215,683,168,290,-64,-607
1684310,-191,732,168,298,-25,-545
1684342,-295,678,182,291,-61,-612
1684360,-256,682,185,293,-24,-592
1684376,-319,624,182,298,-35,-638
1684394,-370,580,149,288,-114,-684
1684410,-313,635,196,303,-18,-657
1684426,-342,592,161,299,-45,-639
1684459,-262,643,179,309,-67,-654
1684475,-397,572,118,281,-78,-701
1684493,-273,661,160,302,8,-563
1684509,-391,544,63,278,-153,-735
1684527,-436,599,97,294,-107,-763
1684542,-371,525,50,289,-213,-737
1684575,-464,517,21,304,-261,-808
1684592,-391,573,-28,304,-202,-697
1684609,-449,521,-59,316,-244,-782
1684625,-445,530,-56,340,-282,-825
1684643,-412,548,-12,343,-237,-769
1684660,-394,558,-3,323,-237,-795
1684691,-322,620,3,310,-207,-713
1684709,-336,622,-9,287,-254,-772
1684726,-295,625,0,288,-230,-709
1684743,-333,591,-41,288,-271,-773
1684759,-265,646,1,274,-204,-696
1684776,-255,624,-4,304,-205,-642
1684808,-236,616,23,346,-229,-639
1684825,-140,646,35,347,-169,-518
1684841,-175,616,34,377,-199,-585
1684859,-168,595,10,302,-202,-528
1684876,-134,665,14,286,-149,-503
1684893,-149,617,-3,303,-210,-512
1684925,-154,596,43,390,-178,-489
1684942,-187,605,36,376,-225,-487
1684958,-141,662,56,351,-172,-427
1684975,-146,622,6,299,-201,-437
1684992,-180,619,0,288,-174,-438
1685009,-179,620,4,307,-211,-462
1685040,-140,632,33,285,-200,-443
1685058,-142,591,-18,232,-181,-440
1685075,-186,560,-10,242,-223,-519
1685092,-204,592,-5,252,-235,-467
1685108,-179,616,5,275,-205,-465
1685125,-201,610,3,264,-248,-447
1685157,-126,641,37,279,-154,-354
1685175,-123,642,31,284,-237,-486
1685192,-110,671,34,288,-171,-336
1685207,-148,648,-14,288,-251,-445
1685224,-181,606,-2,291,-263,-479
1685241,-188,666,-1,293,-259,-457
1685274,-186,658,8,310,-224,-473
1685292,-223,598,-9,333,-252,-494
1685308,-195,695,36,345,-195,-453
1685324,-240,646,4,343,-259,-468
1685341,-233,572,37,338,-245,-504
1685357,-224,672,38,328,-253,-439
1685390,-214,660,-25,298,-232,-446
1685408,-246,648,-41,267,-229,-438
1685425,-247,661,-64,282,-218,-452
1685441,-246,648,-36,295,-259,-468
1685457,-227,729,-27,302,-212,-418
1685474,-252,708,-26,300,-223,-440
1685506,-184,804,9,301,-196,-399
1685524,-262,860,-31,300,-240,-467
1685540,-245,866,-24,302,-255,-499
1685557,-256,888,-42,305,-249,-485
1685574,-256,959,2,304,-177,-508
1685590,-178,948,0,306,-207,-430
1685622,-271,884,11,318,-201,-458
1685639,-253,826,-41,297,-256,-513
1685656,-267,827,19,318,-199,-530
1685674,-289,791,-13,285,-248,-529
1685689,-262,799,-14,297,-235,-511
1685707,-273,812,-26,292,-222,-534
1685739,-270,788,-5,292,-260,-564
1685757,-287,771,1,286,-267,-582
1685774,-289,777,-6,289,-290,-586
1685790,-304,772,-13,280,-300,-593
1685807,-245,852,3,280,-317,-593
1685823,-270,836,43,299,-382,-650
1685855,-294,914,27,287,-346,-653
1685873,-245,880,30,277,-318,-648
1685889,-289,838,22,279,-374,-703
1685906,-253,888,33,286,-331,-677
1685923,-269,843,39,286,-393,-687
1685940,-238,866,59,301,-373,-690
1685972,-258,842,68,290,-352,-729
1685989,-225,852,81,295,-390,-773
1686005,-275,837,61,297,-375,-772
1686023,-278,807,59,283,-385,-772
1686039,-275,809,59,281,-431,-823
1686056,-280,810,54,265,-389,-848
1686088,-241,854,83,273,-359,-817
1686106,-242,842,89,272,-361,-800
1686122,-213,845,110,267,-326,-807
1686139,-203,860,127,272,-291,-751
1686156,-242,838,119,269,-326,-809
1686172,-184,866,140,271,-267,-741
1686205,-233,819,127,260,-296,-777
1686223,-202,809,147,268,-326,-788
1686239,-202,821,126,270,-301,-745
1686255,-216,796,120,267,-345,-846
1686272,-188,844,157,270,-312,-778
1686289,-216,810,136,268,-298,-803
1686337,-249,779,145,267,-304,-802
1686355,-220,752,142,276,-320,-815
1686372,-208,765,157,263,-304,-840
1686389,-250,724,120,247,-362,-822
1686405,-230,758,157,248,-314,-839
1686422,-203,758,155,247,-319,-776
1686438,-219,745,151,245,-316,-812
1686455,-189,761,187,269,-299,-806
1686472,-204,747,156,271,-276,-783
1686489,-219,744,170,261,-275,-781
1686506,-182,759,195,280,-289,-795
1686523,-187,733,182,283,-272,-717
1686540,-201,718,193,282,-306,-791
1686556,-182,731,214,285,-322,-793
1686572,-182,745,215,302,-261,-682
1686589,-184,729,196,300,-281,-759
1686605,-221,721,212,306,-289,-750
1686622,-208,719,184,302,-328,-788
1686638,-236,713,197,311,-326,-756
1686656,-184,764,226,319,-272,-723
1686687,-207,686,203,317,-347,-766
1686703,-172,740,218,310,-256,-710
1686720,-199,685,208,310,-355,-768
1686738,-209,694,214,332,-313,-771
1686753,-188,700,215,335,-330,-741
1686770,-211,681,211,337,-357,-791
1686788,-201,686,207,330,-314,-736
1686807,-205,682,215,321,-364,-758
1686823,-220,671,215,322,-340,-758
1686839,-222,666,216,328,-342,-749
1686857,-207,676,236,329,-315,-772
1686872,-171,662,244,339,-340,-747
1686890,-185,675,231,341,-317,-728
1686919,-220,622,199,329,-318,-762
1686937,-197,628,233,336,-299,-747
1686954,-197,630,236,330,-306,-739
1686970,-197,630,236,330,-306,-739
1686987,-197,630,236,330,-306,-739
1687004,-197,630,236,330,-306,-739
1687053,-197,630,236,330,-306,-739
1687070,-197,630,236,330,-306,-739
1687087,-197,630,236,330,-306,-739
1687104,-197,630,236,330,-306,-739
1687120,-222,655,247,342,-275,-753
1687137,-174,681,250,334,-267,-755
1687170,-156,660,249,340,-306,-726
1687187,-178,684,267,342,-295,-753
1687203,-197,653,238,334,-298,-724
1687220,-236,629,250,335,-337,-812
1687237,-195,658,246,341,-286,-751
1687254,-178,686,283,339,-285,-752
1687271,-206,653,258,341,-343,-808
1687287,-213,665,266,340,-307,-807
1687304,-212,660,274,357,-315,-827
1687320,-137,733,321,360,-236,-715
1687337,-178,696,298,364,-286,-802
1687354,-193,659,273,346,-286,-783
1687371,-189,683,304,361,-280,-795
1687387,-166,686,289,354,-271,-775
1687404,-178,683,281,352,-289,-812
1687421,-175,677,299,360,-292,-784
1687437,-119,722,327,372,-211,-783
1687453,-137,726,321,366,-228,-749
1687470,-123,679,322,362,-261,-794
1687487,-111,694,323,359,-281,-788
1687504,-158,665,304,375,-246,-780
1687521,-127,674,323,379,-305,-812
1687537,-149,664,317,378,-292,-814
1687553,-120,655,335,384,-285,-778
1687571,-125,660,336,380,-282,-778
1687587,-114,686,339,387,-293,-808
1687604,-125,685,327,380,-307,-821
1687635,-109,688,341,382,-271,-790
1687652,-47,697,364,388,-255,-782
1687669,-92,685,339,389,-254,-749
1687686,-21,682,359,388,-237,-721
1687702,-52,697,354,384,-214,-752
1687719,-79,659,354,385,-220,-743
1687736,-96,658,337,376,-259,-780
1687753,-63,668,355,379,-220,-784
1687770,-115,683,320,375,-244,-819
1687786,-120,651,326,368,-283,-852
1687803,-130,663,331,377,-264,-839
1687819,-121,654,331,372,-247,-848
1687836,-87,666,348,377,-244,-816
1687868,-125,623,344,380,-282,-867
1687886,-97,637,355,378,-265,-850
1687902,-72,670,352,379,-226,-811
1687919,-68,659,358,371,-239,-808
1687936,-86,653,350,375,-259,-823
1687953,-101,662,339,370,-255,-809
1687969,-90,661,347,372,-244,-834
1687986,-85,666,348,374,-249,-816
1688003,-73,672,353,376,-231,-804
1688019,-128,657,322,374,-287,-844
1688036,-90,666,337,396,-243,-820
1688053,-104,668,351,394,-250,-805
1688069,-90,658,342,398,-264,-830
1688086,-100,657,348,396,-246,-777
1688103,-89,666,351,398,-225,-833
1688119,-84,664,347,396,-270,-835
1688137,-84,676,357,406,-255,-814
1688153,-76,672,351,393,-257,-843
1688169,-92,686,359,399,-259,-805
1688185,-97,682,357,394,-256,-825
1688216,-83,664,342,406,-273,-846
1688233,-103,656,332,399,-311,-821
1688250,-76,689,353,410,-269,-806
1688268,-95,685,345,401,-291,-848
1688284,-117,665,339,400,-304,-812
1688302,-106,664,338,408,-293,-845
1688333,-57,664,344,406,-286,-830
1688350,-126,642,341,401,-321,-848
1688367,-102,669,372,442,-300,-814
1688384,-85,692,345,404,-357,-847
1688401,-114,691,349,408,-409,-892
1688418,-94,722,352,416,-410,-872
1688434,-91,718,382,445,-394,-870
1688452,-115,681,519,741,-483,-932
1688469,-68,724,491,590,-416,-895
1688485,-106,717,411,444,-413,-869
1688502,-80,754,385,400,-373,-870
1688518,-126,718,357,389,-446,-918
1688534,-65,758,383,399,-366,-863
1688551,-104,719,378,395,-385,-870
1688568,-58,726,388,406,-391,-880
1688584,-59,738,385,399,-351,-836
1688602,-63,746,387,402,-356,-808
1688619,-32,745,391,405,-335,-854
1688636,-68,736,380,398,-374,-806
1688651,-63,724,377,408,-359,-836
1688668,-60,743,380,407,-379,-833
1688685,-58,753,385,418,-349,-836
1688702,-31,743,387,399,-331,-796
1688718,-90,727,366,401,-364,-849
1688735,-30,753,389,421,-333,-825
1688752,-59,745,381,417,-331,-773
1688769,-71,720,385,419,-342,-808
1688799,-46,746,386,417,-322,-796
1688816,-63,734,382,419,-311,-787
1688833,-83,706,378,418,-365,-813
1688850,-92,721,375,413,-350,-817
1688867,-97,716,377,413,-337,-783
1688883,-63,718,386,419,-336,-787
1688900,-71,704,383,426,-336,-758
1688917,-71,691,395,432,-247,-706
1688933,-27,688,407,428,-253,-681
1688950,-33,683,404,428,-246,-683
1688967,-26,664,400,433,-231,-669
1688984,0,703,408,429,-214,-660
1688999,-6,684,415,427,-248,-649
1689017,-40,666,378,431,-247,-694
1689034,-21,659,414,429,-254,-641
1689050,-36,648,404,436,-267,-691
1689067,5,659,416,441,-207,-624
1689083,-14,641,390,440,-250,-639
1689100,-24,618,421,450,-276,-621
1689116,41,659,420,439,-208,-614
1689148,-15,624,410,444,-253,-661
1689165,4,620,412,443,-265,-668
1689182,-41,599,412,442,-240,-688
1689198,-18,631,409,442,-259,-672
1689216,-3,605,413,439,-243,-669
1689232,-25,609,417,447,-237,-715
1689248,-55,590,413,445,-253,-695
1689265,-39,606,413,436,-276,-705
1689283,-56,574,409,440,-293,-729
1689299,-66,606,418,437,-272,-722
1689317,-81,590,406,437,-283,-713
1689332,-47,637,438,437,-248,-719
1689349,-93,590,402,433,-268,-704
1689381,-86,626,413,414,-244,-715
1689398,-72,627,400,429,-264,-716
1689415,-97,623,410,424,-257,-722
1689431,-66,631,421,433,-229,-711
1689448,-103,593,411,435,-264,-721
1689465,-92,630,407,434,-270,-747
1689482,-66,627,420,439,-200,-700
1689498,-108,610,396,437,-240,-722
1689515,-121,599,404,431,-273,-765
1689532,-146,593,373,435,-250,-745
1689548,-128,610,414,435,-249,-744
1689566,-131,600,388,434,-259,-773
1689582,-88,639,419,442,-231,-737
1689599,-135,604,404,438,-273,-710
1689617,-96,625,409,436,-252,-753
1689632,-140,613,418,442,-258,-737
1689649,-131,596,378,428,-287,-744
1689667,-98,615,421,438,-251,-715
1689682,-137,601,397,424,-276,-731
1689699,-120,600,404,428,-278,-725
1689729,-154,590,385,428,-273,-749
1689746,-120,600,414,438,-252,-670
1689763,-167,564,379,433,-314,-738
1689780,-148,580,400,436,-271,-743
1689797,-191,543,396,441,-313,-761
1689814,-148,567,409,451,-279,-717
1689831,-156,571,414,455,-260,-717
1689848,-124,572,412,460,-253,-726
1689864,-147,570,403,453,-257,-754
1689881,-156,562,395,458,-265,-744
1689898,-161,594,408,460,-297,-785
1689915,-127,600,418,460,-259,-758
1689931,-123,595,416,455,-286,-775
1689962,-107,633,414,464,-239,-744
1689979,-122,610,418,467,-252,-730
1689996,-141,593,390,459,-314,-783
1690013,-120,632,426,468,-244,-768
1690029,-96,624,417,465,-234,-730
1690046,-104,636,434,473,-245,-762
1690063,-95,632,429,467,-239,-745
1690080,-130,596,408,459,-295,-784
1690098,-49,651,445,465,-209,-729
1690114,-104,628,434,475,-217,-743
1690131,-160,520,382,458,-303,-817
1690147,-160,600,417,477,-242,-810
1690164,-90,605,423,488,-233,-746
1690195,-131,596,439,498,-249,-821
1690211,-92,615,446,492,-190,-715
1690229,-133,572,419,500,-216,-721
1690246,-123,580,412,475,-230,-808
1690262,-119,605,409,441,-225,-744
1690279,-127,594,393,435,-219,-765
1690295,-124,595,388,432,-225,-776
1690313,-122,593,376,435,-231,-805
1690330,-160,591,382,437,-295,-813
1690346,-121,606,400,449,-276,-827
1690362,-142,597,384,451,-255,-796
1690379,-88,622,407,454,-215,-758
1690396,-155,584,390,464,-226,-787
1690412,-115,628,402,461,-184,-761
1690429,-146,588,391,470,-245,-778
1690446,-134,598,412,469,-213,-766
1690463,-107,632,413,481,-178,-714
1690479,-131,583,408,480,-208,-750
1690497,-217,560,384,477,-255,-795
1690513,-150,567,391,477,-256,-790
1690544,-148,565,412,488,-173,-721
1690561,-190,561,406,492,-157,-721
1690579,-180,526,413,486,-218,-789
1690595,-191,540,384,477,-170,-780
1690613,-159,549,406,474,-173,-763
1690629,-191,535,388,470,-179,-783
1690646,-202,550,386,471,-185,-788
1690663,-181,558,391,475,-182,-774
1690680,-187,557,378,471,-166,-785
1690696,-223,555,382,476,-158,-792
1690712,-149,566,384,475,-168,-765
1690729,-195,567,384,473,-164,-789
1690746,-149,565,408,473,-151,-748
1690763,-172,566,400,472,-154,-773
1690780,-147,569,414,471,-148,-779
1690796,-183,576,410,472,-151,-798
1690813,-151,567,411,469,-147,-791
1690829,-159,577,409,467,-156,-776
1690845,-179,556,392,466,-166,-786
1690864,-181,558,390,466,-181,-820
1690893,-190,560,395,486,-163,-797
1690910,-176,573,408,489,-142,-762
1690927,-142,572,420,480,-156,-780
1690943,-158,591,403,468,-161,-779
1690961,-165,561,411,466,-177,-796
1690978,-156,540,409,470,-183,-806
1690994,-178,558,392,472,-209,-800
1691012,-192,524,378,463,-214,-837
1691029,-177,573,385,461,-195,-814
1691044,-137,571,396,458,-169,-776
1691062,-138,600,404,455,-146,-759
1691078,-167,557,382,453,-218,-846
1691095,-156,571,387,462,-173,-792
1691126,-179,572,378,455,-224,-830
1691144,-183,566,385,474,-213,-844
1691159,-164,565,388,472,-217,-807
1691176,-150,572,395,466,-181,-784
1691194,-162,565,395,469,-202,-810
1691211,-172,560,387,475,-206,-778
1691242,-198,520,369,474,-200,-784
1691259,-200,538,386,469,-183,-797
1691277,-200,514,380,475,-179,-766
1691292,-223,497,379,469,-212,-821
1691310,-210,531,385,473,-172,-759
1691326,-190,528,379,474,-170,-766
1691359,-181,547,389,475,-145,-730
1691376,-187,575,394,475,-150,-757
1691393,-187,544,380,464,-161,-718
1691410,-170,550,387,471,-168,-760
1691427,-163,560,401,458,-160,-747
1691443,-154,572,392,469,-153,-721
1691475,-156,542,388,456,-181,-754
1691493,-152,572,394,470,-182,-747
1691510,-164,542,392,463,-196,-764
1691526,-125,567,419,464,-169,-746
1691543,-153,554,397,462,-196,-754
1691560,-145,567,400,463,-171,-739
1691576,-151,550,392,461,-200,-750
1691593,-172,521,385,456,-227,-769
1691610,-148,569,383,452,-237,-774
1691626,-122,613,380,447,-288,-776
1691642,-125,629,376,444,-341,-799
1691659,-116,656,386,447,-334,-803
1691676,-127,650,376,452,-342,-820
1691693,-93,666,387,454,-301,-810
1691710,-129,654,386,448,-332,-790
1691727,-119,656,384,449,-306,-801
1691744,-122,656,379,457,-292,-798
1691760,-110,660,384,445,-296,-800
1691776,-152,631,354,448,-319,-825
1691794,-111,657,390,448,-289,-804
1691824,-126,651,383,459,-309,-796
1691841,-122,633,368,452,-308,-792
1691859,-134,625,387,450,-330,-817
1691875,-130,625,383,451,-305,-790
1691892,-100,665,392,461,-297,-780
1691908,-111,656,385,454,-307,-779
1691940,-110,656,389,457,-323,-769
1691958,-105,662,388,453,-316,-790
1691975,-155,621,363,445,-341,-813
1691991,-126,634,381,446,-323,-778
1692009,-114,638,384,449,-335,-804
1692024,-128,652,380,451,-335,-812
1692058,-121,656,381,460,-304,-742
1692075,-125,635,386,470,-329,-798
1692092,-167,629,363,456,-322,-807
1692108,-147,626,369,450,-302,-788
1692125,-122,660,385,468,-286,-757
1692142,-120,636,381,468,-281,-784
1692174,-124,633,372,465,-296,-795
1692191,-127,624,371,467,-307,-811
1692208,-122,656,383,466,-276,-773
1692225,-125,656,381,472,-289,-773
1692241,-126,629,380,463,-278,-777
1692258,-127,632,383,467,-217,-747
1692290,-143,598,385,469,-217,-745
1692308,-124,632,377,467,-193,-721
1692324,-127,628,384,470,-223,-757
1692341,-123,608,368,458,-211,-728
1692358,-109,629,381,468,-198,-729
1692375,-117,633,382,461,-184,-712
1692406,-88,633,384,459,-193,-747
1692423,-131,591,379,469,-211,-727
1692440,-98,598,381,478,-201,-738
1692457,-122,630,379,473,-192,-736
1692474,-95,630,375,476,-197,-700
1692491,-156,598,350,473,-234,-781
1692523,-130,627,368,480,-211,-729
1692541,-117,644,386,481,-201,-712
1692557,-101,625,385,487,-236,-716
1692574,-124,630,366,479,-162,-680
1692590,-116,595,385,484,-136,-671
1692607,-103,611,383,487,-123,-667
1692639,-129,601,380,486,-122,-691
1692655,-98,588,389,495,-116,-667
1692673,-116,603,386,488,-103,-674
1692690,-120,588,384,493,-123,-690
1692707,-123,596,379,488,-115,-705
1692723,-122,581,375,492,-136,-689
1692755,-124,567,380,483,-151,-729
1692772,-129,580,384,484,-153,-733
1692789,-122,601,387,487,-138,-725
1692806,-121,601,384,493,-126,-687
1692823,-131,594,379,495,-177,-723
1692840,-143,592,387,493,-178,-771
1692873,-116,551,397,492,-154,-720
1692889,-127,578,392,493,-139,-717
1692906,-102,615,404,491,-116,-673
1692923,-96,601,379,498,-116,-659
1692940,-164,550,391,504,-140,-730
1692957,-129,570,390,492,-128,-691
1692988,-136,600,373,487,-96,-677
1693006,-107,604,386,484,-140,-685
1693023,-126,576,373,480,-121,-711
1693038,-154,567,365,479,-156,-748
1693056,-125,593,374,478,-131,-687
1693073,-135,592,368,474,-129,-700
1693104,-157,593,357,473,-126,-717
1693122,-151,567,353,478,-129,-687
1693139,-125,600,363,473,-139,-672
1693156,-98,580,386,477,-111,-673
1693171,-73,627,386,476,-155,-673
1693188,-50,640,387,470,-211,-692
1693221,-31,690,390,477,-287,-718
1693238,-48,691,380,463,-326,-718
1693255,-82,666,352,463,-330,-773
1693272,-115,659,362,464,-321,-754
1693289,-133,659,351,467,-329,-787
1693305,-117,659,361,458,-317,-781
1693337,-126,643,357,464,-320,-800
1693355,-177,597,321,439,-351,-817
1693371,-183,603,339,442,-341,-813
1693388,-163,611,334,438,-329,-810
1693406,-111,636,359,449,-300,-773
1693422,-156,632,355,444,-316,-781
1693454,-163,627,348,441,-324,-791
1693472,-191,626,355,439,-360,-850
1693487,-158,630,370,444,-339,-803
1693504,-154,652,365,450,-336,-818
1693522,-146,653,379,442,-312,-775
1693538,-153,650,369,447,-346,-814
1693570,-154,626,362,447,-320,-763
1693587,-160,631,373,455,-321,-772
1693605,-158,633,363,485,-317,-754
1693621,-131,633,366,505,-344,-746
1693638,-119,594,377,514,-324,-755
1693655,-126,618,368,536,-250,-680
1693687,-91,565,382,540,-164,-611
1693705,-84,569,399,540,-136,-613
1693720,-83,595,391,535,-117,-563
1693738,-80,593,392,520,-144,-589
1693754,-92,570,389,524,-151,-601
1693771,-99,593,385,513,-151,-613
1693803,-91,588,392,518,-141,-632
1693820,-88,599,382,511,-152,-628
1693838,-122,592,377,512,-155,-666
1693853,-94,605,378,504,-166,-649
1693871,-94,575,377,515,-188,-655
1693887,-99,595,369,510,-157,-652
1693919,-105,566,375,514,-184,-669
1693936,-125,568,383,517,-190,-661
1693954,-111,582,376,525,-178,-652
1693970,-96,569,386,523,-144,-641
1693986,-115,564,390,520,-156,-653
1694004,-128,569,376,515,-158,-657
1694036,-100,604,385,504,-132,-651
1694053,-117,600,371,507,-146,-690
1694070,-120,558,355,498,-159,-697
1694087,-106,581,378,501,-155,-672
1694104,-110,594,370,500,-147,-686
1694120,-126,554,359,489,-183,-715
1694153,-98,599,385,513,-153,-689
1694170,-94,602,410,544,-173,-656
1694187,-102,595,417,573,-152,-695
1694203,-124,591,400,520,-163,-685
1694220,-109,598,380,515,-150,-683
1694237,-130,593,395,519,-166,-692
1694269,-64,656,407,513,-218,-689
1694286,-63,656,415,514,-188,-680
1694303,-96,648,404,517,-221,-685
1694320,-94,636,382,503,-239,-694
1694336,-92,633,400,516,-211,-683
1694353,-126,598,380,502,-238,-729
1694385,-131,587,364,500,-241,-727
1694402,-135,597,384,495,-245,-723
1694419,-121,598,371,476,-257,-751
1694437,-121,619,382,477,-217,-753
1694453,-108,630,397,504,-204,-716
1694470,-140,623,435,618,-226,-741
1694502,-90,631,420,545,-206,-712
1694519,-87,623,621,959,-210,-716
1694536,-97,633,369,399,-197,-707
1694552,-103,635,410,510,-198,-694
1694568,-96,635,378,472,-198,-709
1694586,-93,648,393,483,-187,-720
1694618,-94,632,393,474,-200,-709
1694635,-97,627,394,476,-236,-709
1694652,-87,656,405,473,-181,-682
1694668,-93,631,379,475,-218,-723
1694686,-115,621,373,460,-232,-729
1694702,-132,623,361,460,-249,-752
1694734,-136,614,367,464,-233,-709
1694752,-124,621,382,470,-207,-716
1694769,-135,624,380,471,-226,-713
1694786,-138,600,377,474,-212,-701
1694802,-120,630,386,471,-181,-689
1694818,-122,621,372,468,-213,-684
1694851,-126,603,373,466,-230,-729
1694868,-140,609,383,468,-210,-717
1694885,-151,591,384,467,-232,-768
1694901,-129,617,390,464,-213,-732
1694918,-143,621,382,461,-210,-720
1694935,-149,628,381,460,-201,-713
1694967,-164,621,361,459,-225,-743
1694984,-157,620,369,454,-216,-729
1695000,-149,623,378,447,-213,-715
1695018,-146,604,381,451,-217,-699
1695035,-154,630,364,454,-208,-689
1695052,-194,590,377,458,-234,-722
1695083,-181,597,382,462,-245,-723
1695100,-157,604,389,465,-237,-721
1695117,-156,593,401,468,-244,-691
1695134,-119,626,411,472,-215,-687
1695151,-115,620,409,467,-227,-659
1695168,-86,622,410,467,-226,-638
1695199,-86,634,395,461,-204,-641
1695216,-124,633,395,455,-183,-651
1695233,-127,633,385,458,-201,-692
1695250,-133,642,392,454,-195,-680
1695268,-131,627,381,447,-181,-717
1695284,-156,622,379,444,-197,-715
1695317,-159,622,387,443,-221,-720
1695333,-129,627,384,439,-215,-756
1695351,-160,615,382,440,-213,-747
1695367,-156,624,384,440,-223,-754
1695384,-148,630,386,436,-192,-729
1695400,-132,650,387,438,-190,-721
1695433,-125,666,384,439,-211,-720
1695451,-110,637,382,448,-228,-707
1695467,-93,647,407,440,-209,-682
1695484,-99,651,377,436,-190,-679
1695500,-96,650,393,444,-235,-676
1695517,-124,655,392,434,-214,-696
1695549,-12,698,412,433,-167,-547
1695567,128,752,457,443,-119,-411
1695582,202,761,478,453,-150,-439
1695602,205,772,468,449,-109,-371
1695616,154,778,446,448,-81,-384
1695633,72,757,444,459,-103,-439
1695665,-71,715,408,438,-145,-572
1695682,-45,694,415,442,-148,-610
1695699,-122,683,410,440,-181,-670
1695716,-147,656,415,448,-179,-688
1695732,-155,691,392,443,-185,-706
1695750,-149,664,404,444,-207,-740
1695782,-152,662,412,439,-220,-758
1695798,-160,694,418,443,-183,-742
1695815,-175,684,407,435,-228,-753
1695833,-147,682,411,436,-214,-752
1695849,-222,657,400,428,-238,-793
1695866,-171,663,423,441,-223,-758
1695898,-192,644,407,436,-218,-742
1695916,-187,665,435,438,-213,-759
1695931,-199,611,409,437,-252,-789
1695950,-185,679,452,449,-188,-702
1695965,-154,663,442,443,-175,-701
1695982,-207,656,407,435,-221,-761
1696014,-193,649,436,444,-214,-743
1696031,-185,635,428,442,-208,-741
1696049,-189,669,440,451,-180,-708
1696066,-186,667,443,447,-194,-724
1696083,-208,632,427,449,-199,-715
1696099,-207,642,436,441,-198,-756
1696130,-159,678,418,433,-204,-724
1696148,-204,669,414,431,-236,-758
1696165,-216,661,409,437,-216,-732
1696181,-214,628,416,439,-207,-719
1696198,-214,661,416,442,-214,-749
1696215,-243,645,411,442,-241,-737
1696248,-225,629,417,434,-229,-719
1696265,-232,620,414,442,-245,-764
1696282,-234,627,410,435,-226,-744
1696298,-200,623,423,445,-222,-712
1696315,-216,622,435,448,-221,-673
1696332,-151,597,449,452,-195,-700
1696364,-180,592,423,455,-174,-669
1696381,-183,602,435,458,-179,-631
1696398,-190,597,424,454,-201,-683
1696415,-221,597,425,461,-184,-689
1696431,-209,569,427,449,-217,-690
1696448,-232,577,441,452,-197,-698
1696480,-206,593,447,452,-215,-665
1696497,-213,562,448,446,-230,-699
1696514,-219,565,410,442,-220,-662
1696530,-224,602,433,452,-200,-680
1696548,-222,593,415,440,-239,-696
1696565,-206,598,419,444,-220,-687
1696597,-242,591,415,434,-247,-722
1696614,-244,594,412,436,-244,-719
1696631,-217,606,434,436,-212,-720
1696647,-234,615,424,435,-203,-688
1696664,-212,623,408,429,-206,-716
1696681,-233,632,411,426,-209,-715
1696713,-255,623,416,434,-231,-723
1696729,-195,631,419,416,-184,-655
1696746,-219,625,402,408,-202,-695
1696764,-207,610,417,435,-207,-693
1696780,-224,623,418,444,-207,-693
1696797,-188,627,437,467,-217,-680
1696829,-223,622,431,448,-226,-677
1696846,-158,635,452,445,-191,-643
1696862,-152,665,451,446,-180,-659
1696880,-160,652,448,443,-166,-648
1696897,-170,645,430,434,-155,-648
1696929,-173,650,432,436,-190,-692
1696963,-150,626,426,436,-181,-646
1696981,-151,623,436,435,-177,-653
1697012,-150,655,425,433,-155,-655
1697029,-128,643,432,429,-180,-646
1697048,-125,653,444,430,-165,-638
1697079,-134,629,436,435,-179,-636
1697096,-148,628,422,436,-185,-663
1697112,-129,641,440,438,-149,-608
1697130,-153,634,425,428,-165,-597
1697146,-128,623,413,424,-183,-631
1697163,-188,628,413,427,-179,-636
1697179,-131,625,415,419,-156,-620
1697229,-142,656,415,428,-150,-594
1697246,-157,653,421,432,-131,-586
1697263,-134,637,416,437,-140,-569
1697279,-145,656,427,436,-125,-607
1697297,-120,687,439,433,-126,-572
1697312,-115,685,437,434,-115,-565
1697344,-96,702,441,433,-104,-560
1697362,-144,670,419,430,-124,-583
1697379,-120,664,422,432,-152,-594
1697396,-123,684,410,435,-153,-605
1697444,-128,655,436,432,-187,-626
1697462,-176,669,413,428,-187,-624
1697478,-160,651,415,431,-206,-660
1697495,-149,663,422,432,-198,-620
1697512,-158,634,421,439,-184,-629
1697529,-151,637,436,437,-206,-599
1697546,-169,611,438,437,-215,-617
1697562,-159,630,445,439,-218,-607
1697578,-149,621,448,451,-189,-586
1697595,-133,629,463,445,-189,-586
1697612,-114,629,449,443,-183,-555
1697629,-121,627,465,441,-172,-585
1697646,-114,633,453,435,-190,-582
1697662,-154,632,447,425,-168,-593
1697679,-128,633,437,428,-177,-584
1697696,-132,601,442,427,-200,-599
1697712,-134,617,429,430,-182,-598
1697729,-139,622,432,420,-186,-600
1697745,-118,634,428,416,-203,-629
1697762,-166,608,414,409,-199,-634
1697778,-139,636,436,405,-174,-626
1697796,-122,633,436,408,-181,-624
1697812,-135,626,421,405,-192,-661
1697829,-114,636,444,402,-173,-638
1697846,-143,638,447,405,-162,-625
1697863,-112,640,448,408,-174,-630
1697879,-112,626,441,397,-214,-661
1697896,-103,631,448,399,-210,-659
1697912,-108,642,450,404,-183,-641
1697929,-110,632,436,397,-210,-652
1697946,-92,670,448,406,-178,-622
1697963,-132,649,440,399,-201,-677
1697979,-87,651,440,403,-211,-649
1697997,-130,651,423,404,-234,-692
1698013,-124,623,449,407,-170,-660
1698030,-94,628,442,404,-154,-612
1698046,-103,630,444,399,-173,-665
1698063,-100,622,440,394,-208,-666
1698080,-114,624,432,398,-184,-686
1698096,-99,628,442,400,-185,-662
1698113,-99,622,438,400,-185,-667
1698130,-94,608,446,405,-172,-649
1698146,-106,626,435,400,-182,-667
1698176,-91,617,451,414,-194,-660
1698193,-146,628,438,418,-169,-656
1698210,-121,602,440,412,-184,-642
1698227,-129,599,427,407,-207,-627
1698244,-131,619,438,407,-211,-679
1698260,-107,625,444,407,-183,-592
1698277,-94,628,444,413,-180,-625
1698294,-97,629,451,413,-189,-601
1698310,-88,666,468,418,-180,-603
1698327,-79,654,474,416,-206,-603
1698344,-91,634,437,405,-209,-632
1698360,-133,602,446,405,-217,-610
1698377,-181,587,411,405,-263,-669
1698394,-152,619,442,409,-210,-644
1698411,-156,626,439,415,-235,-611
1698427,-175,598,426,413,-230,-675
1698444,-192,591,410,419,-232,-628
1698461,-176,594,443,417,-224,-621
1698478,-145,625,452,431,-209,-592
1698495,-122,623,449,434,-208,-594
1698525,-141,608,447,434,-190,-584
1698543,-120,638,454,425,-185,-558
1698558,-128,622,444,426,-217,-578
1698576,-94,628,442,428,-205,-554
1698593,-99,594,457,434,-217,-554
1698610,-106,631,427,429,-206,-559
1698626,-121,619,447,430,-206,-557
1698644,-123,626,448,418,-184,-567
1698661,-129,612,428,431,-195,-568
1698677,-142,595,422,423,-233,-598
1698693,-139,594,417,419,-226,-627
1698710,-120,633,442,419,-208,-576
1698727,-117,598,442,431,-212,-594
1698759,-98,603,439,420,-212,-558
1698776,-128,586,427,417,-254,-601
1698793,-119,569,442,419,-226,-599
1698810,-96,592,442,421,-242,-559
1698826,-124,557,439,422,-250,-593
1698842,-145,561,444,418,-262,-589
1698860,-142,549,420,410,-260,-582
1698877,-141,564,425,417,-262,-571
1698893,-129,571,415,415,-246,-590
1698910,-131,565,418,410,-274,-593
1698927,-167,577,413,402,-257,-610
1698945,-149,577,409,413,-223,-579
1698960,-144,567,413,407,-242,-599
1698991,-159,565,414,409,-254,-609
1699008,-146,564,411,407,-261,-599
1699024,-148,568,415,407,-237,-588
1699041,-158,569,412,400,-247,-585
1699058,-136,564,432,409,-239,-562
1699075,-132,596,420,408,-208,-555
1699107,-142,597,414,401,-247,-584
1699124,-162,554,412,408,-277,-601
1699141,-153,573,416,413,-253,-582
1699157,-181,563,419,404,-276,-598
1699174,-167,564,416,405,-254,-585
1699191,-148,573,437,404,-268,-546
1699224,-151,583,431,408,-269,-568
1699242,-165,588,428,406,-256,-560
1699258,-143,598,412,406,-259,-558
1699275,-187,591,424,409,-269,-567
1699292,-150,589,418,406,-244,-529
1699309,-158,601,429,403,-247,-543
1699340,-163,614,432,401,-198,-505
1699358,-153,603,435,404,-223,-506
1699374,-191,588,410,403,-238,-544
1699391,-164,585,425,385,-236,-537
1699407,-176,602,418,398,-236,-521
1699423,-166,627,426,391,-228,-521
1699442,-154,621,439,400,-240,-511
1699458,-155,612,421,394,-233,-538
1699476,-170,630,419,394,-204,-490
1699492,-155,626,439,402,-212,-505
1699509,-144,627,441,404,-207,-487
1699526,-153,622,424,400,-216,-524
1699542,-158,620,429,400,-218,-533
1699573,-170,615,427,398,-249,-544
1699591,-144,654,434,409,-211,-476
1699606,-152,623,446,414,-208,-467
1699624,-153,612,439,407,-231,-479
1699640,-144,600,441,409,-250,-481
1699657,-122,640,451,409,-208,-458
1699689,-85,655,476,411,-185,-442
1699707,-95,661,473,410,-181,-416
1699723,-120,627,462,409,-248,-459
1699740,-109,639,462,414,-245,-443
1699757,-89,668,476,418,-215,-439
1699773,-97,654,474,407,-264,-476
1699790,-76,666,462,418,-245,-442
1699806,-80,657,477,413,-247,-449
1699824,-64,704,473,405,-269,-453
1699840,-123,678,461,408,-285,-473
1699856,-54,723,479,410,-238,-474
1699874,-100,686,475,403,-258,-481
1699890,-84,692,470,400,-266,-476
1699908,-129,681,452,385,-254,-503
1699924,-119,669,455,375,-281,-542
1699940,-118,697,481,383,-251,-495
1699958,-96,709,483,394,-251,-486
1699974,-107,685,476,398,-244,-506
1699992,-127,658,475,408,-282,-536
1700008,-126,711,487,412,-228,-505
1700024,-107,684,475,411,-255,-519
1700041,-122,667,478,415,-243,-489
1700058,-114,690,472,412,-229,-504
1700075,-115,689,475,417,-222,-512
1700091,-152,676,471,408,-244,-535
1700108,-136,691,486,420,-206,-486
1700125,-89,698,489,421,-190,-467
1700141,-127,668,472,411,-257,-541
1700159,-156,631,454,414,-252,-513
1700174,-195,633,436,414,-280,-526
1700191,-133,653,463,411,-258,-514
1700208,-147,655,470,407,-237,-515
1700224,-147,657,459,401,-258,-504
1700242,-167,629,439,395,-253,-521
1700271,-118,688,471,402,-224,-463
1700289,-147,647,469,408,-257,-509
1700305,-114,663,479,415,-243,-503
1700322,-143,655,475,432,-230,-505
1700339,-117,667,498,441,-243,-502
1700355,-130,650,500,442,-262,-512
1700371,-124,662,497,441,-235,-510
1700389,-147,629,477,433,-260,-546
1700405,-119,659,501,438,-258,-526
1700422,-97,660,507,437,-242,-525
1700438,-131,673,492,434,-223,-506
1700455,-100,691,505,425,-232,-516
1700471,-114,659,501,424,-227,-501
1700489,-137,650,477,417,-252,-536
1700505,-101,673,487,418,-257,-542
1700522,-152,652,468,405,-252,-555
1700538,-138,667,476,392,-250,-565
1700555,-131,655,470,387,-254,-560
1700571,-115,661,473,389,-279,-539
1700589,-93,706,508,398,-226,-555
1700620,-103,682,503,395,-265,-542
1700638,-89,686,499,391,-246,-565
1700655,-85,710,488,392,-220,-534
1700671,-35,689,535,400,-210,-536
1700688,-93,695,505,388,-220,-546
1700705,-38,692,515,404,-200,-517
1700721,-78,654,502,400,-244,-550
1700738,-90,663,505,392,-237,-578
1700755,-55,663,481,397,-215,-534
1700771,-108,646,472,379,-252,-615
1700788,-59,664,500,389,-203,-544
1700804,-78,658,484,387,-226,-591
1700821,-99,624,481,380,-247,-593
1700839,-98,623,475,385,-263,-604
1700854,-90,626,481,385,-238,-587
1700871,-110,625,484,372,-262,-627
1700889,-66,627,502,384,-210,-577
1700905,-122,587,475,384,-268,-640
1700921,-120,576,487,393,-266,-629
1700938,-126,567,496,411,-271,-601
1700969,-122,544,506,410,-259,-623
1700986,-145,528,492,406,-291,-635
1701002,-109,541,499,416,-277,-593
1701019,-125,518,472,406,-276,-636
1701037,-124,486,479,404,-292,-623
1701054,-156,471,472,398,-281,-634
1701086,-119,448,465,377,-311,-631
1701103,-112,444,474,378,-261,-607
1701119,-107,443,445,366,-279,-598
1701136,-114,410,443,349,-296,-639
1701153,-100,418,446,357,-297,-616
1701170,-98,408,449,349,-304,-624
1701187,-99,412,450,362,-290,-627
1701204,-127,388,455,370,-305,-638
1701221,-133,347,439,366,-332,-663
1701238,-161,358,450,378,-309,-632
1701253,-141,352,442,369,-328,-659
1701271,-149,319,446,378,-341,-651
1701287,-186,297,442,381,-378,-684
1701304,-217,265,438,382,-392,-706
1701321,-174,293,445,391,-357,-682
1701338,-154,288,480,403,-325,-646
1701354,-191,248,452,398,-369,-683
1701371,-203,221,445,399,-402,-684
1701388,-218,213,445,396,-413,-696
1701404,-210,199,453,401,-395,-691
1701435,-217,181,465,406,-413,-691
1701452,-220,170,467,408,-412,-697
1701468,-222,149,454,404,-442,-686
1701485,-225,123,474,407,-440,-723
1701503,-242,104,455,406,-470,-715
1701519,-219,94,455,406,-437,-716
1701535,-260,58,449,394,-481,-752
1701553,-256,59,455,387,-474,-759
1701569,-278,24,453,383,-476,-750
1701586,-290,21,448,382,-473,-766
1701602,-257,24,473,382,-457,-716
1701619,-281,-9,449,394,-486,-745
1701636,-284,7,474,397,-490,-736
1701652,-277,-3,462,385,-473,-765
1701669,-259,-1,475,392,-439,-707
1701685,-245,-8,483,394,-448,-720
1701703,-234,-10,492,398,-453,-719
1701718,-254,-22,491,403,-457,-686
1701737,-240,-23,484,402,-442,-699
1701752,-251,-37,477,397,-480,-721
1701784,-254,-64,502,404,-511,-724
1701802,-221,-67,509,416,-498,-699
1701818,-266,-64,482,413,-530,-726
1701834,-267,-89,477,410,-523,-719
1701852,-279,-101,474,413,-567,-718
1701868,-259,-129,498,409,-562,-715
1701886,-273,-150,499,409,-578,-753
1701902,-270,-143,487,404,-600,-748
1701919,-291,-172,475,400,-635,-760
1701936,-280,-178,486,404,-613,-775
1701952,-244,-154,510,408,-606,-739
1701971,-292,-181,487,402,-629,-756
1701987,-261,-179,510,403,-619,-739
1702017,-295,-201,503,403,-691,-785
1702035,-287,-210,483,395,-666,-815
1702051,-269,-217,508,402,-665,-883
1702068,-281,-219,495,396,-680,-882
1702084,-307,-247,482,395,-700,-921
1702102,-306,-256,480,391,-719,-910
1702133,-294,-261,506,397,-705,-880
1702150,-317,-262,489,398,-720,-896
1702167,-308,-256,514,400,-711,-926
1702184,-303,-273,507,408,-745,-919
1702201,-305,-273,509,402,-733,-908
1702217,-303,-280,502,399,-760,-924
1702250,-330,-324,501,401,-787,-932
1702267,-335,-342,501,396,-813,-942
1702284,-315,-319,520,404,-771,-983
1702300,-312,-351,506,398,-795,-939
1702317,-347,-400,506,399,-790,-960
1702334,-361,-388,505,394,-837,-981
1702366,-335,-339,520,404,-786,-967
1702383,-332,-371,543,404,-801,-974
1702400,-355,-403,545,398,-832,-1011
1702417,-370,-427,542,398,-882,-1020
1702434,-328,-384,574,403,-836,-1011
1702453,-371,-429,539,397,-854,-1017
1702482,-381,-504,554,400,-859,-1048
1702499,-374,-463,543,414,-875,-1042
1702517,-388,-472,545,408,-907,-1073
1702534,-383,-504,564,405,-907,-1068
1702550,-410,-533,530,395,-931,-1104
1702568,-422,-541,565,410,-965,-1129
1702598,-382,-528,569,407,-944,-1122
1702616,-376,-518,567,415,-965,-1110
1702633,-363,-497,593,417,-968,-1104
1702649,-427,-543,553,409,-1017,-1136
1702667,-392,-526,561,409,-990,-1136
1702684,-416,-563,559,397,-1013,-1120
1702715,-432,-578,555,400,-1036,-1184
1702733,-441,-603,560,400,-1073,-1236
1702750,-449,-594,554,404,-1054,-1252
1702766,-472,-608,559,408,-1068,-1219
1702783,-452,-564,564,408,-1089,-1190
1702799,-437,-547,563,406,-1105,-1150
1702832,-399,-500,597,405,-1086,-1154
1702849,-401,-498,574,401,-1110,-1178
1702866,-403,-492,570,401,-1108,-1200
1702883,-420,-479,559,388,-1135,-1199
1702899,-387,-496,566,386,-1129,-1203
1702916,-384,-496,573,388,-1136,-1212
1702948,-411,-505,593,389,-1165,-1262
1702965,-398,-495,570,378,-1172,-1296
1702982,-388,-472,567,378,-1167,-1286
1702999,-419,-510,562,379,-1204,-1319
1703016,-421,-483,567,374,-1200,-1325
1703032,-383,-463,574,382,-1173,-1340
1703064,-416,-478,560,380,-1190,-1348
1703081,-413,-441,586,372,-1192,-1303
1703098,-391,-424,592,369,-1148,-1277
1703114,-416,-449,564,376,-1170,-1327
1703132,-408,-438,565,374,-1175,-1299
1703148,-415,-433,571,375,-1134,-1311
1703181,-423,-430,558,367,-1134,-1296
1703198,-415,-423,564,368,-1127,-1290
1703215,-379,-389,597,379,-1075,-1251
1703232,-366,-361,597,374,-1073,-1257
1703248,-388,-365,594,377,-1108,-1304
1703265,-392,-368,591,373,-1084,-1290
1703282,-402,-343,586,375,-1076,-1290
1703298,-361,-335,597,381,-1072,-1288
1703315,-369,-324,593,384,-1076,-1292
1703332,-366,-318,603,383,-1079,-1309
1703349,-314,-296,628,386,-1078,-1259
1703365,-315,-271,626,388,-1067,-1276
1703382,-347,-292,604,390,-1048,-1294
1703413,-335,-245,593,381,-1072,-1322
1703430,-331,-246,596,377,-1072,-1321
1703447,-362,-221,589,373,-1076,-1368
1703465,-316,-196,601,377,-1034,-1348
1703481,-332,-182,602,377,-1041,-1360
1703498,-296,-147,602,372,-1034,-1363
1703530,-292,-129,599,372,-1018,-1351
1703548,-305,-125,600,376,-1013,-1410
1703564,-317,-128,598,375,-1020,-1412
1703581,-290,-79,624,378,-949,-1364
1703597,-295,-93,597,381,-988,-1376
1703614,-323,-91,584,373,-976,-1408
1703646,-306,-65,597,368,-1008,-1434
1703663,-320,-68,594,366,-1000,-1439
1703680,-330,-85,576,367,-998,-1445
1703697,-296,-61,591,368,-1008,-1479
1703713,-307,-64,593,375,-970,-1431
1703730,-305,-36,597,375,-994,-1441
1703762,-288,-32,594,378,-953,-1427
1703780,-279,-34,595,372,-939,-1437
1703797,-298,-7,593,377,-912,-1407
1703814,-263,36,603,374,-914,-1372
1703830,-273,27,594,379,-874,-1409
1703847,-272,39,601,375,-868,-1406
1703879,-284,49,599,375,-868,-1410
1703897,-324,39,543,365,-875,-1438
1703912,-307,55,486,368,-854,-1408
1703929,-306,55,437,366,-872,-1435
1703946,-306,55,407,361,-853,-1406
1703963,-254,106,408,362,-838,-1369
1703995,-289,90,360,366,-866,-1418
1704012,-273,132,352,368,-854,-1394
1704030,-293,123,342,372,-850,-1409
1704047,-289,124,336,371,-853,-1413
1704063,-326,133,313,367,-869,-1439
1704080,-296,170,324,373,-845,-1432
1704112,-306,174,293,375,-842,-1400
1704129,-308,188,294,367,-835,-1446
1704146,-265,208,315,382,-786,-1376
1704163,-278,207,304,378,-785,-1372
1704179,-235,264,316,373,-776,-1376
1704196,-244,259,316,386,-784,-1378
1704228,-241,255,313,380,-759,-1361
1704246,-229,278,301,380,-744,-1364
1704262,-206,299,316,385,-724,-1337
1704279,-216,294,306,377,-728,-1346
1704296,-198,330,323,378,-725,-1350
1704312,-183,362,325,384,-716,-1341
1704345,-165,368,346,387,-694,-1316
1704361,-184,341,321,393,-700,-1307
1704379,-155,370,329,391,-687,-1292
1704395,-153,368,351,391,-681,-1304
1704412,-156,384,349,397,-660,-1282
1704428,-140,390,359,398,-654,-1274
1704461,-143,420,350,398,-656,-1294
1704479,-157,405,350,398,-661,-1284
1704495,-144,413,353,403,-660,-1282
1704514,-132,411,354,397,-655,-1273
1704527,-134,405,352,397,-632,-1270
1704546,-114,423,362,402,-627,-1275
1704577,-122,418,376,396,-616,-1239
1704594,-136,418,341,397,-665,-1265
1704612,-153,408,352,388,-647,-1262
1704628,-114,404,370,398,-636,-1225
1704645,-111,415,372,400,-627,-1211
1704661,-93,447,367,395,-625,-1223
1704678,-110,412,371,390,-625,-1210
1704695,-85,415,383,401,-591,-1176
1704714,-119,383,365,389,-619,-1219
1704729,-122,395,350,401,-621,-1228
1704745,-91,424,380,395,-624,-1231
1704762,-95,451,389,404,-612,-1197
1704779,-93,409,376,400,-643,-1237
1704811,-101,435,382,402,-627,-1213
1704828,-96,417,383,403,-628,-1238
1704845,-131,405,379,403,-616,-1182
1704861,-96,446,381,404,-594,-1222
1704878,-102,409,383,406,-600,-1191
1704894,-85,447,379,402,-578,-1191
1704927,-119,446,381,409,-600,-1226
1704943,-93,466,405,407,-596,-1259
1704961,-68,455,416,409,-557,-1253
1704978,-73,465,417,409,-584,-1251
1704994,-87,465,417,408,-572,-1241
1705011,-94,501,404,404,-604,-1282
1705044,-77,480,422,403,-563,-1261
1705061,-60,507,441,413,-527,-1213
1705078,-60,496,438,407,-529,-1225
1705094,-115,456,412,404,-539,-1261
1705111,-84,475,420,415,-535,-1226
1705127,-68,473,421,410,-529,-1238
1705159,-70,504,444,410,-498,-1203
1705177,-59,507,448,413,-509,-1224
1705194,-41,576,449,412,-502,-1182
1705210,-39,561,474,418,-484,-1197
1705227,-36,562,459,411,-478,-1193
1705243,-14,571,478,426,-467,-1182
1705276,2,594,480,430,-453,-1162
1705294,-18,588,475,418,-474,-1176
1705310,-36,621,446,420,-477,-1225
1705327,-42,595,464,425,-483,-1212
1705343,52,702,531,438,-363,-1137
1705360,67,717,534,441,-349,-1107
1705392,96,749,564,439,-293,-1081
1705409,117,719,571,445,-305,-1065
1705426,53,715,561,447,-307,-1119
1705443,96,784,589,451,-269,-1058
1705460,119,766,589,458,-228,-1035
1705476,92,765,586,445,-257,-1063
1705508,76,748,577,458,-281,-1073
1705525,121,751,593,456,-280,-1067
1705542,89,755,597,458,-259,-1056
1705560,101,748,605,445,-263,-1060
1705577,94,726,587,451,-285,-1064
1705593,93,800,600,451,-265,-1056
1705625,59,716,593,455,-284,-1097
1705641,71,717,589,458,-291,-1072
1705658,93,772,603,459,-277,-1070
1705675,95,758,598,461,-255,-1053
1705692,98,746,622,473,-284,-1062
1705709,85,753,622,469,-247,-1046
1705741,103,741,627,468,-218,-1014
1705759,130,789,626,468,-242,-1037
1705775,99,761,619,465,-218,-1042
1705792,108,753,623,469,-232,-1008
1705808,110,727,617,469,-217,-1042
1705825,105,720,625,469,-228,-1032
1705857,90,720,625,467,-230,-1051
1705875,121,725,640,469,-217,-1010
1705892,89,718,637,466,-238,-1014
1705909,90,726,623,466,-232,-1046
1705925,94,730,630,474,-252,-1023
1705942,95,728,631,469,-245,-1022
1705975,90,707,632,473,-238,-1004
1705992,95,737,632,472,-209,-1004
1706009,91,720,652,483,-226,-1012
1706025,91,714,629,474,-231,-1010
1706042,89,735,657,478,-205,-1009
1706058,93,740,652,488,-212,-982
1706091,87,735,649,487,-231,-999
1706108,64,719,656,487,-212,-990
1706124,100,769,652,491,-205,-1015
1706141,65,717,626,476,-236,-1006
1706158,68,737,648,487,-208,-993
1706175,90,716,648,479,-216,-987
1706207,100,738,664,495,-207,-967
1706225,48,688,651,490,-232,-995
1706241,65,759,648,479,-204,-1000
1706258,47,711,637,490,-249,-1016
1706274,42,692,634,492,-205,-993
1706291,34,670,632,500,-210,-988
1706323,-16,623,618,501,-264,-1043
1706341,33,630,636,490,-240,-1011
1706357,-9,624,620,496,-247,-1025
1706374,5,620,621,492,-255,-1037
1706391,-45,622,605,485,-275,-1046
1706407,2,621,620,490,-254,-1039
1706439,2,625,623,486,-240,-1013
1706457,3,626,630,490,-232,-987
1706473,-6,624,626,494,-244,-1006
1706490,0,630,624,491,-220,-976
1706507,-10,598,634,499,-233,-976
1706524,20,631,628,502,-232,-957
1706572,-4,632,626,503,-245,-990
1706590,-6,623,624,498,-236,-978
1706607,-36,598,627,507,-257,-984
1706624,-33,598,630,498,-279,-985
1706640,-1,598,626,495,-263,-980
1706657,-8,609,630,500,-253,-979
1706689,0,625,648,508,-252,-956
1706707,2,626,636,507,-240,-967
1706723,-5,624,635,498,-246,-965
1706740,-2,629,637,494,-265,-953
1706757,-22,627,626,496,-260,-984
1706773,-32,602,620,495,-274,-985
1706805,-32,637,629,504,-239,-971
1706822,-69,618,614,491,-277,-980
1706840,-35,615,618,506,-247,-976
1706856,-34,604,607,485,-267,-984
1706874,-45,597,617,491,-246,-967
1706890,-70,595,624,492,-268,-979
1706921,-33,595,623,493,-225,-938
1706939,-68,604,598,482,-258,-971
1706955,-50,596,615,487,-260,-983
1706972,-30,604,636,495,-239,-980
1706989,-64,596,623,494,-258,-975
1707006,-63,590,623,494,-266,-1010
1707038,-68,574,615,487,-268,-982
1707056,-64,594,620,497,-262,-990
1707073,-58,629,627,496,-239,-963
1707089,-72,632,617,499,-268,-984
1707106,-108,586,586,493,-297,-1024
1707123,-80,597,631,505,-276,-961
1707155,-61,594,629,505,-276,-979
1707172,-72,577,627,510,-277,-955
1707189,-102,537,622,503,-289,-990
1707205,-82,563,622,507,-273,-978
1707223,-93,537,623,505,-284,-977
1707239,-96,554,593,503,-300,-988
1707271,-115,533,595,498,-288,-1006
1707288,-96,547,617,500,-292,-999
1707305,-96,573,612,500,-284,-1015
1707322,-93,558,598,506,-310,-1013
1707339,-51,599,605,509,-325,-1008
1707356,-90,579,598,511,-323,-1043
1707387,-93,627,601,506,-315,-1014
1707405,-77,569,591,503,-324,-1065
1707421,-83,592,599,505,-323,-1028
1707439,-111,576,586,504,-323,-1051
1707455,-71,588,603,505,-333,-1027
1707471,-105,605,593,503,-339,-1044
1707503,-72,613,601,499,-312,-1006
1707521,-60,598,599,503,-346,-1020
1707537,-72,599,597,501,-322,-1010
1707554,-52,602,602,502,-301,-1003
1707571,-57,611,594,502,-324,-995
1707587,-56,602,592,502,-324,-1011
1707620,-57,613,594,505,-297,-969
1707638,-60,607,590,506,-322,-1014
1707654,-64,597,595,509,-303,-987
1707670,-88,591,593,505,-310,-990
1707688,-68,668,598,508,-289,-982
1707704,-68,631,591,502,-307,-965
1707736,-60,623,594,512,-283,-948
1707753,-82,626,589,507,-295,-981
1707771,-84,602,595,508,-269,-946
1707787,-95,632,571,509,-277,-977
1707804,-69,623,586,505,-258,-954
1707821,-79,633,598,506,-224,-950
1707853,-67,649,580,504,-265,-958
1707870,-63,656,595,508,-241,-904
1707887,-73,632,578,503,-273,-961
1707905,-93,660,569,510,-278,-951
1707921,-57,656,599,510,-231,-894
1707938,-60,653,584,499,-280,-929
1707970,-66,643,595,509,-258,-897
1707987,-113,602,559,508,-316,-954
1708004,-134,600,557,507,-321,-973
1708020,-92,635,569,517,-269,-933
1708037,-95,618,567,510,-276,-930
1708053,-78,634,566,505,-290,-952
1708085,-114,599,567,513,-322,-947
1708103,-90,601,561,514,-295,-929
1708121,-96,597,560,507,-299,-941
1708137,-89,611,562,509,-325,-939
1708154,-102,587,543,501,-325,-953
1708170,-94,589,565,508,-319,-942
1708202,-71,626,569,510,-278,-914
1708219,-85,592,563,513,-309,-931
1708236,-87,597,561,503,-321,-945
1708252,-97,584,559,508,-358,-960
1708269,-97,598,566,505,-341,-934
1708286,-66,606,567,509,-306,-944
1708318,-76,593,569,514,-298,-932
1708335,-92,626,560,515,-330,-969
1708353,-64,629,573,523,-284,-879
1708369,-69,600,557,519,-293,-897
1708386,-67,638,565,523,-268,-909
1708403,-48,624,569,527,-246,-863
1708419,-69,625,560,520,-272,-914
1708451,-73,627,541,514,-284,-914
1708469,-58,614,545,519,-263,-875
1708485,-62,618,565,517,-245,-884
1708502,-57,600,565,517,-238,-859
1708519,-48,599,563,518,-252,-876
1708536,-71,596,559,511,-273,-890
1708568,-77,594,563,513,-263,-918
1708586,-102,594,551,511,-271,-937
1708601,-83,595,551,513,-298,-931
1708618,-98,600,547,510,-308,-938
1708635,-94,578,560,505,-321,-970
1708652,-106,566,560,505,-327,-963
1708684,-85,568,568,525,-294,-946
1708702,-112,598,562,516,-283,-930
1708718,-119,587,563,515,-282,-941
1708735,-93,570,533,504,-294,-936
1708751,-128,571,541,518,-267,-943
1708768,-125,578,540,509,-266,-937
1708801,-109,592,536,508,-278,-947
1708817,-127,601,533,509,-292,-957
1708834,-117,595,538,514,-275,-928
1708852,-90,597,548,517,-264,-952
1708868,-94,597,537,507,-270,-928
1708885,-59,599,544,510,-281,-922
1708917,-99,617,533,519,-265,-932
1708934,-46,662,550,524,-241,-900
1708951,-64,654,537,531,-237,-923
1708968,-49,627,544,520,-248,-926
1708985,-67,629,535,526,-261,-921
1709001,-56,652,537,527,-189,-900
1709033,-25,640,543,526,-215,-906
1709053,-33,663,544,532,-218,-913
1709069,-29,660,540,522,-210,-866
1709085,-34,652,534,524,-228,-899
1709102,-26,655,528,533,-225,-891
1709119,-36,632,531,535,-215,-889
1709137,-51,627,501,526,-232,-910
1709155,-59,628,509,534,-240,-886
1709172,-64,661,512,535,-214,-905
1709188,-61,648,509,533,-215,-892
1709204,-80,633,501,536,-229,-904
1709221,-95,623,508,537,-259,-959
1709238,-109,591,500,534,-280,-966
1709267,-91,623,507,535,-253,-964
1709284,-121,628,487,525,-275,-973
1709301,-125,625,492,527,-274,-974
1709318,-149,593,477,526,-282,-983
1709334,-149,601,480,527,-257,-959
1709351,-148,600,474,529,-299,-979
1709368,-121,591,477,535,-261,-963
1709385,-152,590,480,534,-258,-958
1709401,-150,601,476,541,-276,-952
1709418,-149,596,481,529,-274,-992
1709435,-188,561,473,533,-286,-983
1709451,-146,601,474,521,-270,-968
1709468,-126,595,484,528,-259,-933
1709498,-151,597,471,516,-261,-960
1709517,-159,635,472,513,-260,-991
1709533,-121,630,476,516,-245,-960
1709551,-127,623,476,520,-245,-974
1709569,-124,628,481,524,-249,-945
1709585,-142,617,467,520,-245,-971
1709615,-115,621,483,528,-260,-944
1709632,-125,657,474,523,-282,-988
1709649,-118,659,480,529,-262,-978
1709666,-114,636,482,523,-278,-964
1709683,-130,616,472,526,-293,-990
1709700,-134,590,465,526,-299,-977
1709716,-159,601,458,522,-293,-995
1709734,-109,630,482,529,-265,-966
1709750,-123,622,479,530,-272,-972
1709767,-110,664,481,525,-272,-962
1709783,-136,627,489,529,-273,-943
1709801,-98,638,496,538,-279,-954
1709817,-120,642,494,527,-262,-924
1709849,-122,629,499,530,-242,-945
1709866,-134,624,480,528,-246,-959
1709883,-96,632,489,536,-228,-948
1709899,-140,638,476,535,-247,-943
1709916,-123,697,479,529,-244,-950
1709932,-132,642,465,522,-285,-985
1709949,-125,632,474,526,-288,-988
1709966,-151,624,471,521,-290,-992
1709982,-146,633,476,528,-293,-1000
1709999,-158,630,474,524,-291,-1003
1710015,-156,622,476,527,-298,-1012
1710032,-126,638,483,529,-276,-974
1710049,-158,680,482,524,-273,-998
1710066,-136,668,490,538,-268,-967
1710083,-169,626,468,522,-292,-986
1710100,-146,633,473,521,-272,-984
1710116,-168,627,476,516,-289,-977
1710136,-177,620,473,527,-275,-991
1710150,-179,615,477,529,-271,-960
1710166,-183,598,475,536,-284,-985
1710183,-184,597,472,522,-273,-971
1710199,-177,595,468,518,-296,-981
1710216,-172,597,471,533,-288,-976
1710233,-205,572,460,527,-307,-996
1710250,-192,555,455,528,-330,-1021
1710266,-220,548,443,525,-337,-1035
1710282,-184,559,465,530,-314,-1001
1710313,-188,567,472,530,-330,-1024
1710331,-194,605,467,535,-319,-1010
1710348,-210,572,464,531,-343,-1014
1710364,-183,585,472,539,-301,-986
1710381,-186,591,478,534,-325,-995
1710398,-206,559,458,530,-317,-992
1710414,-168,564,483,536,-321,-983
1710431,-181,566,479,531,-339,-1008
1710447,-196,552,472,538,-337,-998
1710464,-176,567,481,540,-314,-977
1710481,-177,566,474,542,-316,-961
1710498,-193,577,467,537,-314,-973
1710514,-177,592,458,537,-322,-965
1710546,-155,601,449,546,-295,-945
1710564,-205,582,436,523,-350,-992
1710581,-156,563,445,527,-321,-999
1710597,-182,602,439,525,-324,-969
1710615,-145,595,467,534,-305,-974
1710631,-151,612,449,539,-280,-951
1710647,-100,626,479,534,-262,-929
1710664,-128,624,464,545,-277,-948
1710681,-120,627,474,549,-277,-938
1710697,-113,623,468,541,-268,-937
1710714,-149,601,464,540,-271,-952
1710731,-128,644,464,537,-275,-978
1710748,-119,636,463,533,-293,-959
1710779,-137,615,452,535,-281,-974
1710796,-168,593,439,531,-291,-988
1710814,-165,600,449,533,-286,-974
1710830,-154,597,454,536,-303,-952
1710847,-133,596,455,537,-284,-981
1710864,-173,594,442,534,-292,-986
1710881,-168,626,437,536,-278,-980
1710898,-178,610,440,537,-308,-984
1710915,-173,628,440,540,-290,-982
1710931,-191,593,431,537,-291,-1005
1710948,-192,600,442,535,-312,-987
1710965,-189,586,442,541,-314,-1012
1710981,-191,595,440,542,-300,-1012
1711012,-186,596,441,547,-276,-979
1711029,-186,576,443,544,-290,-999
1711046,-199,581,441,536,-327,-1008
1711063,-179,595,442,537,-290,-1016
1711080,-173,589,445,539,-293,-983
1711096,-188,563,424,540,-310,-1010
1711114,-178,594,427,540,-313,-995
1711130,-187,567,443,539,-325,-1020
1711146,-210,560,417,539,-353,-1044
1711163,-215,571,443,537,-331,-1039
1711180,-154,572,439,538,-296,-1001
1711196,-182,570,442,542,-308,-1008
1711213,-155,567,441,549,-294,-986
1711230,-162,621,444,551,-293,-1026
1711246,-146,608,449,557,-269,-980
1711264,-153,606,449,541,-270,-982
1711279,-152,601,446,543,-262,-1016
1711297,-161,591,430,548,-269,-999
1711313,-133,597,440,540,-246,-991
1711329,-129,602,439,548,-219,-975
1711347,-120,602,444,542,-237,-980
1711363,-149,596,437,550,-261,-985
1711379,-143,597,428,545,-251,-975
1711396,-152,596,430,542,-276,-1004
1711414,-118,601,448,546,-237,-980
1711430,-133,590,419,537,-275,-973
1711446,-162,560,407,537,-278,-1039
1711463,-150,593,412,537,-285,-1018
1711479,-157,593,413,536,-277,-1013
1711497,-125,598,431,538,-263,-1021
1711512,-123,626,420,546,-264,-1009
1711530,-168,582,408,541,-279,-1030
1711547,-156,580,410,536,-277,-1021
1711563,-151,573,409,536,-294,-1040
1711580,-154,631,411,539,-293,-1042
1711596,-160,628,421,546,-291,-1021
1711613,-131,611,426,541,-304,-1034
1711630,-159,619,428,556,-273,-999
1711646,-160,598,422,545,-292,-1024
1711664,-165,594,411,542,-283,-1017
1711680,-152,601,416,544,-287,-1012
1711710,-180,596,395,550,-290,-1042
1711727,-202,563,389,549,-293,-1047
1711745,-199,574,404,549,-276,-1014
1711762,-191,577,396,544,-285,-1038
1711778,-178,605,396,554,-257,-1009
1711795,-179,610,397,553,-243,-1009
1711811,-183,591,393,549,-256,-1013
1711828,-151,632,411,552,-228,-982
1711844,-153,619,409,556,-259,-1009
1711861,-170,614,403,555,-229,-1007
1711878,-163,599,415,557,-242,-1011
1711895,-152,572,388,544,-273,-1022
1711911,-194,569,383,545,-273,-1047
1711928,-197,564,379,553,-277,-1035
1711945,-201,587,381,547,-294,-1070
1711962,-189,596,382,558,-278,-1016
1711979,-195,572,396,551,-272,-1029
1711995,-145,603,398,554,-242,-1015
1712012,-188,599,414,547,-254,-1014
1712029,-142,631,415,551,-234,-967
1712059,-139,604,406,548,-227,-998
1712076,-138,633,404,544,-248,-1001
1712094,-157,623,398,549,-243,-1008
1712110,-151,686,399,555,-240,-1007
1712127,-144,693,391,557,-230,-994
1712143,-143,693,409,559,-214,-1002
1712161,-150,692,405,561,-213,-978
1712177,-163,663,383,553,-224,-1039
1712193,-173,635,386,546,-246,-1040
1712211,-171,660,380,549,-212,-999
1712227,-110,650,403,560,-248,-981
1712243,-116,652,412,561,-218,-927
1712260,-114,624,404,559,-234,-991
1712278,-131,595,416,576,-249,-971
1712294,-110,634,408,585,-224,-982
1712311,-126,638,401,587,-247,-975
1712328,-121,657,391,588,-245,-1008
1712344,-106,632,403,591,-220,-985
1712361,-107,626,401,594,-241,-1001
1712377,-132,651,377,592,-242,-1047
1712409,-93,660,396,587,-225,-1017
1712426,-113,634,388,586,-248,-1039
1712443,-127,624,383,582,-274,-1076
1712459,-127,643,383,592,-241,-1042
1712477,-119,665,388,596,-244,-1049
1712493,-126,659,395,593,-242,-1053
1712525,-89,656,413,584,-230,-1031
1712542,-89,655,416,584,-220,-1013
1712559,-91,631,410,581,-248,-1042
1712576,-132,625,379,578,-242,-1077
1712593,-124,621,403,572,-244,-1074
1712610,-98,635,412,571,-240,-1056
1712626,-97,629,400,573,-253,-1073
1712643,-122,627,387,576,-246,-1075
1712659,-119,639,394,571,-255,-1073
1712676,-129,635,382,574,-243,-1103
1712693,-117,602,382,566,-245,-1105
1712710,-94,606,391,575,-250,-1095
1712726,-132,595,373,568,-283,-1142
1712757,-120,620,382,567,-270,-1114
1712774,-146,593,384,565,-286,-1120
1712792,-109,604,388,568,-284,-1130
1712808,-130,608,386,565,-272,-1176
1712826,-111,625,389,573,-268,-1152
1712842,-127,622,380,572,-266,-1149
1712874,-90,621,400,571,-229,-1134
1712892,-69,607,403,567,-219,-1126
1712908,-113,636,381,563,-266,-1177
1712925,-92,647,402,565,-222,-1126
1712942,-55,659,400,563,-182,-1099
1712958,-92,600,402,566,-220,-1136
1712976,-97,603,382,557,-247,-1135
1712992,-97,592,385,555,-265,-1158
1713008,-92,601,391,550,-260,-1149
1713025,-98,591,382,554,-264,-1146
1713041,-98,600,408,562,-214,-1135
1713059,-60,609,417,563,-214,-1103
1713075,-130,590,379,549,-276,-1173
1713107,-101,595,380,543,-252,-1172
1713125,-94,600,399,546,-212,-1133
1713140,-100,599,390,544,-254,-1168
1713158,-77,603,410,548,-207,-1149
1713175,-99,597,386,540,-268,-1179
1713191,-97,574,391,550,-270,-1171
1713208,-89,612,398,557,-252,-1152
1713225,-83,600,404,552,-239,-1155
1713242,-92,605,405,552,-244,-1160
1713259,-120,588,377,555,-260,-1186
1713275,-123,600,374,548,-280,-1201
1713292,-127,598,386,555,-260,-1189
1713308,-125,590,383,542,-262,-1203
1713340,-155,573,382,548,-269,-1232
1713357,-141,587,385,546,-251,-1195
1713374,-150,599,378,545,-270,-1193
1713390,-158,598,381,543,-278,-1232
1713408,-146,601,383,542,-262,-1206
1713424,-154,603,394,546,-240,-1181
1713457,-167,573,376,548,-288,-1231
1713474,-148,599,386,552,-259,-1222
1713491,-156,595,382,545,-280,-1214
1713507,-158,589,360,541,-254,-1196
1713524,-158,575,355,543,-277,-1227
1713540,-190,561,350,534,-306,-1270
1713572,-181,562,349,535,-277,-1265
1713589,-187,566,334,537,-294,-1253
1713607,-173,566,349,546,-297,-1244
1713624,-204,557,342,539,-276,-1277
1713640,-158,587,357,540,-240,-1206
1713657,-139,587,380,542,-261,-1226
1713689,-152,589,383,546,-256,-1219
1713707,-144,632,365,535,-261,-1218
1713722,-124,624,365,549,-276,-1220
1713740,-139,609,370,539,-305,-1227
1713756,-132,591,379,543,-329,-1202
1713773,-88,615,384,547,-257,-1187
1713805,-85,606,375,536,-239,-1169
1713822,-101,625,384,545,-272,-1147
1713840,-95,620,368,543,-253,-1155
1713857,-118,629,380,541,-262,-1155
1713873,-88,661,385,536,-226,-1133
1713890,-84,649,389,535,-261,-1135
1713906,-95,623,381,536,-272,-1166
1713923,-92,632,385,537,-260,-1136
1713940,-124,609,370,541,-285,-1139
1713956,-90,630,381,540,-264,-1169
1713974,-86,629,396,538,-249,-1141
1713989,-85,630,391,545,-242,-1138
1714007,-81,670,400,549,-212,-1134
1714038,-88,634,378,538,-237,-1146
1714054,-124,622,364,542,-246,-1180
1714072,-92,629,382,543,-239,-1164
1714090,-112,624,380,532,-219,-1170
1714107,-123,598,368,535,-250,-1139
1714122,-123,592,366,539,-267,-1207
1714154,-135,597,352,532,-272,-1202
1714172,-128,595,365,531,-277,-1191
1714188,-140,598,363,535,-280,-1195
1714206,-142,595,379,532,-274,-1189
1714222,-140,599,366,529,-277,-1213
1714239,-169,599,350,524,-310,-1214
1714271,-160,600,358,538,-284,-1172
1714288,-150,592,358,537,-299,-1193
1714305,-157,598,376,531,-299,-1212
1714322,-155,592,367,534,-306,-1203
1714339,-118,615,385,534,-289,-1192
1714355,-148,604,367,543,-275,-1188
1714388,-123,627,373,533,-262,-1194
1714405,-135,592,372,534,-281,-1196
1714421,-138,636,371,532,-279,-1217
1714438,-126,627,361,532,-275,-1180
1714455,-157,608,353,524,-279,-1220
1714472,-127,622,366,531,-273,-1204
1714503,-122,621,377,532,-268,-1172
1714522,-129,630,387,533,-247,-1193
1714538,-119,611,375,527,-249,-1155
1714556,-125,603,378,535,-258,-1169
1714572,-133,635,365,525,-256,-1166
1714589,-147,629,364,528,-241,-1163
1714620,-140,601,372,522,-249,-1163
1714638,-137,629,375,527,-261,-1134
1714655,-146,596,372,526,-255,-1132
1714671,-151,603,369,521,-253,-1129
1714688,-151,601,371,521,-279,-1169
1714705,-121,626,362,525,-279,-1151
1714737,-155,606,365,518,-321,-1152
1714754,-175,604,350,519,-323,-1164
1714771,-162,589,360,519,-343,-1198
1714788,-152,595,383,526,-282,-1121
1714805,-145,590,375,520,-281,-1137
1714821,-163,574,361,520,-305,-1137
1714838,-150,593,373,521,-275,-1129
1714854,-145,590,361,525,-294,-1134
1714871,-154,602,361,515,-267,-1129
1714887,-157,596,351,514,-283,-1117
1714905,-157,588,352,514,-282,-1133
1714921,-131,599,380,510,-252,-1084
1714937,-157,594,364,529,-272,-1098
1714969,-132,645,388,528,-252,-1074
1714986,-150,622,370,520,-271,-1071
1715004,-173,588,357,516,-295,-1086
1715020,-163,561,352,516,-285,-1110
1715037,-160,569,364,525,-260,-1073
1715054,-153,578,368,519,-258,-1035
1715085,-115,592,378,516,-247,-1042
1715103,-162,631,366,525,-250,-1033
1715119,-145,619,367,514,-255,-1036
1715137,-152,606,365,519,-267,-1046
1715154,-154,604,369,518,-237,-1029
1715169,-144,601,388,524,-228,-1025
1715202,-131,624,381,518,-220,-1005
1715220,-120,628,381,516,-215,-996
1715236,-129,602,381,513,-216,-993
1715253,-158,597,368,513,-239,-1012
1715269,-131,656,382,519,-217,-1008
1715287,-128,638,361,514,-226,-975
1715318,-97,654,379,517,-184,-958
1715335,-92,657,382,515,-208,-973
1715352,-128,600,347,509,-229,-999
1715370,-88,598,379,509,-226,-990
1715387,-128,592,368,503,-221,-991
1715403,-91,615,386,499,-233,-1002
1715435,-98,624,379,504,-260,-995
1715452,-88,613,378,515,-238,-978
1715469,-93,603,379,505,-254,-998
1715485,-89,602,395,509,-243,-988
1715503,-99,588,378,506,-255,-1005
1715519,-88,605,393,510,-208,-967
1715551,-93,632,384,510,-245,-1015
1715569,-96,621,369,507,-241,-989
1715586,-77,626,374,509,-215,-997
1715601,-103,617,361,508,-249,-1000
1715619,-94,634,379,501,-209,-981
1715636,-103,594,363,501,-231,-986
1715668,-96,629,376,504,-234,-977
1715685,-91,604,383,501,-223,-998
1715702,-96,624,371,502,-238,-999
1715719,-131,598,355,498,-243,-1017
1715735,-123,624,350,495,-254,-1021
1715751,-147,629,353,494,-279,-1052
1715784,-90,625,370,501,-216,-979
1715802,-88,626,386,491,-213,-984
1715818,-127,622,356,497,-211,-990
1715834,-126,626,364,486,-208,-1012
1715851,-111,602,353,489,-251,-1020
1715868,-155,599,370,486,-229,-1018
1715900,-143,637,367,492,-225,-1001
1715918,-122,624,370,498,-210,-992
1715935,-158,589,354,493,-251,-1022
1715950,-161,606,353,496,-265,-1014
1715968,-153,600,363,487,-251,-1030
1715987,-156,591,357,488,-243,-1014
1716017,-164,584,366,484,-248,-1013
1716034,-154,566,362,487,-237,-1009
1716051,-187,557,347,483,-255,-1027
1716068,-166,573,353,490,-221,-1015
1716085,-176,581,354,491,-210,-988
1716101,-142,646,351,485,-181,-975
1716134,-151,631,348,480,-208,-1001
1716151,-153,626,351,480,-215,-1018
1716168,-154,619,346,486,-217,-1023
1716184,-158,603,352,474,-238,-1036
1716201,-193,568,329,475,-258,-1040
1716218,-148,607,354,472,-245,-1049
1716250,-166,592,343,481,-282,-1030
1716267,-153,601,349,480,-250,-1021
1716284,-153,595,350,473,-276,-1027
1716301,-151,579,347,481,-255,-1014
1716317,-171,564,337,471,-282,-1033
1716334,-156,563,339,469,-291,-1032
1716366,-159,570,333,471,-261,-997
1716384,-169,569,343,472,-247,-1024
1716400,-154,596,337,472,-240,-1001
1716417,-156,579,326,461,-263,-1031
1716434,-213,575,316,454,-287,-1064
1716450,-153,593,331,463,-261,-1022
1716482,-178,574,329,458,-259,-1003
1716500,-182,568,349,467,-248,-1026
1716516,-183,562,333,465,-288,-1040
1716533,-179,571,342,463,-246,-1002
1716550,-184,569,335,459,-274,-1023
1716567,-176,571,336,463,-273,-1034
1716599,-195,556,330,460,-254,-1005
1716615,-198,564,346,466,-268,-1015
1716633,-203,528,351,464,-272,-997
1716649,-210,520,340,463,-259,-1012
1716666,-185,544,354,467,-250,-997
1716683,-203,575,352,465,-275,-1010
1716715,-208,561,342,463,-261,-1003
1716733,-221,531,320,455,-286,-1029
1716749,-205,540,325,462,-259,-1013
1716766,-190,534,317,449,-278,-1013
1716783,-197,530,343,457,-255,-1007
1716799,-176,566,350,458,-244,-974
1716832,-191,586,329,454,-248,-992
1716850,-183,567,330,459,-221,-975
1716866,-185,543,333,460,-249,-959
1716883,-186,537,329,461,-204,-962
1716899,-189,534,338,459,-247,-951
1716916,-181,533,337,459,-264,-970
1716948,-153,534,358,461,-235,-929
1716964,-140,529,358,465,-244,-920
1716982,-146,536,354,454,-252,-937
1716999,-123,539,354,448,-244,-919
1717016,-135,533,353,449,-244,-929
1717033,-92,556,350,443,-245,-905
1717064,-127,515,353,447,-264,-934
1717081,-120,499,349,451,-263,-934
1717098,-118,492,351,448,-245,-947
1717115,-123,501,357,450,-262,-919
1717132,-124,473,351,442,-276,-954
1717150,-130,485,347,444,-281,-960
1717181,-151,471,343,445,-296,-950
1717198,-111,471,366,457,-272,-941
1717215,-127,448,350,445,-285,-950
1717232,-137,449,359,452,-286,-915
1717249,-130,438,347,450,-300,-960
1717265,-136,432,345,448,-285,-949
1717297,-133,408,353,441,-286,-963
1717314,-151,397,320,449,-283,-972
1717332,-143,391,345,443,-323,-982
1717348,-162,410,330,452,-328,-986
1717365,-144,391,346,451,-303,-953
1717382,-152,381,338,445,-303,-997
1717413,-184,333,323,440,-339,-998
1717431,-201,298,326,432,-323,-992
1717450,-176,326,320,437,-361,-982
1717464,-156,325,339,436,-362,-979
1717481,-192,294,320,443,-372,-989
1717498,-181,282,330,439,-381,-1009
1717529,-181,288,326,438,-404,-1017
1717547,-196,275,317,441,-392,-1049
1717564,-188,270,329,442,-403,-1012
1717581,-155,271,344,450,-376,-972
1717598,-165,274,335,448,-389,-993
1717614,-184,248,327,438,-409,-1011
1717646,-162,255,339,444,-373,-980
1717664,-174,278,317,443,-400,-1019
1717680,-154,292,331,438,-394,-986
1717697,-153,273,353,469,-382,-950
1717714,-152,257,355,481,-420,-989
1717730,-185,240,338,484,-440,-1054
1717762,-151,259,361,491,-374,-981
1717780,-149,255,351,494,-408,-980
1717798,-168,256,368,500,-449,-1014
1717814,-150,255,356,502,-407,-1008
1717831,-194,241,342,490,-411,-1013
1717847,-188,245,351,483,-436,-1039
1717879,-192,244,331,464,-420,-1034
1717896,-171,228,334,457,-422,-1020
1717913,-206,237,321,439,-471,-1079
1717931,-205,232,316,444,-467,-1065
1717947,-206,218,339,445,-449,-1051
1717963,-205,217,323,436,-445,-1057
1717995,-178,212,352,446,-435,-1012
1718012,-181,206,340,451,-467,-1036
1718029,-214,190,323,450,-490,-1076
1718046,-180,220,352,458,-451,-1058
1718063,-178,246,348,457,-434,-1012
1718081,-180,263,354,458,-439,-1059
1718113,-157,261,354,463,-410,-995
1718130,-176,246,356,456,-405,-1013
1718146,-201,246,325,440,-436,-1045
1718163,-201,242,333,446,-465,-1051
1718179,-201,232,336,444,-464,-1049
1718196,-201,230,341,446,-437,-1040
1718228,-232,212,324,446,-484,-1074
1718245,-241,247,336,457,-466,-1076
1718262,-246,237,326,461,-475,-1070
1718279,-226,239,334,463,-481,-1068
1718296,-228,226,355,466,-479,-1072
1718312,-241,227,329,463,-472,-1073
1718329,-295,198,330,464,-499,-1097
1718362,-228,246,356,459,-453,-1062
1718379,-257,290,336,461,-467,-1077
1718396,-223,310,347,460,-443,-1031
1718412,-255,266,320,453,-450,-1082
1718429,-219,276,338,456,-443,-1055
1718446,-219,274,336,448,-470,-1058
1718463,-216,270,352,448,-446,-1066
1718496,-237,274,329,447,-447,-1090
1718527,-211,322,342,447,-464,-1097
1718545,-229,313,334,447,-459,-1104
1718562,-215,305,336,447,-445,-1106
1718580,-217,298,353,456,-448,-1071
1718613,-238,280,329,454,-460,-1102
1718629,-228,296,324,454,-463,-1102
1718647,-232,299,339,456,-471,-1104
1718662,-243,272,329,452,-483,-1113
1718679,-228,295,336,456,-458,-1104
1718697,-208,382,346,456,-437,-1074
1718713,-185,336,337,446,-440,-1068
1718743,-239,326,331,438,-469,-1131
1718761,-264,311,313,437,-485,-1152
1718778,-244,339,331,448,-436,-1114
1718794,-233,339,331,439,-409,-1067
1718811,-192,371,354,443,-375,-1076
1718828,-198,362,340,446,-386,-1067
1718860,-194,388,341,452,-367,-1057
1718878,-197,454,355,442,-369,-1051
1718894,-183,426,342,438,-375,-1066
1718913,-190,415,336,438,-388,-1044
1718928,-170,440,359,447,-369,-1041
1718945,-193,419,345,434,-380,-1067
1718961,-215,400,332,438,-402,-1038
1718994,-229,430,323,431,-418,-1070
1719012,-243,417,328,431,-409,-1074
1719027,-207,434,332,442,-410,-1066
1719045,-216,439,342,443,-416,-1078
1719060,-233,442,335,439,-410,-1069
1719077,-217,449,340,434,-398,-1055
1719109,-228,445,351,441,-412,-1061
1719127,-216,476,355,454,-398,-1067
1719143,-216,502,354,449,-384,-1057
1719160,-223,494,351,447,-401,-1063
1719176,-223,483,348,442,-405,-1066
1719194,-221,491,345,451,-416,-1058
1719225,-213,497,354,461,-387,-1034
1719242,-230,502,347,450,-413,-1040
1719260,-206,507,354,455,-380,-1029
1719276,-236,501,345,447,-415,-1052
1719293,-181,510,385,466,-383,-1033
1719310,-177,511,400,492,-373,-1019
1719342,-178,510,389,469,-399,-1044
1719360,-185,526,367,451,-352,-1038
1719376,-168,543,378,455,-336,-1018
1719393,-187,539,375,455,-371,-1052
1719410,-178,570,380,459,-353,-1040
1719426,-173,562,376,454,-354,-1046
1719459,-161,563,378,447,-331,-1038
1719475,-181,530,366,454,-359,-1040
1719493,-157,537,377,451,-357,-1021
1719509,-151,567,392,462,-313,-1020
1719526,-174,525,373,454,-353,-1017
1719543,-156,570,388,461,-327,-1020
1719574,-187,531,370,451,-344,-1020
1719592,-169,543,375,449,-316,-1006
1719608,-147,555,384,456,-301,-1005
1719626,-182,527,378,449,-336,-1033
1719643,-161,537,385,441,-308,-1011
1719658,-151,541,390,434,-288,-1012
1719691,-129,570,393,451,-271,-974
1719708,-101,570,415,444,-251,-970
1719725,-133,588,405,444,-263,-981
1719742,-108,623,416,456,-215,-951
1719759,-157,627,390,446,-285,-984
1719776,-139,646,412,457,-258,-994
1719808,-127,630,411,442,-236,-998
1719826,-137,631,408,446,-264,-1006
1719842,-124,630,412,425,-261,-1008
1719858,-125,644,415,420,-244,-990
1719875,-158,624,412,430,-246,-989
1719892,-139,627,408,429,-247,-993
1719925,-137,671,414,450,-239,-984
1719942,-159,630,410,450,-248,-994
1719959,-156,636,408,453,-247,-979
1719975,-142,653,416,448,-236,-1008
1719992,-171,660,400,460,-247,-1028
1720009,-167,636,401,447,-265,-1051
1720040,-160,658,406,443,-214,-1016
1720058,-136,655,413,444,-226,-1002
1720076,-150,655,412,444,-213,-1003
1720094,-161,646,412,448,-219,-1014
1720110,-145,622,406,452,-247,-1038
1720127,-150,672,409,441,-246,-1037
1720156,-134,723,417,436,-236,-1011
1720174,-128,693,414,314,-243,-1029
1720190,-128,683,413,320,-232,-1044
1720207,-139,654,407,312,-244,-1041
1720224,-183,638,386,315,-268,-1072
1720241,-146,652,401,334,-235,-1018
1720257,-161,652,393,321,-238,-1045
1720275,-158,626,409,324,-242,-1029
1720292,-169,654,386,313,-248,-1065
1720308,-186,626,384,317,-278,-1057
1720324,-190,627,394,317,-236,-1037
1720341,-166,631,418,322,-245,-1031
1720358,-144,634,398,301,-229,-1036
1720389,-165,624,397,301,-269,-1046
1720407,-190,599,379,296,-277,-1078
1720423,-185,605,387,297,-258,-1060
1720440,-194,608,382,291,-260,-1048
1720458,-201,625,373,297,-268,-1047
1720474,-189,663,384,287,-272,-1077
1720491,-187,638,383,287,-252,-1043
1720508,-173,636,397,298,-237,-1004
1720525,-205,602,383,293,-273,-1074
1720541,-183,637,398,310,-236,-1024
1720558,-184,623,392,310,-214,-993
1720575,-198,620,387,310,-227,-1007
1720591,-184,626,386,302,-220,-1006
1720623,-179,627,395,307,-221,-1006
1720640,-206,595,380,305,-213,-1011
1720657,-205,621,386,303,-221,-1006
1720674,-210,634,383,314,-226,-1006
1720690,-204,621,384,310,-229,-991
1720707,-208,622,402,317,-236,-988
1720738,-214,601,397,318,-247,-988
1720755,-175,624,409,328,-201,-942
1720772,-187,620,409,323,-213,-952
1720790,-205,590,380,322,-232,-950
1720806,-198,610,409,329,-213,-924
1720823,-175,632,413,337,-209,-922
1720856,-181,611,386,347,-217,-924
1720873,-176,659,414,341,-213,-909
1720890,-191,633,400,340,-219,-923
1720906,-155,639,393,350,-214,-912
1720923,-187,622,386,426,-219,-954
1720940,-174,625,384,482,-215,-925
1720957,-191,621,379,480,-233,-949
1720974,-149,631,396,493,-189,-908
1720991,-139,633,410,499,-181,-914
1721008,-162,620,381,480,-183,-931
1721024,-152,627,390,483,-180,-933
1721041,-128,650,391,235,-180,-904
1721057,-136,710,402,249,-155,-897
1721088,-179,662,382,258,-244,-968
1721104,-148,698,384,267,-208,-932
1721122,-125,663,414,277,-194,-921
1721138,-138,663,408,271,-215,-930
1721156,-128,675,393,255,-207,-916
1721172,-81,684,451,260,-141,-866
1721189,-120,644,423,281,-199,-878
1721206,-148,644,382,266,-215,-959
1721222,-152,724,380,226,-231,-943
1721239,-154,698,385,239,-215,-936
1721256,-125,711,429,259,-168,-913
1721273,-113,702,413,273,-159,-900
1721290,-191,646,361,251,-276,-998
1721320,-133,694,408,264,-197,-924
1721337,-158,669,399,263,-190,-956
1721355,-150,653,386,281,-218,-955
1721372,-151,649,396,279,-204,-920
1721388,-144,665,406,279,-190,-940
1721405,-148,669,386,280,-194,-909
1721421,-210,618,376,281,-249,-987
1721438,-177,628,387,283,-237,-999
1721455,-203,616,379,291,-266,-975
1721472,-156,657,410,303,-208,-947
1721488,-191,618,387,296,-256,-952
1721505,-174,626,384,253,-221,-952
1721521,-163,633,396,225,-212,-915
1721538,-181,614,380,221,-223,-936
1721554,-199,595,358,219,-234,-951
1721571,-223,588,357,233,-226,-960
1721588,-185,610,377,257,-203,-921
1721605,-159,627,382,268,-186,-913
1721621,-152,629,371,269,-211,-937
1721638,-175,676,383,282,-221,-948
1721655,-148,680,379,280,-212,-929
1721671,-173,640,380,285,-247,-976
1721688,-138,670,383,296,-225,-950
1721704,-119,699,416,314,-186,-909
1721721,-119,697,407,316,-186,-898
1721738,-119,682,409,305,-197,-923
1721754,-90,679,395,305,-192,-899
1721772,-130,655,383,302,-221,-946
1721788,-122,652,400,314,-192,-910
1721829,-117,664,404,313,-184,-887
1721852,-122,691,385,294,-218,-900
1721870,-96,682,400,298,-184,-896
1721902,-91,648,385,310,-216,-870
1721920,-103,643,386,299,-233,-897
1721937,-93,657,404,273,-210,-875
1721953,-89,663,403,279,-211,-856
1721971,-46,696,415,289,-185,-835
1721987,-86,691,417,296,-213,-865
1722019,-124,697,397,290,-224,-886
1722036,-60,741,418,297,-216,-848
1722054,-64,721,429,299,-246,-876
1722070,-28,757,429,306,-209,-855
1722087,-76,725,410,301,-224,-886
1722103,-95,702,389,292,-246,-898
1722135,-118,697,374,281,-226,-905
1722152,-120,689,404,284,-252,-924
1722170,-110,689,390,289,-241,-910
1722187,-132,683,388,280,-262,-927
1722203,-109,692,418,304,-217,-862
1722220,-93,687,423,304,-250,-866
1722236,-111,679,413,298,-249,-891
1722253,-107,738,423,293,-240,-851
1722270,-102,728,416,304,-255,-855
1722287,-95,682,417,301,-225,-862
1722303,-93,661,416,313,-183,-824
1722320,-123,660,410,305,-186,-831
1722337,-102,680,413,311,-180,-839
1722368,-107,690,409,310,-177,-835
1722385,-139,724,384,306,-201,-864
1722403,-113,760,391,310,-190,-841
1722419,-125,701,380,311,-211,-862
1722435,-154,679,378,305,-189,-847
1722453,-151,663,384,311,-185,-843
1722469,-128,655,389,307,-205,-842
1722486,-118,667,387,310,-195,-853
1722503,-132,652,378,306,-205,-861
1722519,-119,654,388,315,-184,-813
1722537,-122,621,383,311,-231,-855
1722553,-123,666,396,314,-181,-810
1722570,-115,708,394,316,-207,-810
1722601,-97,660,391,323,-186,-779
1722619,-128,656,392,311,-203,-787
1722634,-125,640,402,317,-237,-781
1722651,-98,660,424,318,-149,-713
1722668,-91,637,417,329,-122,-723
1722686,-110,631,418,325,-112,-682
1722702,-127,602,412,307,-152,-709
1722718,-129,597,410,284,-156,-726
1722735,-125,599,410,287,-126,-715
1722752,-121,614,412,277,-144,-680
1722769,-131,621,391,281,-142,-733
1722785,-125,630,396,284,-143,-693
1722802,-161,623,387,284,-160,-729
1722834,-128,643,407,297,-141,-685
1722851,-145,601,382,277,-173,-723
1722868,-149,613,395,279,-167,-700
1722884,-142,627,391,287,-168,-673
1722902,-154,638,402,290,-165,-681
1722918,-116,642,416,281,-124,-624
1722935,-149,602,383,263,-184,-630
1722952,-159,604,385,281,-145,-664
1722968,-140,598,402,290,-151,-596
1722985,-152,591,382,300,-159,-601
1723001,-154,595,395,296,-171,-627
1723018,-144,599,394,313,-122,-566
1723035,-151,602,396,313,-115,-540
1723052,-149,599,398,296,-87,-538
1723068,-151,603,412,287,-94,-534
1723084,-157,589,386,283,-147,-585
1723102,-153,567,407,289,-147,-559
1723118,-185,557,378,307,-191,-605
1723134,-191,533,398,309,-184,-559
1723151,-184,540,395,318,-173,-573
1723168,-225,531,381,309,-197,-571
1723184,-206,543,398,318,-175,-547
1723201,-229,541,391,313,-162,-534
1723218,-208,607,384,317,-192,-528
1723234,-227,659,398,314,-244,-559
1723252,-227,660,381,308,-304,-601
1723268,-248,633,383,313,-312,-592
1723299,-237,628,386,316,-291,-591
1723317,-257,617,381,312,-303,-593
1723334,-246,606,379,305,-306,-595
1723350,-259,602,377,312,-301,-593
1723367,-205,635,399,314,-256,-539
1723383,-226,631,378,323,-270,-541
1723400,-227,630,397,325,-272,-562
1723417,-210,633,405,316,-252,-504
1723434,-226,662,411,315,-256,-540
1723450,-226,678,400,304,-268,-538
1723467,-218,659,404,304,-243,-517
1723484,-211,666,392,305,-272,-541
1723500,-214,671,409,298,-260,-530
1723517,-211,659,406,310,-246,-515
1723534,-222,655,415,307,-235,-525
1723551,-210,661,414,308,-240,-500
1723568,-219,625,416,296,-255,-525
1723585,-223,632,402,300,-250,-531
1723601,-248,676,401,299,-279,-564
1723617,-278,663,381,283,-275,-574
1723648,-249,628,396,284,-254,-537
1723665,-257,632,390,285,-266,-541
1723683,-262,624,386,282,-259,-545
1723699,-268,605,389,280,-265,-531
1723717,-247,631,386,281,-236,-529
1723734,-258,624,390,280,-233,-512
1723765,-262,630,383,282,-225,-504
1723781,-243,657,384,286,-210,-493
1723799,-261,631,392,286,-218,-490
1723816,-259,630,384,281,-251,-498
1723832,-263,620,385,304,-249,-511
1723849,-262,608,384,296,-240,-489
1723882,-270,664,383,305,-225,-479
1723900,-264,627,393,313,-230,-478
1723916,-233,626,382,315,-247,-486
1723932,-228,627,406,324,-240,-472
1723949,-240,601,380,330,-263,-479
1723966,-248,589,385,330,-284,-505
1723998,-248,566,383,339,-242,-478
1724015,-251,566,358,332,-247,-512
1724032,-258,529,366,335,-242,-539
1724049,-263,560,361,330,-244,-506
1724065,-282,550,352,332,-266,-543
1724082,-273,534,353,337,-262,-550
1724114,-251,542,355,338,-224,-531
1724132,-243,539,366,340,-216,-540
1724148,-249,528,363,339,-226,-511
1724165,-246,561,359,339,-243,-531
1724181,-247,565,368,339,-213,-517
1724198,-214,565,379,339,-209,-492
1724216,-246,554,366,338,-204,-493
1724232,-234,559,359,330,-242,-545
1724248,-225,569,365,338,-244,-539
1724265,-231,533,357,341,-188,-514
1724281,-242,551,360,338,-180,-470
1724299,-257,569,358,341,-174,-478
1724315,-254,532,344,328,-181,-494
1724346,-239,539,356,335,-177,-496
1724364,-245,534,350,334,-186,-513
1724380,-216,539,357,348,-185,-498
1724398,-267,505,352,346,-196,-519
1724414,-250,546,350,344,-186,-526
1724431,-269,550,355,354,-198,-505
1724447,-249,542,355,357,-183,-510
1724465,-258,532,353,346,-199,-501
1724481,-241,530,368,343,-195,-496
1724498,-237,541,376,353,-155,-467
1724515,-232,528,355,358,-183,-466
1724531,-249,575,363,359,-189,-462
1724547,-224,562,379,367,-150,-431
1724565,-230,535,380,363,-139,-439
1724581,-212,538,385,362,-144,-422
1724599,-212,538,378,363,-138,-416
1724614,-231,527,365,369,-164,-442
1724631,-250,496,351,360,-191,-485
1724648,-260,500,365,363,-172,-473
1724665,-235,509,369,358,-161,-444
1724697,-246,507,362,354,-180,-469
1724714,-258,465,354,353,-178,-501
1724733,-244,532,357,347,-239,-511
1724747,-202,570,386,354,-206,-500
1724765,-220,562,382,324,-245,-537
1724781,-213,543,378,314,-234,-512
1724813,-198,540,381,311,-232,-529
1724830,-223,514,363,306,-251,-552
1724847,-237,508,360,303,-254,-559
1724863,-206,565,385,312,-222,-519
1724880,-215,561,378,308,-204,-531
1724896,-227,535,383,311,-222,-538
1724913,-199,521,386,318,-204,-531
1724931,-184,570,389,317,-217,-556
1724947,-184,569,383,313,-277,-570
1724963,-211,574,382,309,-273,-604
1724980,-207,605,376,305,-292,-603
1724996,-220,589,381,301,-288,-628
1725013,-206,600,376,303,-260,-626
1725045,-182,596,385,303,-288,-625
1725062,-186,595,376,309,-264,-617
1725079,-192,599,376,308,-289,-659
1725096,-204,597,374,305,-284,-623
1725113,-196,571,376,311,-292,-634
1725129,-218,562,369,307,-302,-632
1725146,-213,586,362,303,-306,-629
1725163,-214,596,367,308,-285,-635
1725180,-219,611,378,315,-273,-632
1725196,-188,600,377,311,-284,-591
1725213,-223,591,376,314,-264,-641
1725229,-193,598,376,312,-228,-626
1725246,-215,564,366,314,-225,-604
1725279,-208,589,378,315,-229,-619
1725296,-260,576,343,307,-235,-649
1725313,-246,563,355,317,-247,-679
1725329,-252,549,354,314,-258,-660
1725346,-251,561,354,313,-279,-700
1725362,-252,570,357,318,-260,-686
1725379,-269,562,346,312,-279,-692
1725411,-250,560,360,312,-256,-687
1725428,-247,564,373,313,-246,-691
1725445,-226,565,373,318,-266,-689
1725462,-241,564,373,314,-253,-710
1725478,-217,567,382,320,-238,-693
1725495,-226,596,383,316,-236,-684
1725527,-231,597,379,313,-223,-679
1725545,-232,596,380,320,-219,-687
1725562,-211,592,383,311,-214,-668
1725578,-187,601,388,318,-210,-681
1725595,-201,596,383,315,-209,-673
1725611,-195,625,384,318,-214,-670
1725644,-212,565,383,316,-206,-710
1725662,-208,561,387,317,-194,-672
1725678,-193,564,382,319,-174,-668
1725695,-224,526,393,318,-216,-722
1725711,-191,543,396,328,-180,-679
1725728,-193,533,379,313,-203,-684
1725761,-192,539,404,327,-195,-690
1725778,-176,574,409,334,-184,-679
1725795,-188,562,396,327,-201,-713
1725811,-166,598,407,331,-199,-694
1725828,-151,556,407,331,-183,-707
1725844,-157,556,403,327,-185,-698
1725877,-166,563,390,328,-189,-694
1725894,-162,569,395,333,-183,-689
1725911,-153,570,383,326,-196,-682
1725928,-147,593,386,321,-262,-722
1725944,-129,601,389,318,-271,-722
1725961,-159,567,380,315,-255,-750
1725993,-191,540,385,323,-248,-781
1726010,-232,531,360,325,-310,-771
1726027,-223,526,372,326,-300,-786
1726044,-233,497,374,321,-318,-800
1726060,-244,480,372,334,-319,-762
1726077,-210,501,386,331,-316,-750
1726111,-206,508,384,339,-270,-750
1726129,-179,578,397,338,-241,-712
1726145,-201,528,386,337,-244,-771
1726161,-212,576,385,337,-243,-744
1726178,-214,534,388,352,-286,-763
1726195,-191,543,402,366,-198,-715
1726226,-206,502,379,383,-204,-736
1726243,-195,505,391,372,-203,-743
1726260,-193,509,388,373,-206,-740
1726277,-246,479,362,369,-228,-796
1726293,-235,507,363,364,-210,-774
1726310,-216,501,378,366,-216,-784
1726326,-227,502,373,357,-217,-778
1726344,-214,500,381,362,-205,-780
1726360,-227,503,385,357,-199,-784
1726377,-218,500,377,343,-219,-784
1726393,-222,503,381,352,-211,-774
1726411,-222,489,374,345,-254,-837
1726427,-212,495,381,343,-216,-783
1726458,-202,478,385,354,-222,-784
1726475,-209,473,386,360,-208,-767
1726492,-202,472,389,354,-220,-756
1726510,-213,471,383,339,-207,-771
1726526,-200,508,380,343,-198,-777
1726543,-206,536,378,333,-184,-750
1726575,-182,533,392,339,-154,-740
1726592,-163,526,391,350,-143,-704
1726609,-151,541,406,346,-123,-729
1726626,-145,529,405,341,-156,-735
1726642,-127,573,413,352,-118,-687
1726659,-146,571,417,366,-113,-693
1726691,-131,557,430,371,-126,-704
1726708,-120,566,445,377,-122,-695
1726726,-138,564,439,373,-118,-725
1726743,-166,568,410,370,-147,-744
1726758,-152,566,418,365,-142,-716
1726775,-162,561,409,356,-145,-725
1726807,-153,555,415,354,-148,-734
1726824,-180,566,403,344,-188,-752
1726842,-188,562,406,342,-199,-745
1726858,-204,559,391,338,-220,-759
1726875,-223,556,390,349,-214,-761
1726892,-197,573,416,351,-187,-745
1726925,-197,577,392,349,-203,-732
1726942,-206,563,394,346,-195,-725
1726959,-217,576,384,341,-188,-744
1726975,-207,567,393,343,-180,-719
1726992,-177,567,403,341,-177,-701
1727009,-186,563,410,344,-180,-723
1727040,-199,578,400,342,-225,-726
1727057,-179,577,401,344,-193,-702
1727075,-184,602,392,342,-197,-686
1727091,-184,595,382,343,-214,-697
1727108,-162,594,395,346,-171,-685
1727125,-163,584,391,345,-163,-668
1727157,-162,578,380,337,-143,-690
1727174,-138,598,402,343,-117,-662
1727191,-135,604,388,336,-100,-657
1727208,-116,629,418,346,-16,-620
1727225,-133,599,390,343,-58,-645
1727241,-123,590,397,344,-39,-656
1727273,-153,572,393,347,-32,-627
1727290,-131,566,412,348,-22,-630
1727307,-139,529,386,346,-22,-666
1727324,-149,509,389,346,-37,-657
1727341,-120,519,411,351,-26,-629
1727357,-146,506,399,350,-25,-664
1727389,-144,510,415,356,6,-645
1727407,-132,515,411,360,27,-615
1727424,-117,569,424,358,51,-613
1727440,-112,548,391,352,50,-640
1727457,-148,538,400,359,64,-600
1727474,-156,497,392,341,1,-625
1727506,-130,492,401,355,-113,-563
1727523,-85,496,426,355,8,-527
1727541,-82,449,442,356,43,-681
1727558,-115,564,372,407,-9,-536
1727573,-159,517,399,399,-43,-629
1727590,-170,528,379,407,-30,-607
1727622,-188,544,394,407,-44,-639
1727640,-132,513,415,409,-64,-621
1727656,-85,489,444,405,-59,-593
1727673,-158,565,396,412,-68,-613
1727690,-143,552,410,409,-67,-608
1727707,-147,543,439,410,-50,-626
1727739,-152,524,409,405,-55,-631
1727755,-151,575,422,402,-59,-634
1727773,-81,525,453,416,-59,-650
1727789,-138,550,431,404,-100,-643
1727806,-115,538,440,408,-83,-670
1727823,-146,596,413,407,-119,-669
1727856,-72,505,452,410,-127,-663
1727873,-170,579,404,410,-78,-659
1727889,-63,490,455,423,-168,-654
1727906,-177,544,403,401,-154,-736
1727923,-113,483,427,413,-194,-694
1727940,-146,530,448,408,-182,-726
1727972,-166,492,430,404,-236,-727
1727989,-189,583,394,409,-205,-730
1728005,-142,529,421,404,-204,-713
1728021,-157,583,409,407,-215,-698
1728039,-134,555,412,405,-196,-718
1728056,-125,561,420,418,-196,-707
1728088,-129,589,402,415,-216,-747
1728106,-140,565,396,426,-217,-770
1728122,-118,574,410,417,-213,-714
1728139,-137,545,412,417,-212,-750
1728155,-148,532,401,414,-217,-747
1728173,-126,522,413,414,-204,-744
1728204,-144,495,381,410,-259,-765
1728222,-109,528,395,415,-204,-749
1728238,-152,490,370,403,-222,-782
1728255,-149,511,370,416,-216,-765
1728272,-98,541,385,417,-174,-746
1728289,-100,561,414,420,-95,-697
1728321,-115,566,384,416,-114,-683
1728337,-145,582,375,418,-98,-698
1728355,-110,613,387,436,-94,-708
1728371,-116,629,398,428,-91,-715
1728388,-113,611,401,424,-95,-726
1728405,-93,627,406,426,-54,-684
1728438,-68,658,417,431,-52,-664
1728454,-37,665,439,434,-79,-688
1728472,-67,654,422,427,-116,-687
1728489,-15,622,443,429,-116,-694
1728504,-72,578,423,431,-98,-694
1728521,-52,578,421,437,-97,-693
1728554,-159,608,380,429,-121,-725
1728571,-49,534,436,436,-110,-714
1728588,-184,568,365,425,-111,-767
1728604,-134,525,415,430,-147,-761
1728621,-119,547,421,441,-133,-751
1728638,-124,528,406,431,-161,-787
1728670,-120,456,420,426,-156,-809
1728687,-133,531,384,438,-125,-780
1728703,-111,447,401,437,-146,-806
1728721,-190,495,353,436,-156,-847
1728737,-79,408,431,450,-117,-802
1728754,-57,531,403,430,-147,-784
1728786,-131,438,379,441,-206,-840
1728803,-116,444,408,438,-190,-822
1728821,-101,407,408,441,-224,-813
1728837,-115,461,400,444,-219,-804
1728854,-140,427,384,442,-245,-865
1728871,-111,392,395,446,-217,-815
1728903,-170,407,360,444,-271,-874
1728920,-161,390,388,451,-276,-851
1728952,-134,423,388,454,-264,-837
1728970,-148,417,381,450,-270,-860
1728987,-171,439,375,461,-264,-871
1729020,-150,464,377,459,-257,-868
1729037,-144,440,383,455,-246,-865
1729054,-113,456,397,462,-219,-839
1729070,-124,441,378,465,-226,-849
1729087,-129,429,385,454,-245,-850
1729103,-125,432,385,462,-247,-820
1729135,-92,501,401,470,-256,-802
1729153,-76,539,416,474,-173,-771
1729169,-72,534,400,474,-151,-756
1729186,-59,545,416,474,-157,-759
1729203,-60,536,400,480,-152,-750
1729220,-63,535,408,485,-125,-745
1729252,-67,571,396,484,-108,-708
1729270,-67,568,388,489,-92,-688
1729286,-93,575,405,495,-44,-691
1729302,-72,569,410,500,-30,-691
1729319,-48,605,424,504,7,-658
1729336,-62,587,411,492,-41,-659
1729368,-79,493,415,472,-127,-704
1729386,-232,288,318,443,-397,-930
1729403,-168,107,307,445,-639,-923
1729418,-418,312,223,429,-357,-1107
1729435,-320,284,243,438,-326,-1078
1729453,-325,403,259,441,-258,-959
1729485,-357,380,258,441,-276,-956
1729502,-291,400,299,452,-279,-914
1729518,-320,320,307,463,-284,-965
1729536,-283,312,300,469,-350,-935
1729552,-379,387,281,455,-295,-995
1729569,-328,359,325,480,-287,-968
1729601,-329,378,298,465,-321,-977
1729619,-275,362,321,457,-314,-993
1729635,-262,371,327,460,-337,-970
1729652,-261,334,348,459,-343,-1024
1729668,-213,297,356,462,-382,-1004
1729685,-303,317,356,457,-373,-1013
1729717,-266,289,328,450,-404,-1038
1729734,-223,342,345,452,-404,-990
1729751,-229,290,346,463,-383,-967
1729769,-218,294,349,460,-448,-1020
1729784,-173,272,378,465,-418,-937
1729802,-247,363,342,461,-324,-1042
1729834,-191,231,365,454,-461,-1028
1729852,-289,355,309,447,-453,-1046
1729868,-217,264,362,463,-423,-995
1729885,-228,309,351,463,-393,-1021
1729902,-295,243,342,455,-463,-1049
1729919,-257,275,316,457,-442,-1048
1729950,-281,303,336,459,-408,-1058
1729968,-244,243,341,448,-401,-1034
1729984,-245,271,333,450,-420,-1040
1730001,-206,280,353,445,-413,-1018
1730018,-247,258,337,452,-446,-1030
1730034,-201,276,350,439,-402,-1005
1730066,-234,259,326,457,-433,-1042
1730084,-252,272,326,442,-407,-998
1730101,-284,231,305,416,-460,-1018
1730118,-218,299,328,419,-450,-981
1730134,-209,280,330,413,-481,-991
1730151,-220,267,326,409,-478,-1015
1730183,-228,254,345,403,-475,-990
1730201,-192,269,357,411,-437,-959
1730217,-214,238,309,395,-477,-987
1730233,-207,291,337,411,-435,-957
1730251,-218,272,332,402,-433,-964
1730267,-185,303,346,404,-378,-924
1730299,-217,260,327,405,-375,-915
1730317,-167,292,358,404,-349,-902
1730333,-166,282,351,402,-367,-912
1730350,-127,257,358,398,-395,-898
1730366,-194,172,354,398,-413,-972
1730384,-158,259,359,384,-409,-948
1730416,-188,297,323,402,-414,-1009
1730433,-247,296,316,401,-439,-987
1730450,-205,225,355,381,-458,-964
1730467,-274,276,318,378,-378,-984
1730483,-206,209,358,407,-372,-920
1730500,-218,251,346,386,-356,-914
1730532,-248,226,324,378,-369,-940
1730550,-230,187,335,386,-360,-962
1730570,-277,116,326,374,-418,-988
1730583,-272,167,330,384,-394,-971
1730599,-206,147,345,382,-409,-983
1730616,-268,123,322,375,-421,-1021
1730648,-272,123,323,375,-398,-1029
1730665,-244,82,340,381,-460,-1025
1730682,-250,85,357,384,-426,-1013
1730699,-257,109,332,386,-483,-1061
1730717,-242,86,364,393,-463,-1049
1730733,-276,105,337,378,-449,-1045
1730765,-251,137,323,396,-379,-979
1730783,-266,-47,354,383,-391,-1047
1730799,-287,168,324,394,-376,-956
1730816,-251,69,339,390,-398,-1041
1730833,-277,26,314,389,-403,-1027
1730850,-284,128,353,399,-406,-992
1730881,-279,101,329,380,-414,-986
1730898,-271,94,342,382,-356,-985
1730915,-299,183,316,381,-380,-1029
1730932,-261,149,328,385,-406,-1030
1730949,-280,145,331,380,-391,-1008
1730966,-277,148,337,390,-414,-1031
1730997,-269,135,351,383,-437,-1036
1731014,-247,158,355,397,-405,-1003
1731031,-235,141,350,393,-410,-1018
1731049,-216,146,357,395,-410,-989
1731065,-229,152,350,393,-393,-984
1731082,-231,157,351,391,-415,-955
1731131,-200,199,344,399,-405,-954
1731147,-255,132,328,380,-461,-989
1731165,-177,215,360,398,-395,-923
1731181,-186,245,350,399,-466,-952
1731197,-181,268,352,393,-507,-984
1731214,-212,262,337,395,-544,-1009
1731232,-207,282,321,394,-533,-1006
1731249,-219,316,333,395,-511,-995
1731266,-250,254,313,392,-516,-1016
1731282,-208,270,340,404,-489,-947
1731299,-176,290,349,406,-455,-944
1731315,-157,309,346,405,-410,-911
1731333,-189,281,332,408,-419,-923
1731363,-158,298,350,406,-407,-894
1731380,-147,303,360,412,-387,-879
1731397,-130,325,373,415,-369,-886
1731414,-127,337,382,408,-381,-843
1731430,-93,328,374,413,-394,-830
1731448,-145,357,379,410,-409,-776
1731464,-118,295,372,403,-426,-790
1731481,-129,397,379,405,-421,-715
1731498,-126,336,373,407,-464,-752
1731515,-151,327,391,414,-438,-741
1731531,-171,356,372,411,-464,-750
1731548,-187,321,380,417,-494,-766
1731564,-179,300,371,402,-461,-772
1731581,-210,314,374,421,-464,-774
1731597,-178,300,383,429,-446,-787
1731614,-223,273,382,422,-450,-823
1731631,-184,257,376,427,-475,-800
1731647,-211,219,375,435,-436,-802
1731664,-188,211,382,426,-468,-820
1731681,-215,247,376,422,-448,-795
1731697,-190,171,390,429,-508,-879
1731714,-226,270,378,432,-451,-838
1731731,-169,147,429,438,-455,-845
1731747,-253,328,411,442,-428,-846
1731765,-148,49,412,431,-537,-840
1731780,-256,239,376,432,-491,-831
1731798,-229,88,404,425,-478,-933
1731830,-217,134,415,436,-493,-905
1731847,-226,118,403,439,-522,-902
1731863,-209,126,421,439,-540,-894
1731880,-281,186,381,431,-440,-976
1731897,-237,50,397,432,-513,-926
1731914,-303,195,347,437,-519,-961
1731946,-333,201,366,439,-487,-949
1731963,-302,119,376,435,-456,-1008
1731980,-256,139,385,444,-478,-951
1731997,-344,166,347,431,-470,-1056
1732012,-317,146,379,436,-485,-1007
1732030,-324,222,337,429,-488,-977
1732063,-389,251,338,419,-497,-1110
1732080,-269,193,395,429,-434,-1011
1732096,-284,180,376,424,-442,-969
1732113,-306,205,375,426,-404,-979
1732129,-213,189,404,421,-428,-1004
1732146,-295,128,383,422,-437,-1008
1732163,-309,162,385,438,-472,-1062
1732180,-283,118,372,432,-418,-995
1732196,-297,196,370,433,-472,-1054
1732213,-257,98,392,437,-472,-1026
1732229,-337,239,360,438,-396,-1038
1732246,-266,160,398,447,-378,-1053
1732263,-295,193,390,449,-401,-1038
1732280,-247,226,417,440,-355,-1036
1732296,-259,227,415,439,-370,-1040
1732312,-209,233,421,460,-354,-990
1732330,-265,250,410,453,-351,-1021
1732346,-231,308,421,457,-356,-998
1732363,-223,285,424,444,-359,-1014
1732380,-243,325,410,451,-348,-993
1732411,-213,377,412,449,-376,-987
1732429,-242,332,412,447,-360,-975
1732444,-227,362,410,449,-384,-1022
1732461,-231,372,416,464,-370,-980
1732479,-184,378,418,467,-340,-977
1732495,-221,340,418,470,-379,-1008
1732512,-225,386,389,455,-353,-1012
1732529,-220,341,404,458,-393,-1009
1732545,-177,382,426,463,-356,-1014
1732563,-209,408,403,454,-356,-1010
1732579,-160,363,421,456,-348,-995
1732596,-209,425,394,449,-348,-1009
1732612,-137,358,442,458,-360,-971
1732629,-195,407,407,464,-329,-1021
1732646,-154,377,419,454,-355,-1006
1732663,-207,364,399,455,-366,-1017
1732678,-215,376,391,445,-391,-1034
1732696,-237,349,408,448,-413,-1036
1732712,-207,348,406,446,-375,-1034
1732729,-205,353,399,440,-404,-1045
1732746,-243,353,383,441,-408,-1054
1732762,-214,386,396,441,-368,-1044
1732779,-231,368,411,445,-373,-1040
1732796,-235,427,391,432,-397,-1040
1732812,-182,475,406,439,-450,-1038
1732829,-178,507,391,442,-455,-1039
1732846,-179,482,386,438,-465,-1065
1732877,-216,489,383,431,-468,-1091
1732894,-198,515,393,439,-455,-1047
1732911,-188,503,405,441,-476,-1071
1732928,-184,498,399,434,-441,-1082
1732945,-183,517,402,434,-467,-1081
1732961,-185,510,409,437,-437,-1054
1732977,-183,499,415,434,-453,-1042
1732994,-180,536,416,442,-451,-1062
1733011,-178,514,420,440,-472,-1048
1733027,-183,520,411,445,-442,-1036
1733044,-163,531,414,445,-441,-1036
1733061,-159,529,411,445,-442,-1047
1733078,-152,516,417,440,-428,-1040
1733094,-157,522,414,440,-445,-1049
1733111,-152,514,418,443,-445,-1045
1733127,-180,557,410,442,-440,-1059
1733145,-172,569,408,443,-429,-1025
1733161,-176,539,416,436,-432,-1042
1733178,-188,540,404,439,-423,-1026
1733194,-174,505,427,431,-428,-1039
1733211,-192,455,405,421,-456,-1039
1733228,-191,522,393,429,-439,-1040
1733244,-200,503,393,414,-439,-1047
1733260,-189,499,419,428,-426,-1037
1733278,-205,497,413,428,-368,-1000
1733295,-150,450,457,441,-310,-937
1733311,-211,472,416,438,-320,-971
1733342,-186,484,434,440,-318,-973
1733360,-229,494,416,444,-332,-977
1733376,-179,464,448,464,-352,-968
1733393,-192,516,428,464,-323,-968
1733410,-192,467,439,469,-322,-973
1733427,-184,499,442,471,-322,-976
1733443,-203,468,430,473,-325,-986
1733460,-194,475,431,464,-340,-997
1733477,-192,481,434,469,-303,-986
1733492,-189,511,443,463,-321,-976
1733509,-182,504,446,467,-293,-968
1733526,-168,484,445,474,-292,-966
1733543,-150,547,452,475,-286,-945
1733560,-217,490,435,478,-335,-955
1733576,-147,534,455,487,-241,-918
1733593,-187,523,443,482,-279,-935
1733609,-192,508,429,482,-295,-952
1733626,-185,509,430,474,-321,-989
1733643,-200,516,423,484,-327,-945
1733660,-203,485,440,480,-319,-988
1733676,-208,479,435,490,-324,-952
1733694,-153,490,463,527,-287,-919
1733710,-169,500,478,584,-313,-932
1733727,-181,451,465,508,-322,-940
1733744,-159,532,458,499,-281,-931
1733760,-153,491,463,503,-291,-935
1733777,-182,477,445,502,-306,-969
1733793,-149,521,451,501,-287,-928
1733810,-173,486,443,495,-316,-981
1733827,-157,480,457,499,-295,-956
1733843,-163,502,435,503,-316,-977
1733860,-144,505,459,511,-316,-961
1733877,-168,504,439,504,-296,-977
1733893,-120,541,473,523,-290,-939
1733924,-154,510,467,526,-291,-920
1733941,-142,552,461,528,-252,-925
1733958,-152,536,457,529,-264,-944
1733975,-146,537,457,524,-264,-945
1733992,-145,515,465,534,-259,-917
1734008,-149,547,469,547,-248,-946
1734025,-155,541,451,537,-255,-950
1734041,-153,502,467,536,-302,-969
1734058,-153,575,470,535,-269,-948
1734075,-149,565,459,531,-274,-932
1734092,-172,534,447,533,-294,-964
1734108,-135,542,465,528,-252,-916
1734126,-149,525,448,536,-276,-906
1734156,-75,527,496,538,-237,-880
1734173,-46,596,493,548,-210,-836
1734191,-17,593,513,546,-189,-823
1734208,-31,595,479,534,-222,-850
1734225,-25,580,479,547,-234,-817
1734241,45,625,496,553,-230,-795
1734273,188,654,541,565,-183,-690
1734291,207,654,529,559,-139,-619
1734307,199,659,530,557,-144,-649
1734324,201,706,536,567,-125,-650
1734341,193,684,530,561,-158,-678
1734357,214,730,551,568,-145,-681
1734374,231,703,568,573,-127,-678
1734391,206,688,536,565,-139,-690
1734408,181,668,546,570,-187,-696
1734424,151,659,535,572,-165,-729
1734441,177,673,536,573,-164,-733
1734458,93,623,511,574,-182,-775
1734474,45,626,517,569,-178,-813
1734492,-14,566,506,563,-205,-895
1734507,-63,605,484,568,-196,-935
1734525,-61,578,499,571,-215,-942
1734541,-89,523,495,562,-258,-1018
1734557,-150,543,456,550,-275,-1032
1734574,-153,541,453,548,-270,-1042
1734591,-148,565,474,549,-262,-1045
1734608,-156,569,452,552,-264,-1049
1734625,-167,560,456,549,-278,-1046
1734643,-198,534,477,554,-279,-1042
1734658,-184,558,466,549,-274,-1045
1734675,-165,573,457,550,-267,-1044
1734692,-218,518,444,551,-288,-1036
1734707,-237,528,443,538,-287,-1080
1734739,-221,542,453,536,-285,-1077
1734756,-213,522,457,539,-280,-1075
1734772,-175,570,475,543,-236,-1021
1734790,-190,552,478,534,-251,-1029
1734806,-152,567,467,544,-246,-1012
1734823,-107,575,484,549,-208,-940
1734855,-47,641,509,558,-178,-830
1734872,-38,610,488,546,-182,-833
1734889,48,623,531,560,-154,-769
1734907,24,628,512,567,-125,-732
1734923,69,620,510,567,-134,-710
1734941,69,620,529,566,-124,-681
1734976,99,656,512,564,-146,-676
1735004,103,629,497,556,-168,-718
1735022,130,664,527,566,-172,-694
1735039,104,656,503,557,-184,-704
1735057,171,664,535,566,-175,-648
1735072,151,668,529,565,-189,-719
1735089,163,655,544,565,-181,-641
1735105,176,659,542,564,-190,-660
1735122,162,652,548,575,-173,-676
1735139,144,661,569,578,-127,-673
1735156,63,633,540,579,-161,-767
1735172,-30,599,522,568,-190,-842
1735189,-68,596,498,553,-229,-913
1735221,-125,573,487,549,-224,-992
1735239,-137,573,484,549,-244,-1011
1735256,-122,564,493,562,-228,-979
1735272,-150,554,481,556,-256,-1049
1735289,-225,560,456,557,-268,-1052
1735306,-156,521,475,541,-275,-1048
1735322,-208,588,468,539,-270,-1063
1735339,-185,535,476,547,-276,-1045
1735356,-210,534,461,534,-270,-1049
1735373,-193,526,460,538,-265,-1041
1735390,-188,575,473,538,-270,-1021
1735406,-193,566,473,539,-246,-1013
1735422,-183,535,479,557,-252,-1008
1735439,-122,554,507,566,-238,-983
1735455,-127,567,498,567,-227,-936
1735473,-95,556,503,577,-239,-926
1735489,-59,584,498,572,-213,-887
1735506,-55,590,504,583,-211,-851
1735523,-10,591,520,581,-183,-809
1735540,3,581,523,584,-188,-784
1735570,25,614,525,599,-176,-740
1735587,65,649,545,596,-151,-707
1735604,35,595,545,595,-160,-695
1735621,38,643,530,599,-150,-693
1735638,40,594,540,604,-158,-694
1735654,31,589,538,606,-131,-685
1735671,33,598,533,609,-171,-722
1735688,25,578,543,606,-150,-726
1735705,-36,555,496,592,-201,-817
1735722,-68,548,504,608,-209,-833
1735738,-94,556,505,592,-214,-884
1735754,-94,537,499,588,-237,-910
1735771,-122,538,481,579,-248,-923
1735803,-166,528,476,586,-243,-939
1735821,-163,537,474,577,-250,-935
1735837,-209,536,471,580,-272,-973
1735855,-198,531,448,577,-273,-962
1735871,-239,547,477,579,-239,-981
1735887,-185,535,476,575,-248,-949
1735919,-196,558,472,595,-244,-949
1735937,-182,567,459,583,-236,-953
1735952,-202,526,471,572,-255,-949
1735969,-179,555,446,567,-245,-926
1735986,-165,575,453,553,-239,-924
1736004,-153,521,485,589,-225,-919
1736020,-170,542,470,592,-226,-913
1736037,-153,559,476,586,-249,-908
1736054,-161,579,463,594,-232,-896
1736070,-148,601,500,594,-231,-906
1736087,-156,559,499,599,-250,-898
1736104,-142,575,481,605,-236,-900
1736121,-145,527,495,599,-256,-924
1736152,-165,563,462,597,-275,-944
1736170,-190,537,470,593,-306,-947
1736186,-166,540,478,595,-269,-954
1736204,-173,492,479,588,-296,-954
1736220,-161,540,473,585,-270,-933
1736237,-150,559,507,597,-257,-909
1736269,-149,529,501,589,-299,-900
1736286,-145,536,496,578,-236,-900
1736302,-110,557,478,587,-251,-894
1736319,-164,550,464,581,-281,-939
1736336,-150,563,484,582,-257,-914
1736353,-127,553,604,893,-256,-868
1736385,-93,555,513,625,-253,-869
1736402,-97,587,527,616,-221,-874
1736418,-130,550,494,607,-244,-896
1736436,-70,606,527,616,-254,-866
1736453,-55,625,534,608,-308,-873
1736469,-69,590,537,611,-353,-895
1736501,-98,628,512,612,-326,-909
1736519,-89,642,534,601,-298,-874
1736535,-84,614,529,587,-342,-923
1736552,-56,657,536,593,-301,-893
1736569,-34,657,564,597,-273,-862
1736586,-31,659,544,604,-269,-881
1736618,16,720,570,611,-271,-861
1736636,-72,664,529,602,-292,-890
1736652,-28,711,566,620,-255,-834
1736669,-11,708,560,620,-241,-849
1736685,-9,688,568,613,-256,-823
1736702,-27,690,562,613,-263,-847
1736734,-4,679,569,614,-279,-849
1736751,-10,690,570,614,-240,-852
1736769,0,651,561,627,-211,-807
1736785,2,650,565,625,-166,-779
1736802,-6,641,558,616,-199,-806
1736818,4,653,575,634,-163,-825
1736835,5,663,582,634,-157,-791
1736853,6,648,570,636,-200,-811
1736869,-43,613,565,633,-219,-854
1736886,2,624,571,627,-190,-804
1736902,-67,635,545,629,-218,-854
1736918,-45,604,561,631,-214,-853
1736936,-53,629,545,638,-221,-859
1736967,-52,597,558,642,-241,-846
1736985,-56,600,565,630,-230,-875
1737000,-68,597,539,625,-240,-871
1737018,-58,603,565,626,-249,-841
1737035,-60,590,535,624,-193,-843
1737050,-61,590,541,628,-203,-832
1737068,-64,599,543,627,-204,-837
1737086,-103,571,527,627,-217,-847
1737103,-86,563,540,629,-206,-844
1737119,-119,525,530,628,-255,-872
1737135,-130,529,532,626,-260,-879
1737152,-99,537,534,627,-235,-844
1737168,-127,522,514,628,-266,-871
1737199,-86,542,536,628,-231,-833
1737216,-92,534,534,625,-279,-866
1737234,-124,539,533,632,-268,-867
1737250,-117,550,532,628,-277,-847
1737268,-121,566,533,637,-253,-848
1737284,-118,533,535,626,-271,-872
1737316,-117,524,537,625,-265,-826
1737333,-112,503,533,630,-262,-843
1737350,-120,501,533,630,-265,-828
1737367,-136,505,522,625,-281,-865
1737384,-138,479,509,625,-280,-881
1737400,-132,485,509,626,-287,-861
1737432,-145,477,509,621,-281,-880
1737449,-161,498,500,615,-285,-885
1737466,-117,496,523,629,-266,-847
1737483,-143,536,528,629,-237,-842
1737500,-153,491,522,627,-285,-891
1737517,-139,533,528,630,-261,-837
1737549,-95,539,536,636,-237,-837
1737566,-101,527,547,649,-236,-815
1737582,-100,544,546,640,-237,-810
1737600,-73,567,566,643,-238,-824
1737617,-81,546,535,637,-247,-826
1737633,-59,580,562,646,-188,-768
1737665,-95,575,536,646,-210,-816
1737683,-74,556,536,638,-212,-802
1737700,-100,536,540,644,-217,-814
1737715,-89,563,551,645,-212,-813
1737733,-95,535,538,641,-258,-816
1737750,-107,530,547,638,-255,-816
1737782,-128,529,536,645,-254,-810
1737799,-138,519,527,642,-262,-840
1737815,-155,508,511,636,-260,-839
1737833,-140,499,537,648,-233,-826
1737849,-135,553,533,640,-253,-824
1737866,-128,577,531,639,-306,-852
1737898,-141,589,506,622,-394,-911
1737915,-155,580,492,624,-410,-904
1737931,-160,619,496,625,-411,-920
1737949,-115,643,501,627,-385,-897
1737965,-142,646,498,616,-371,-898
1737983,-152,594,503,618,-374,-898
1738015,-139,599,509,628,-382,-868
1738032,-183,594,483,608,-383,-921
1738049,-155,565,505,614,-395,-914
1738066,-158,558,502,612,-414,-920
1738082,-176,603,475,602,-424,-935
