TIME,AF3,F7,F3,F4,F8,AF4
2788844,-241,501,407,718,-369,-332
2788862,-276,480,398,703,-399,-367
2788878,-299,448,401,656,-422,-387
2788894,-326,427,400,653,-430,-418
2788912,-314,442,406,642,-447,-410
2788928,-352,437,404,632,-445,-432
2788945,-340,427,394,631,-443,-437
2788961,-368,430,391,650,-419,-419
2788978,-344,458,383,672,-413,-394
2788995,-295,478,388,699,-388,-375
2789026,-335,454,390,677,-409,-398
2789043,-360,441,387,680,-387,-404
2789060,-344,453,394,650,-399,-419
2789076,-353,454,398,657,-388,-421
2789093,-320,441,400,658,-394,-406
2789109,-335,423,398,651,-409,-430
2789126,-332,438,403,653,-387,-408
2789142,-328,442,406,668,-381,-393
2789159,-328,431,414,663,-399,-418
2789176,-391,403,426,631,-432,-447
2789193,-388,376,436,596,-470,-494
2789209,-429,379,457,597,-463,-474
2789226,-401,378,458,598,-448,-468
2789243,-422,361,456,585,-460,-485
2789259,-416,361,427,612,-465,-482
2789277,-418,367,424,591,-458,-470
2789293,-355,418,415,641,-410,-442
2789310,-366,450,414,657,-371,-388
2789326,-362,437,419,667,-387,-390
2789344,-374,434,408,647,-402,-426
2789375,-344,447,389,670,-388,-414
2789392,-338,490,376,711,-340,-362
2789412,-322,483,372,685,-351,-357
2789427,-341,495,371,706,-351,-352
2789444,-334,468,388,686,-362,-361
2789461,-304,498,379,712,-353,-347
2789492,-334,479,390,704,-371,-340
2789508,-355,431,402,649,-412,-385
2789525,-407,392,409,620,-459,-428
2789541,-416,400,416,623,-440,-414
2789558,-399,407,425,644,-434,-422
2789575,-396,422,424,635,-442,-396
2789591,-426,386,413,603,-470,-437
2789608,-417,399,407,600,-458,-432
2789625,-424,403,398,628,-453,-417
2789642,-410,425,398,652,-435,-398
2789659,-394,431,394,645,-424,-383
2789675,-393,417,398,611,-447,-396
2789691,-390,424,392,640,-424,-375
2789709,-373,460,395,670,-379,-328
2789725,-373,454,390,662,-364,-309
2789742,-376,453,394,636,-362,-337
2789758,-383,469,392,642,-387,-333
2789774,-342,532,388,708,-337,-293
2789791,-313,500,389,681,-351,-274
2789808,-346,478,392,644,-382,-313
2789825,-375,471,392,638,-393,-325
2789842,-359,451,397,639,-396,-316
2789859,-332,497,412,650,-357,-266
2789875,-342,453,412,628,-400,-314
2789891,-372,445,416,593,-401,-328
2789908,-416,424,425,593,-417,-332
2789925,-399,432,427,598,-412,-325
2789943,-424,398,428,559,-439,-358
2789959,-425,392,432,568,-448,-352
2789975,-402,401,430,581,-454,-336
2789991,-400,396,432,614,-420,-312
2790008,-385,438,425,609,-390,-284
2790026,-377,436,427,620,-408,-273
2790041,-398,406,435,590,-451,-322
2790072,-404,399,427,590,-427,-316
2790090,-380,412,425,599,-412,-281
2790108,-380,402,420,587,-413,-291
2790124,-405,389,418,577,-425,-304
2790140,-397,407,419,579,-406,-281
2790157,-411,400,419,584,-409,-266
2790189,-411,418,411,563,-409,-271
2790206,-359,442,413,587,-384,-243
2790223,-408,420,410,591,-395,-268
2790241,-366,428,402,605,-389,-234
2790257,-379,436,407,608,-379,-246
2790273,-350,439,416,608,-392,-229
2790305,-372,431,409,595,-395,-240
2790323,-423,421,415,595,-413,-253
2790338,-416,418,408,572,-428,-281
2790356,-453,387,412,567,-453,-302
2790373,-414,425,409,606,-399,-250
2790389,-444,402,414,575,-408,-266
2790406,-435,409,404,592,-399,-244
2790423,-436,403,407,589,-394,-248
2790440,-450,405,419,597,-379,-244
2790456,-446,389,430,558,-416,-288
2790473,-456,400,430,592,-397,-262
2790489,-452,397,435,569,-422,-268
2790506,-463,410,435,575,-405,-274
2790538,-427,423,425,599,-394,-249
2790556,-403,435,424,607,-378,-259
2790571,-422,427,413,586,-368,-248
2790588,-420,405,420,595,-393,-290
2790606,-385,441,405,629,-374,-255
2790622,-388,441,406,598,-365,-257
2790639,-405,403,399,586,-409,-293
2790656,-399,414,403,581,-398,-303
2790673,-351,466,398,652,-327,-243
2790689,-355,475,392,675,-319,-234
2790706,-311,485,386,676,-291,-238
2790722,-327,499,387,663,-285,-231
2790740,-350,463,389,653,-331,-271
2790771,-354,476,397,664,-331,-275
2790789,-345,459,405,633,-361,-318
2790805,-369,455,405,642,-342,-302
2790822,-390,425,414,613,-373,-344
2790841,-405,430,425,616,-369,-346
2790859,-374,426,426,608,-372,-352
2790888,-402,432,421,620,-366,-345
2790905,-414,400,426,590,-391,-396
2790922,-373,418,423,601,-373,-371
2790939,-440,426,418,604,-371,-397
2790955,-379,434,415,611,-373,-371
2790971,-371,427,406,616,-381,-382
2790989,-358,452,400,629,-355,-354
2791006,-358,454,405,619,-356,-380
2791022,-341,455,400,611,-361,-370
2791038,-360,447,402,604,-377,-401
2791054,-389,422,386,596,-397,-397
2791072,-380,415,393,606,-382,-402
2791088,-354,440,395,615,-356,-385
2791106,-365,439,394,612,-380,-379
2791122,-370,422,402,607,-395,-421
2791138,-382,437,394,612,-384,-393
2791155,-374,414,402,602,-402,-440
2791171,-409,407,408,618,-375,-401
2791188,-403,398,413,608,-401,-429
2791204,-379,412,417,618,-402,-418
2791222,-394,402,413,618,-415,-424
2791239,-417,415,415,605,-416,-444
2791255,-408,401,416,571,-437,-460
2791272,-358,427,415,611,-409,-441
2791289,-410,411,420,590,-430,-458
2791305,-390,406,413,582,-442,-467
2791322,-376,406,418,582,-429,-467
2791339,-380,393,417,564,-448,-499
2791355,-383,375,421,564,-474,-509
2791371,-417,366,418,543,-475,-531
2791388,-382,362,419,586,-457,-503
2791405,-366,380,413,588,-448,-497
2791422,-365,383,414,607,-427,-473
2791439,-336,416,411,614,-388,-457
2791455,-352,392,405,625,-389,-452
2791472,-333,410,411,631,-353,-433
2791488,-378,400,407,613,-379,-470
2791505,-312,452,402,648,-342,-420
2791522,-283,471,403,673,-330,-412
2791539,-324,451,398,655,-343,-427
2791555,-278,483,398,678,-309,-395
2791585,-303,460,399,661,-327,-425
2791602,-305,468,400,647,-341,-436
2791619,-346,433,399,629,-362,-466
2791637,-293,477,391,653,-331,-426
2791653,-257,506,383,677,-314,-414
2791670,-260,503,372,689,-317,-418
2791687,-224,541,369,715,-280,-372
2791705,-226,542,366,727,-265,-386
2791721,-212,547,356,721,-295,-378
2791738,-167,580,363,743,-239,-350
2791754,-185,566,371,741,-260,-364
2791772,-179,553,382,716,-300,-382
2791788,-252,510,385,677,-319,-428
2791818,-176,549,388,722,-275,-391
2791836,-221,498,390,682,-317,-431
2791852,-253,472,396,650,-346,-473
2791869,-304,433,400,609,-388,-522
2791886,-292,397,404,589,-430,-550
2791902,-306,397,418,607,-418,-538
2791919,-335,404,417,602,-391,-536
2791936,-317,388,419,591,-416,-552
2791953,-321,393,417,594,-405,-543
2791969,-327,379,416,573,-417,-551
2791986,-314,393,404,601,-401,-549
2792003,-285,390,394,640,-397,-518
2792020,-235,452,375,672,-359,-461
2792036,-216,467,374,691,-355,-452
2792052,-269,418,370,638,-404,-497
2792069,-238,445,369,664,-396,-480
2792085,-167,471,369,694,-372,-456
2792102,-196,490,353,712,-342,-437
2792120,-174,488,356,671,-343,-466
2792136,-172,466,351,708,-336,-474
2792153,-121,525,353,734,-262,-431
2792170,-96,515,349,718,-248,-430
2792186,-104,514,348,716,-243,-450
2792203,-46,552,339,743,-199,-413
2792219,-1,608,333,777,-181,-397
2792236,76,668,324,828,-121,-360
2792252,116,719,284,897,-64,-309
2792284,197,751,277,890,-53,-311
2792301,175,733,273,860,-58,-364
2792319,74,630,294,777,-155,-475
2792335,45,606,290,776,-174,-521
2792351,40,583,297,755,-228,-581
2792369,48,551,298,718,-253,-637
2792401,68,574,291,767,-222,-651
2792417,59,576,295,750,-226,-666
2792435,87,569,301,760,-229,-706
2792451,42,554,297,741,-238,-737
2792468,54,517,305,735,-281,-767
2792485,-10,459,314,678,-322,-846
2792501,-54,411,323,600,-380,-889
2792519,-93,341,345,538,-451,-986
2792535,-77,373,338,612,-422,-955
2792552,99,535,329,741,-273,-787
2792569,215,630,316,846,-164,-684
2792584,227,659,332,845,-171,-669
2792601,171,586,347,779,-224,-702
2792619,187,545,371,740,-292,-726
2792634,156,485,390,650,-367,-764
2792651,174,454,400,566,-415,-752
2792668,171,389,411,507,-512,-804
2792684,126,332,427,425,-580,-846
2792702,117,300,427,404,-629,-867
2792719,254,418,420,489,-530,-765
2792750,436,582,369,692,-360,-525
2792767,477,631,361,727,-302,-451
2792783,437,575,369,704,-341,-472
2792801,372,512,394,625,-398,-530
2792817,166,342,423,481,-548,-702
2792834,143,297,425,439,-587,-736
2792850,114,234,433,415,-591,-735
2792867,45,173,442,376,-633,-760
2792884,-65,63,469,281,-726,-858
2792901,-124,17,479,223,-785,-916
2792917,-153,2,479,224,-807,-926
2792934,-167,13,489,247,-777,-915
2792950,-221,43,495,247,-784,-964
2792967,-38,238,509,431,-609,-798
2792984,340,660,509,837,-213,-379
2793000,570,944,518,1116,21,-143
2793017,764,1152,514,1333,180,54
2793034,652,1129,519,1283,181,28
2793051,700,1199,521,1526,395,87
2793067,825,1355,531,1599,689,334
2793084,667,1195,548,1473,518,210
2793100,315,1063,569,1160,214,-67
2793117,206,1052,571,1056,-88,-101
2793133,251,1183,597,1141,-210,-27
2793150,76,1134,600,1092,-174,-67
2793167,181,1317,564,1325,169,177
2793183,272,1362,538,1246,387,302
2793201,222,1262,511,1192,306,261
2793217,104,985,513,943,140,64
2793233,55,735,497,711,-34,-135
2793251,347,825,488,752,29,-71
2793268,468,800,485,662,-55,-151
2793284,638,839,512,591,-112,-186
2793300,663,804,508,530,-224,-235
2793331,550,784,518,440,-254,-405
2793349,571,871,509,531,-142,-325
2793365,570,879,515,540,-107,-322
2793381,518,885,522,519,-154,-336
2793399,525,807,514,458,-244,-379
2793416,423,719,511,387,-318,-454
2793432,-91,153,504,-242,-873,-1146
2793449,11,98,505,-348,-878,-1223
2793466,80,31,503,-330,-915,-1346
2793482,203,21,494,-365,-931,-1420
2793500,262,48,494,-341,-907,-1417
2793516,302,13,492,-343,-886,-1433
2793532,304,-27,504,-370,-913,-1479
2793549,321,-37,505,-409,-945,-1526
2793566,371,-5,501,-368,-918,-1506
2793584,434,-5,511,-400,-910,-1520
2793600,449,-46,518,-420,-920,-1571
2793617,532,-2,516,-433,-908,-1575
2793632,522,-68,520,-519,-994,-1657
2793650,609,-26,507,-535,-984,-1667
2793667,750,32,515,-503,-967,-1665
2793683,954,130,506,-416,-927,-1609
2793700,1163,242,502,-366,-856,-1522
2793716,1430,357,499,-294,-787,-1511
2793732,1685,514,484,-167,-689,-1417
2793749,1906,600,485,-125,-630,-1401
2793766,2315,836,481,90,-430,-1192
2793782,2689,947,467,175,-369,-1119
2793799,3202,956,470,172,-370,-1131
2793816,3394,948,467,125,-394,-1186
2793833,3573,1004,471,151,-374,-1204
2793849,4125,1051,473,185,-351,-1114
2793866,4237,1063,463,162,-333,-1101
2793882,4048,1059,472,133,-345,-1130
2793914,3798,1160,447,216,-261,-962
2793931,4481,1191,439,206,-231,-978
2793948,4337,1199,443,205,-187,-938
2793965,3620,1183,437,204,-196,-985
2793981,3227,1249,388,272,-108,-1021
2793998,3012,1472,342,477,84,-742
2794014,2348,1390,390,397,25,-738
2794032,1987,1359,416,388,19,-728
2794048,1675,1268,420,329,-25,-779
2794064,1371,1188,420,263,-96,-817
2794082,1227,1215,402,365,-43,-734
2794098,1172,1201,398,343,-3,-623
2794114,1046,1145,397,403,41,-521
2794131,998,1098,395,313,-26,-522
2794148,915,1102,418,329,29,-515
2794164,971,1152,405,334,13,-525
2794182,1167,1233,407,444,121,-415
2794199,1244,1248,406,483,133,-413
2794215,1464,1316,419,520,180,-346
2794231,1503,1254,425,473,64,-433
2794249,1706,1241,425,498,43,-372
2794265,1799,1281,419,478,33,-375
2794282,1942,1351,399,484,-2,-397
2794298,1884,1414,388,508,19,-412
2794315,2040,1383,383,467,23,-456
2794331,1852,1255,407,370,-48,-559
2794348,1796,1244,403,362,-14,-531
2794365,1509,1207,409,358,-20,-539
2794381,1263,1202,410,373,-27,-525
2794397,1133,1198,410,341,-26,-524
2794415,1074,1180,405,339,-56,-551
2794431,1034,1280,387,412,23,-432
2794448,949,1231,385,403,-7,-435
2794465,904,1257,382,405,8,-404
2794481,841,1248,388,452,47,-362
2794498,760,1251,384,466,57,-361
2794514,675,1217,390,476,46,-319
2794532,510,1158,406,431,15,-366
2794549,269,994,415,290,-107,-524
2794566,69,890,433,100,-280,-689
2794582,-162,753,425,-33,-361,-809
2794611,-363,605,445,-124,-531,-908
2794629,-526,518,451,-166,-629,-988
2794646,-533,530,454,-211,-583,-951
2794663,-637,474,446,-231,-682,-1026
2794679,-480,461,454,-236,-702,-993
2794696,-202,454,441,-231,-727,-997
2794714,645,483,452,-236,-723,-978
2794730,1461,433,446,-266,-831,-1027
2794746,1828,408,452,-301,-901,-1017
2794763,1990,471,446,-249,-871,-973
2794780,2113,508,450,-216,-834,-907
2794796,2237,510,453,-218,-835,-899
2794814,2523,509,445,-210,-832,-871
2794844,2985,558,453,-206,-790,-865
2794862,3162,520,462,-227,-814,-868
2794878,3409,513,460,-235,-824,-796
2794896,3423,541,459,-141,-740,-614
2794913,3514,568,459,-129,-633,-513
2794929,3674,585,448,-81,-607,-456
2794946,4130,728,448,82,-355,-317
2794963,4226,787,450,140,-322,-322
2794979,4043,712,452,63,-359,-405
2794996,3970,678,455,76,-377,-383
2795013,3810,694,451,74,-259,-359
2795029,3731,707,445,120,-109,-308
2795046,3684,709,449,108,77,-280
2795062,3790,709,446,109,86,-276
2795079,3847,758,449,173,173,-165
2795095,3824,742,444,168,179,165
2795112,3815,755,442,156,223,369
2795129,3698,718,460,151,186,447
2795145,3642,663,470,150,181,526
2795162,3733,760,461,179,266,680
2795179,3854,787,458,218,356,811
2795195,3818,733,446,210,342,821
2795213,3886,815,451,276,446,955
2795229,3794,807,457,265,407,982
2795245,3825,821,451,285,427,1054
2795263,3867,830,449,303,407,1134
2795278,3870,855,437,315,439,1210
2795295,4004,824,440,317,442,1321
2795312,4311,837,439,327,438,1602
2795329,5044,820,441,352,403,1740
2795346,5175,893,439,395,456,1926
2795362,4984,923,439,433,463,1989
2795379,5008,998,445,457,507,2110
2795396,5066,1034,441,459,531,2144
2795412,5104,1039,444,424,506,2119
2795429,5460,1099,450,419,544,2169
2795445,5729,1134,448,436,581,2171
2795462,5712,1131,467,443,564,2155
2795479,5636,1140,443,436,540,2139
2795495,5398,1135,441,405,541,2128
2795512,5573,1538,445,797,917,2569
2795529,5554,1463,435,772,832,2486
2795545,5592,1416,451,676,786,2461
2795562,5669,1485,438,711,827,2442
2795578,5861,1487,458,740,822,2472
2795596,5804,1422,441,620,697,2441
2795613,5808,1544,443,691,747,2543
2795629,5824,1592,455,725,795,2540
2795659,5981,1638,443,768,912,2408
2795676,6279,1729,458,802,901,2378
2795694,6848,2416,445,1428,1409,2489
2795711,6951,2996,448,1907,1816,3327
2795727,6894,3079,445,2002,1917,3522
2795744,6953,3622,441,2534,2379,4044
2795760,6946,3658,432,2559,2411,4007
2795777,6949,3623,437,2466,2258,3875
2795793,6944,3687,432,2462,2237,3789
2795811,6943,3710,438,2446,2198,3685
2795827,6944,3786,434,2446,2193,3725
2795843,6945,3822,437,2444,2167,3591
2795860,6956,3873,436,2393,2099,3440
2795876,6961,3965,438,2417,2092,3377
2795893,6870,3934,445,2363,2009,3323
2795910,6446,3955,443,2303,1953,3247
2795926,6391,3970,443,2278,1917,3256
2795943,6535,3998,442,2217,1905,3221
2795960,6348,3874,433,2111,1642,3128
2795977,5989,4053,441,2182,1729,3076
2795994,5484,4053,437,2119,1658,2922
2796011,5289,4110,433,2165,1650,2905
2796026,5296,4098,430,2142,1615,2854
2796043,5525,4134,427,2136,1607,2839
2796060,5496,4268,428,2097,1541,2754
2796077,5183,4279,422,2077,1517,2715
2796094,4820,4222,423,2055,1489,2738
2796110,4931,4205,425,2025,1453,2689
2796126,5120,4265,414,2067,1455,2735
2796144,5115,4258,416,2059,1445,2736
2796159,5293,4150,413,2077,1436,2588
2796177,5214,4066,410,2058,1446,2392
2796193,5134,4055,407,2050,1415,2232
2796209,4945,4022,407,2058,1432,2134
2796228,4569,3935,404,2023,1372,2001
2796244,4572,3921,399,2080,1497,2140
2796260,4463,3835,397,2078,1558,2198
2796277,4274,3737,386,2070,1635,2259
2796294,4076,3645,396,2055,1618,2336
2796310,3952,3581,384,2083,1688,2372
2796326,3711,3508,388,2090,1642,2295
2796343,3535,3487,374,2078,1641,2238
2796359,3326,3502,371,2111,1686,2316
2796376,3175,3435,366,2099,1653,2296
2796394,3086,3409,373,2119,1648,2360
2796410,2926,3350,367,2053,1534,2535
2796427,2863,3300,365,2018,1507,3045
2796443,2775,3265,353,2021,1520,3438
2796460,2741,3262,343,2024,1575,3745
2796476,2704,3282,351,2026,1514,3872
2796493,2660,3576,343,2253,1706,4156
2796510,2969,3817,335,2471,1894,4392
2796528,2824,3797,337,2420,1805,4296
2796543,2728,3749,328,2395,1770,4150
2796560,2570,3648,338,2320,1692,4031
2796576,2428,3627,339,2292,1663,3915
2796593,2168,3525,343,2199,1584,3735
2796610,2049,3456,347,2160,1470,3613
2796627,1822,3389,355,2138,1434,3500
2796644,1625,3280,352,2054,1323,3329
2796660,1568,3290,367,2078,1312,3289
2796677,1547,3259,364,2071,1304,3208
2796694,1550,3244,365,1953,1301,3167
2796710,1380,3016,375,1869,1042,2869
2796727,1391,2948,374,1835,1016,2733
2796743,1419,2951,378,1874,1026,2723
2796760,1363,2934,386,1877,997,2643
2796777,1285,2828,370,1800,943,2510
2796794,1166,2766,387,1758,961,2443
2796823,1077,2648,381,1761,1075,2469
2796841,1023,2587,388,1736,1021,2340
2796858,959,2550,398,1721,999,2264
2796874,930,2528,392,1702,960,2157
2796891,1124,2757,381,1897,1311,2197
2796907,1192,2815,379,1991,1408,2207
2796925,1190,2812,373,1971,1424,2089
2796942,1143,2751,385,1942,1378,1984
2796959,1120,2706,388,1898,1345,1860
2796975,1057,2646,393,1875,1304,1749
2796992,875,2497,387,1752,1182,1522
2797008,734,2391,401,1655,1098,1469
2797025,536,2312,378,1611,1066,1245
2797042,424,2219,387,1570,945,1072
2797060,383,2222,377,1598,999,1021
2797075,312,2208,396,1568,946,867
2797092,189,2153,393,1504,905,714
2797109,119,2085,386,1445,824,536
2797125,-105,2032,396,1359,773,396
2797142,-241,1938,381,1334,753,314
2797158,-317,1931,390,1355,755,254
2797176,-446,1848,384,1319,702,160
2797193,-429,1897,390,1384,750,203
2797209,-465,1799,385,1312,688,65
2797226,-516,1716,382,1268,598,-38
2797242,-496,1715,395,1301,641,-50
2797259,-515,1685,397,1316,609,-41
2797289,-580,1557,399,1214,495,-158
2797306,-667,1493,401,1160,417,-199
2797323,-712,1426,411,1123,349,-232
2797340,-735,1471,407,1151,363,-190
2797356,-723,1429,416,1156,338,-187
2797373,-643,1456,405,1137,347,-195
2797406,-497,1507,405,1185,377,-233
2797423,-437,1540,400,1241,395,-168
2797439,-421,1514,403,1184,294,-255
2797457,-318,1447,396,1113,197,-347
2797473,-168,1455,388,1081,92,-399
2797490,-84,1407,387,1086,176,-334
2797506,-153,1339,383,1078,170,-358
2797523,-122,1373,388,1152,197,-385
2797539,-75,1425,384,1175,169,-471
2797556,-60,1400,379,1156,129,-535
2797574,78,1405,386,1185,161,-551
2797590,275,1418,377,1196,203,-548
2797607,406,1416,379,1195,219,-576
2797624,515,1409,384,1165,232,-616
2797640,467,1370,384,1091,31,-762
2797657,481,1402,380,1107,-29,-819
2797673,548,1536,386,1152,33,-704
2797690,545,1520,375,1115,-31,-703
2797707,591,1586,388,1231,15,-578
2797724,483,1585,387,1148,-37,-613
2797740,402,1608,383,1163,-66,-647
2797757,327,1634,387,1168,-74,-702
2797773,209,1642,386,1104,-146,-802
2797790,239,1626,376,1094,-186,-840
2797807,190,1654,375,1102,-200,-931
2797823,244,1665,375,1113,-184,-931
2797840,27,1522,376,1016,-291,-1057
2797856,-238,1195,381,707,-572,-1356
2797873,-351,1177,378,712,-559,-1349
2797890,-190,1186,381,740,-561,-1334
2797907,-248,983,385,556,-741,-1476
2797923,-225,937,385,546,-747,-1590
2797940,-351,930,396,537,-775,-1616
2797957,-371,976,400,598,-723,-1576
2797988,-654,892,414,564,-744,-1812
2798005,-656,955,406,596,-676,-1814
2798022,-501,1098,410,666,-656,-1728
2798038,-573,1149,414,690,-645,-1761
2798055,-559,1192,405,746,-647,-1809
2798071,-617,1339,414,917,-470,-1760
2798103,-697,1489,419,1039,-329,-1665
2798121,-483,1816,413,1373,-4,-1348
2798137,-678,1675,407,1280,-117,-1492
2798154,-739,1596,410,1195,-182,-1495
2798171,-825,1482,416,1087,-293,-1606
2798188,-663,1796,404,1390,18,-1309
2798205,-613,1930,405,1588,217,-1070
2798222,-786,1830,408,1455,48,-1242
2798239,-622,2081,404,1697,304,-961
2798256,-629,2040,414,1702,286,-960
2798272,-554,2125,414,1816,395,-835
2798289,-815,1874,414,1632,186,-1066
2798305,-889,1764,416,1301,91,-1121
2798322,-1250,1431,417,1187,-124,-1351
2798338,-1564,1202,420,960,-344,-1579
2798355,-1803,1033,414,816,-473,-1679
2798372,-2185,617,418,429,-818,-1968
2798389,-2518,306,417,180,-1062,-2146
2798405,-1929,891,418,746,-519,-1397
2798422,-1792,936,416,853,-446,-1220
2798438,-1560,979,420,871,-428,-1111
2798455,-1488,851,420,771,-523,-1128
2798472,-1209,897,420,806,-457,-1070
2798488,-1449,520,411,473,-787,-1378
2798506,-1390,462,417,410,-841,-1400
2798522,-1434,337,422,326,-928,-1461
2798538,-1690,132,433,69,-1127,-1655
2798555,-1613,74,418,24,-1167,-1657
2798571,-1197,-1,421,-6,-1202,-1661
2798589,-1061,24,431,43,-1176,-1612
2798606,-1196,-133,427,-78,-1295,-1687
2798622,-1415,-78,427,-40,-1248,-1609
2798639,-1453,-91,430,-39,-1252,-1575
2798655,-1533,-99,423,-33,-1272,-1531
2798685,-1851,-92,409,20,-1252,-1404
2798703,-2039,-54,419,29,-1205,-1330
2798720,-2206,-7,414,69,-1182,-1288
2798737,-2420,-91,413,8,-1248,-1374
2798754,-2576,-92,408,32,-1243,-1370
2798770,-2693,-102,411,63,-1261,-1356
2798787,-2830,-154,416,-15,-1278,-1406
2798803,-2837,-135,415,-12,-1276,-1386
2798820,-2950,-172,415,-49,-1299,-1409
2798838,-3017,-208,414,-48,-1324,-1422
2798853,-3068,-209,412,-70,-1333,-1428
2798870,-3190,-279,413,-109,-1356,-1450
2798887,-3188,-316,413,-148,-1397,-1475
2798903,-3183,-295,413,-115,-1371,-1446
2798920,-3093,-289,417,-92,-1367,-1343
2798938,-3083,-323,417,-99,-1390,-1310
2798954,-2962,-304,416,-134,-1372,-1247
2798971,-2856,-325,429,-97,-1354,-1265
2798987,-2757,-390,418,-159,-1408,-1552
2799003,-2695,-402,421,-170,-1407,-1646
2799020,-2786,-385,416,-164,-1403,-1715
2799036,-1809,438,417,646,-620,-919
2799054,-1736,420,419,647,-650,-982
2799070,-1761,432,425,662,-610,-1001
2799087,-1778,403,428,648,-642,-1063
2799103,-1931,386,423,641,-646,-1101
2799119,-2093,276,422,561,-739,-1220
2799136,-1946,337,422,599,-650,-1163
2799153,-1748,294,415,579,-677,-1230
2799170,-1469,265,417,569,-691,-1241
2799187,-1167,236,415,535,-715,-1292
2799203,-1155,210,419,496,-724,-1271
2799220,-1201,175,419,504,-761,-1315
2799237,-1504,203,414,464,-809,-1312
2799268,-1966,192,412,474,-799,-1355
2799285,-2127,167,417,463,-804,-1334
2799301,-2195,142,413,463,-825,-1330
2799318,-2181,164,418,451,-807,-1312
2799335,-2079,173,414,470,-801,-1312
2799351,-2079,124,422,425,-832,-1344
2799383,-2221,114,415,409,-820,-1334
2799402,-2347,80,417,425,-829,-1370
2799418,-2309,72,420,391,-848,-1392
2799434,-2304,52,418,397,-861,-1402
2799452,-2343,67,419,426,-819,-1339
2799468,-2334,9,416,373,-872,-1411
2799485,-2244,-17,413,354,-881,-1410
2799502,-2244,-38,419,327,-913,-1436
2799518,-2259,-39,418,291,-887,-1414
2799535,-2128,-36,420,334,-888,-1391
2799551,-2148,-38,425,343,-869,-1375
2799568,-2240,-38,422,371,-854,-1326
2799585,-2360,-31,415,354,-855,-1328
2799616,-2709,23,412,361,-833,-1319
2799634,-2786,20,415,365,-841,-1325
2799650,-2875,20,413,346,-835,-1316
2799667,-2978,-5,416,312,-876,-1369
2799684,-3016,-10,413,295,-890,-1384
2799701,-3244,-22,408,280,-909,-1395
2799717,-3372,-16,416,309,-888,-1393
2799734,-3430,-26,412,299,-893,-1396
2799751,-3438,-42,412,253,-906,-1405
2799768,-3514,-60,411,261,-913,-1424
2799784,-3593,-59,413,268,-896,-1419
2799800,-3637,-110,414,251,-953,-1489
2799817,-3665,-110,414,267,-928,-1473
2799834,-3669,-114,414,275,-918,-1471
2799850,-3693,-107,414,277,-923,-1500
2799867,-3747,-58,408,244,-945,-1507
2799884,-3681,-20,418,240,-967,-1529
2799901,-3717,-75,414,206,-1002,-1562
2799918,-3667,-73,417,195,-1013,-1603
2799934,-3547,-76,413,193,-1013,-1586
2799950,-3515,-41,414,212,-971,-1561
2799967,-3655,-70,406,202,-1004,-1574
2799984,-3689,-78,413,193,-1019,-1596
2800001,-3658,-106,412,175,-1026,-1583
2800017,-3657,-120,413,169,-1057,-1616
2800034,-3703,-93,405,200,-1048,-1542
2800051,-3746,-82,410,232,-1058,-1526
2800082,-3845,-58,410,241,-1045,-1484
2800100,-3919,-47,406,239,-1048,-1462
2800116,-3982,-28,411,291,-1030,-1423
2800133,-3988,-16,403,318,-988,-1328
2800150,-3914,52,402,359,-933,-1208
2800166,-3873,53,398,376,-921,-1136
2800198,-3717,72,400,407,-894,-877
2800216,-3642,81,398,408,-924,-827
2800232,-3601,35,400,397,-903,-715
2800250,-3560,-7,401,387,-877,-646
2800267,-3459,-14,400,459,-841,-512
2800283,-3457,-11,402,427,-862,-525
2800315,-3523,-25,410,388,-903,-524
2800332,-3532,-20,402,395,-897,-479
2800348,-3557,-44,403,387,-915,-458
2800366,-3518,26,400,432,-844,-380
2800382,-3424,52,402,450,-830,-361
2800399,-3419,23,403,444,-846,-345
2800431,-3364,-24,404,411,-876,-393
2800449,-3325,5,401,431,-860,-413
2800466,-3299,5,400,405,-861,-458
2800482,-3235,13,401,407,-872,-462
2800499,-3198,-17,396,405,-875,-459
2800516,-3121,-7,399,444,-796,-393
2800532,-3076,-28,400,459,-776,-385
2800549,-3038,-21,397,495,-783,-393
2800565,-2984,16,397,501,-776,-391
2800582,-2963,-22,409,453,-809,-426
2800599,-2931,21,399,505,-784,-398
2800615,-2888,22,400,494,-806,-417
2800632,-2916,6,406,498,-828,-450
2800648,-2875,15,398,503,-824,-492
2800666,-2870,15,407,519,-822,-531
2800682,-2834,35,406,494,-806,-551
2800699,-2833,18,406,487,-820,-617
2800715,-2832,-6,407,494,-813,-655
2800732,-2825,19,402,526,-793,-661
2800748,-2790,11,410,500,-804,-710
2800765,-2754,20,413,498,-818,-752
2800782,-2807,16,405,524,-798,-788
2800798,-2779,-6,416,484,-828,-834
2800815,-2817,-15,402,482,-828,-869
2800832,-2811,-8,417,493,-821,-886
2800849,-2784,-11,408,503,-815,-910
2800865,-2754,-14,408,485,-824,-938
2800882,-2701,-9,413,500,-802,-962
2800899,-2716,-12,405,489,-801,-970
2800916,-2726,-11,410,503,-793,-991
2800933,-2668,11,406,522,-758,-985
2800949,-2651,9,402,532,-755,-979
2800966,-2588,21,406,547,-732,-979
2800982,-2574,4,403,529,-773,-1028
2800998,-2505,69,410,517,-780,-1034
2801016,-2457,81,407,546,-768,-1021
2801033,-2432,101,412,566,-741,-1008
2801049,-2419,79,414,546,-747,-997
2801065,-2422,73,406,570,-731,-1029
2801082,-2374,93,414,567,-727,-1012
2801099,-2328,74,416,538,-725,-1051
2801129,-2295,65,420,555,-713,-1049
2801147,-2267,78,414,580,-698,-1027
2801163,-2293,47,417,533,-760,-1072
2801181,-2232,61,419,582,-734,-1051
2801197,-2216,77,419,560,-720,-1061
2801214,-2144,116,419,607,-681,-1005
2801231,-2145,103,416,607,-702,-1020
2801247,-2127,118,409,618,-686,-999
2801264,-2060,124,415,605,-683,-1003
2801281,-2025,160,416,646,-635,-956
2801297,-2027,133,411,631,-672,-978
2801314,-1981,159,416,663,-630,-946
2801331,-1975,147,414,653,-652,-978
2801348,-1938,160,411,683,-571,-900
2801365,-1976,86,422,641,-608,-860
2801381,-1948,119,413,716,-552,-796
2801398,-1946,101,408,700,-590,-805
2801414,-1949,111,401,698,-569,-784
2801431,-1936,101,401,676,-579,-779
2801448,-1946,96,397,670,-591,-794
2801479,-1943,66,404,642,-587,-786
2801496,-1877,103,399,658,-558,-733
2801513,-1925,64,392,667,-584,-753
2801530,-1914,44,399,654,-597,-767
2801547,-1884,50,400,632,-608,-747
2801563,-1859,47,399,601,-620,-777
2801580,-1852,50,399,628,-607,-737
2801597,-1843,30,403,623,-620,-746
2801613,-1826,46,408,619,-596,-726
2801630,-1816,39,401,602,-615,-747
2801647,-1757,46,399,610,-585,-745
2801663,-1783,50,399,635,-573,-747
2801680,-1723,54,402,613,-572,-732
2801697,-1774,42,399,602,-574,-751
2801713,-1739,31,406,583,-584,-760
2801730,-1757,12,401,585,-587,-833
2801747,-1763,60,401,537,-627,-865
2801763,-1692,51,404,530,-660,-928
2801780,-1706,48,403,557,-666,-900
2801797,-1675,51,404,576,-640,-885
2801814,-1645,54,394,588,-632,-866
2801830,-1658,33,403,552,-668,-911
2801847,-1624,68,400,552,-631,-875
2801864,-1624,68,398,576,-635,-843
2801879,-1597,20,403,517,-677,-915
2801896,-1590,30,399,550,-656,-871
2801913,-1550,42,403,574,-663,-839
2801944,-1553,19,400,567,-651,-814
2801962,-1492,46,402,573,-637,-776
2801978,-1523,45,401,580,-610,-751
2801996,-1508,41,399,573,-615,-722
2802012,-1499,21,399,586,-624,-753
2802029,-1502,8,409,588,-573,-638
2802045,-1517,-26,403,574,-609,-680
2802062,-1522,-19,406,587,-607,-677
2802079,-1513,-17,408,575,-611,-684
2802095,-1507,-18,402,562,-619,-695
2802112,-1493,15,407,598,-595,-666
2802128,-1497,0,404,583,-618,-679
2802146,-1488,3,404,582,-606,-683
2802163,-1485,3,411,576,-600,-675
2802179,-1444,22,406,612,-566,-634
2802195,-1519,-57,408,553,-651,-735
2802212,-1431,48,415,556,-647,-729
2802228,-1383,111,412,560,-680,-778
2802245,-1360,108,418,541,-727,-813
2802262,-1405,86,414,509,-740,-842
2802293,-1343,134,410,570,-669,-780
2802311,-1343,115,415,587,-659,-774
2802327,-1359,121,410,586,-651,-780
2802345,-1330,137,422,586,-644,-749
2802361,-1333,130,416,548,-677,-773
2802378,-1362,100,431,551,-674,-762
2802395,-1345,68,437,518,-679,-645
2802412,-1351,69,428,518,-679,-512
2802429,-1345,74,427,509,-679,-470
2802445,-1320,59,426,525,-665,-425
2802462,-1323,68,428,522,-662,-412
2802479,-1292,97,432,489,-690,-394
2802496,-1341,67,429,505,-706,-433
2802527,-1268,83,430,536,-642,-357
2802544,-1289,103,439,550,-607,-341
2802561,-1277,77,434,550,-615,-337
2802577,-1263,99,434,526,-617,-309
2802594,-1203,109,438,530,-643,-273
2802610,-1152,104,451,511,-653,-230
2802642,-953,234,433,600,-580,-20
2802659,-946,225,441,607,-562,22
2802677,-877,283,406,685,-499,90
2802693,-991,187,438,607,-599,-101
2802711,-1067,175,438,604,-583,-127
2802727,-1161,92,445,566,-613,-191
2802744,-1128,132,413,601,-589,-175
2802760,-1200,63,445,570,-599,-190
2802777,-1229,63,432,582,-593,-115
2802794,-1262,9,444,536,-589,-152
2802810,-1292,22,441,553,-596,-142
2802827,-1243,56,435,566,-553,-80
2802844,-1250,60,434,551,-564,-136
2802875,-1225,69,445,560,-566,-204
2802893,-1192,82,428,588,-507,-149
2802910,-1205,67,434,573,-529,-191
2802925,-1164,72,442,580,-564,-208
2802942,-1056,212,415,612,-425,-55
2802960,-1042,190,411,660,-458,-67
2802976,-1072,171,421,645,-484,-46
2802993,-1024,187,413,660,-438,-18
2803010,-1038,185,412,672,-442,-4
2803026,-990,202,415,680,-423,0
2803043,-1003,189,415,675,-429,-25
2803060,-972,203,423,671,-398,-25
2803076,-974,209,428,666,-403,-61
2803108,-998,191,439,634,-405,-21
2803126,-996,164,438,608,-427,-51
2803141,-1040,144,441,573,-436,-76
2803158,-1025,159,422,583,-419,-18
2803175,-1051,189,409,614,-393,25
2803193,-961,265,374,713,-300,143
2803225,-831,384,331,844,-178,361
2803242,-694,520,276,964,-52,504
2803259,-467,730,198,1199,155,747
2803276,-423,782,188,1237,212,803
2803293,-399,802,199,1251,209,824
2803309,-381,808,106,1382,233,828
2803341,-146,1021,93,1495,448,1052
2803358,-530,633,237,1159,107,661
2803375,-771,385,312,922,-58,441
2803392,-879,230,378,809,-134,320
2803409,-1006,115,399,688,-242,180
2803426,-1072,68,423,660,-229,154
2803457,-919,217,351,790,-87,450
2803475,-1135,-85,486,515,-313,279
2803492,-1445,-353,601,248,-563,59
2803508,-1917,-831,779,-251,-996,-423
2803525,-1501,-397,548,165,-587,50
2803542,-1397,-274,520,314,-475,221
2803557,-1226,-135,475,439,-369,374
2803575,-1229,-127,482,476,-370,365
2803591,-1158,-76,470,529,-298,372
2803608,-1123,-8,467,544,-246,367
2803625,-1076,23,443,582,-244,467
2803642,-985,105,421,671,-145,583
2803658,-902,185,392,747,-67,704
2803690,-871,195,372,802,29,865
2803707,-878,169,375,782,4,857
2803725,-894,108,401,736,-46,859
2803741,-981,36,440,636,-111,835
2803758,-1114,-72,452,554,-217,748
2803774,-1120,-70,449,548,-190,769
2803792,-1034,-11,418,587,-139,884
2803809,-1005,74,385,671,-57,938
2803825,-872,134,380,733,-23,1060
2803842,-802,246,369,810,82,1148
2803858,-788,264,346,818,99,1274
2803875,-628,333,317,902,175,1418
2803892,-510,386,302,925,209,1465
2803923,-395,317,321,861,143,1407
2803941,-309,337,317,865,161,1435
2803958,-286,367,299,918,182,1440
2803973,-271,386,293,924,189,1442
2803991,-297,386,352,836,163,1375
2804006,-589,194,403,719,-17,1161
2804024,-729,53,485,569,-87,1064
2804042,-909,-168,555,404,-234,888
2804058,-1030,-301,606,257,-398,726
2804075,-883,-88,514,425,-230,914
2804091,-764,104,460,635,-36,1107
2804108,-644,161,418,713,-8,1198
2804125,-561,273,391,759,65,1284
2804155,-387,418,349,889,155,1427
2804173,-453,359,338,838,124,1360
2804189,-445,381,347,854,139,1402
2804206,-489,373,334,833,127,1372
2804223,-356,473,344,952,220,1481
2804239,-327,492,327,979,241,1525
2804257,-273,575,323,1024,292,1563
2804273,-279,563,320,1027,294,1543
2804290,-276,555,330,1027,295,1526
2804306,-410,484,342,964,234,1455
2804323,-383,472,353,914,169,1400
2804340,-424,431,374,887,144,1368
2804357,-395,419,396,872,116,1307
2804388,-471,367,401,805,53,1211
2804406,-465,334,392,771,31,1190
2804422,-438,345,389,775,29,1210
2804440,-458,353,381,794,30,1276
2804456,-417,378,380,794,37,1298
2804473,-376,431,376,833,64,1351
2804489,-367,455,377,829,96,1372
2804507,-399,451,377,837,66,1329
2804523,-330,484,391,842,97,1379
2804539,-333,465,413,829,99,1383
2804556,-306,472,409,831,116,1420
2804573,-311,455,415,785,45,1361
2804589,-280,458,420,812,85,1387
2804606,-271,497,422,842,103,1437
2804623,-205,531,411,886,147,1474
2804639,-174,550,408,935,149,1473
2804656,-87,623,391,977,215,1522
2804672,9,670,389,1014,246,1568
2804689,3,677,385,1012,240,1532
2804705,45,683,385,1024,239,1529
2804738,10,637,386,986,202,1473
2804755,63,669,364,1007,227,1508
2804771,53,625,363,989,213,1473
2804789,52,643,353,995,278,1516
2804805,96,661,374,1007,335,1542
2804822,54,647,384,988,288,1492
2804854,19,588,408,908,222,1430
2804871,29,588,403,930,218,1470
2804889,102,602,416,882,187,1500
2804905,104,596,426,888,162,1458
2804921,93,594,438,807,54,1345
2804938,35,641,441,800,29,1275
2804970,-98,566,445,707,-117,1064
2804988,-105,594,427,742,-101,1070
2805004,-85,626,416,791,-51,1099
2805022,-105,646,412,801,-34,1100
2805039,-121,601,413,770,-66,1081
2805054,-167,512,412,687,-136,958
2805088,-303,455,441,637,-207,885
2805105,-368,401,445,585,-234,819
2805123,-350,421,445,604,-237,804
2805139,-371,406,435,586,-234,771
2805155,-341,415,435,623,-278,756
2805172,-352,434,436,611,-347,717
2805203,-272,530,420,649,-296,707
2805221,-229,548,414,686,-288,668
2805238,-241,554,407,716,-253,679
2805254,-218,548,411,717,-264,633
2805271,-229,541,410,736,-250,628
2805288,-263,522,404,696,-286,553
2805320,-226,553,405,735,-254,523
2805337,-250,555,405,732,-270,476
2805354,-220,570,409,746,-251,470
2805370,-229,589,406,749,-237,473
2805388,-215,562,401,740,-278,405
2805404,-198,582,410,749,-256,400
2805436,-229,583,397,762,-247,357
2805454,-195,566,398,742,-323,276
2805469,-258,563,394,771,-221,387
2805487,-231,526,398,802,-144,437
2805504,-205,526,401,833,-121,464
2805520,-207,535,400,846,-132,434
2805553,-169,552,393,838,-137,378
2805570,-199,501,400,797,-168,312
2805586,-180,521,389,797,-186,224
2805604,-88,591,393,880,-92,288
2805620,-123,584,392,852,-122,231
2805636,-121,585,404,865,-101,215
2805668,-144,584,406,873,-106,188
2805686,-184,544,408,835,-143,114
2805702,-205,528,410,814,-172,61
2805719,-260,489,409,785,-193,31
2805736,-270,517,404,756,-230,4
2805753,-233,544,408,792,-205,18
2805785,-265,564,413,789,-284,21
2805802,-289,536,410,773,-326,-14
2805820,-319,515,410,758,-350,-71
2805836,-296,510,413,746,-346,-75
2805853,-315,510,415,757,-337,-95
2805869,-316,493,395,762,-347,-97
2805901,-287,503,395,747,-338,-121
2805919,-301,513,396,747,-327,-137
2805936,-307,473,387,714,-369,-184
2805953,-296,497,396,771,-318,-143
2805970,-268,521,400,735,-351,-163
2805986,-273,497,398,729,-390,-203
2806018,-359,476,398,683,-423,-241
2806036,-352,454,403,653,-443,-274
2806053,-354,478,392,660,-424,-264
2806069,-366,465,391,650,-426,-293
2806086,-387,461,399,653,-422,-289
2806102,-384,471,387,652,-444,-319
2806134,-400,488,387,671,-414,-340
2806152,-464,433,393,622,-459,-406
2806167,-503,428,391,636,-438,-439
2806184,-523,426,391,611,-433,-467
2806202,-540,420,400,587,-465,-516
2806219,-546,409,409,601,-463,-540
2806251,-525,476,405,650,-405,-540
2806268,-513,477,404,635,-419,-576
2806285,-540,482,407,651,-399,-568
2806302,-562,471,412,632,-419,-595
2806319,-597,446,414,608,-450,-633
2806336,-606,440,402,590,-464,-689
2806368,-634,400,416,558,-466,-723
2806385,-648,398,408,569,-485,-771
2806402,-657,395,410,608,-440,-752
2806418,-630,413,410,633,-389,-700
2806434,-690,371,416,627,-376,-730
2806451,-639,379,412,645,-370,-744
2806483,-665,354,411,608,-403,-818
2806501,-656,387,408,609,-394,-824
2806520,-609,418,411,659,-350,-807
2806534,-636,388,408,629,-385,-864
2806552,-627,387,409,639,-374,-858
2806568,-668,352,411,612,-410,-924
2806600,-665,362,415,616,-401,-949
2806617,-621,398,410,670,-384,-935
2806634,-637,385,410,695,-299,-837
2806651,-666,329,416,668,-308,-863
2806667,-632,380,409,720,-283,-850
2806684,-626,386,417,730,-261,-839
2806716,-647,378,407,723,-282,-870
2806733,-623,385,402,720,-305,-878
2806751,-620,384,400,732,-310,-858
2806768,-661,371,393,706,-351,-880
2806784,-678,357,409,682,-364,-912
2806800,-674,349,398,702,-368,-912
2806833,-675,361,402,717,-323,-876
2806851,-667,393,396,738,-310,-857
2806866,-642,388,388,731,-313,-860
2806883,-619,423,408,748,-276,-831
2806900,-640,410,397,709,-292,-839
2806917,-661,396,393,691,-287,-856
2806949,-591,427,390,737,-288,-783
2806966,-462,540,403,734,-317,-731
2806983,-352,634,403,764,-314,-698
2806999,-322,639,402,752,-350,-718
2807016,-235,711,392,791,-345,-700
2807033,-180,754,403,795,-316,-628
2807065,-134,787,411,822,-272,-550
2807082,-139,787,410,821,-292,-525
2807099,-117,798,408,829,-270,-484
2807115,-157,760,403,811,-295,-491
2807133,-142,795,402,834,-280,-455
2807150,-142,812,400,864,-234,-399
2807182,-139,803,408,862,-218,-286
2807199,-160,776,402,865,-208,-231
2807216,-134,803,408,883,-169,-172
2807233,-131,786,407,905,-184,-149
2807250,-111,827,408,937,-178,-84
2807266,-87,818,412,927,-147,-34
2807298,-145,771,411,938,-164,7
2807316,-154,768,413,931,-163,51
2807332,-145,756,408,923,-166,82
2807349,-258,659,412,816,-252,34
2807366,-360,555,409,741,-326,-46
2807382,-428,500,411,693,-375,-70
2807415,-369,552,409,772,-277,36
2807431,-343,626,406,816,-245,63
2807449,-357,579,403,800,-256,78
2807465,-351,587,404,838,-256,91
2807482,-389,560,398,832,-256,79
2807499,-406,556,400,817,-284,93
2807531,-460,481,403,745,-334,45
2807549,-431,521,404,766,-288,83
2807565,-388,559,407,804,-278,114
2807582,-415,538,411,783,-280,102
2807599,-412,549,406,757,-320,59
2807615,-425,537,406,760,-279,82
2807647,-426,542,406,824,-243,96
2807665,-457,538,403,751,-295,28
2807682,-508,478,393,709,-370,-41
2807698,-531,471,402,688,-389,-94
2807715,-577,430,389,643,-404,-136
2807732,-557,459,411,687,-337,-93
2807764,-567,479,392,693,-373,-151
2807780,-571,461,391,646,-418,-201
2807797,-579,459,409,680,-406,-225
2807814,-624,428,393,686,-377,-234
2807831,-683,416,398,641,-411,-361
2807848,-618,491,393,707,-366,-349
2807880,-622,543,406,789,-317,-367
2807898,-516,651,396,880,-213,-301
2807915,-566,625,400,875,-216,-357
2807931,-609,589,402,795,-245,-438
2807950,-727,503,405,735,-349,-584
2807964,-733,477,404,711,-387,-667
2807996,-722,516,401,772,-344,-697
2808013,-719,543,404,763,-329,-705
2808031,-630,607,400,802,-280,-674
2808048,-710,570,402,741,-315,-715
2808065,-722,547,403,775,-317,-764
2808081,-675,580,405,818,-275,-712
2808129,-708,557,400,791,-277,-763
2808147,-745,524,406,743,-332,-802
2808164,-840,402,389,652,-443,-905
2808181,-830,405,399,628,-472,-929
2808196,-834,402,398,645,-470,-915
2808214,-778,453,400,672,-424,-875
2808246,-773,458,399,676,-413,-846
2808264,-709,493,402,753,-369,-784
2808281,-699,489,402,761,-365,-787
2808297,-737,473,389,725,-385,-825
2808314,-716,490,403,776,-382,-811
2808331,-632,566,390,795,-322,-752
2808362,-675,515,404,780,-354,-769
2808380,-657,511,397,766,-370,-803
2808397,-637,547,392,799,-329,-759
2808413,-650,553,391,805,-332,-771
2808429,-636,540,405,786,-343,-826
2808446,-676,518,398,785,-366,-841
2808478,-626,585,405,824,-305,-815
2808496,-621,547,403,793,-346,-873
2808513,-662,519,405,779,-380,-925
2808529,-652,517,403,788,-345,-884
2808545,-642,497,407,801,-328,-849
2808563,-602,494,405,794,-334,-848
2808595,-687,459,412,760,-369,-906
2808612,-686,417,407,731,-414,-945
2808629,-713,406,414,727,-412,-940
2808646,-757,368,416,684,-462,-1003
2808662,-772,333,416,657,-479,-1034
2808679,-781,337,413,640,-486,-998
2808712,-802,326,404,610,-531,-1024
2808729,-796,329,404,608,-544,-1046
2808746,-780,359,410,653,-504,-992
2808763,-742,376,410,684,-462,-948
2808779,-744,383,408,686,-462,-929
2808796,-745,367,406,655,-472,-976
2808828,-750,357,412,663,-485,-985
2808845,-784,350,410,632,-511,-993
2808862,-779,336,409,597,-522,-1019
2808879,-782,337,412,594,-529,-1030
2808895,-768,360,415,640,-495,-985
2808912,-756,339,420,601,-527,-991
2808944,-704,401,419,634,-530,-998
2808961,-743,380,420,609,-534,-1030
2808978,-750,387,417,614,-538,-1059
2808995,-783,266,422,513,-635,-1168
2809012,-881,248,415,479,-648,-1197
2809029,-883,237,418,495,-653,-1215
2809061,-879,259,415,533,-666,-1212
2809079,-879,252,416,562,-660,-1213
2809094,-857,289,412,600,-626,-1167
2809111,-842,310,413,631,-592,-1145
2809128,-816,344,406,671,-561,-1114
2809145,-794,353,407,671,-556,-1120
2809177,-747,369,406,707,-540,-1087
2809194,-763,391,411,726,-530,-1075
2809210,-735,401,408,765,-505,-1040
2809227,-674,464,414,823,-448,-1001
2809245,-718,421,413,824,-455,-1023
2809261,-694,463,407,863,-434,-1000
2809293,-683,426,411,808,-475,-1073
2809310,-700,434,409,815,-471,-1060
2809328,-680,425,411,827,-462,-1056
2809345,-719,375,406,771,-538,-1115
2809360,-745,361,404,766,-544,-1126
2809381,-680,411,407,825,-507,-1063
2809410,-615,485,408,881,-429,-972
2809427,-598,486,404,896,-430,-971
2809444,-622,458,401,866,-432,-988
2809461,-612,460,405,885,-423,-987
2809478,-683,406,399,799,-464,-1068
2809494,-730,345,406,763,-521,-1130
2809511,-749,322,394,755,-529,-1154
2809543,-674,428,389,865,-410,-1050
2809559,-573,493,389,934,-345,-936
2809577,-518,527,394,954,-311,-905
2809594,-517,539,395,951,-320,-899
2809611,-483,566,389,966,-293,-876
2809628,-493,552,392,925,-320,-904
2809659,-515,533,406,917,-334,-893
2809677,-559,483,405,875,-377,-929
2809693,-528,509,410,888,-359,-914
2809711,-498,512,409,892,-356,-879
2809727,-383,592,408,970,-280,-795
2809744,-370,602,406,983,-264,-776
2809777,-406,618,405,987,-251,-792
2809793,-369,629,408,996,-248,-728
2809810,-403,603,403,975,-261,-745
2809827,-404,594,410,941,-287,-784
2809843,-401,593,402,939,-286,-772
2809860,-407,583,402,927,-279,-773
2809892,-298,705,413,1044,-170,-641
2809910,-286,670,411,1024,-198,-632
2809926,-322,669,406,978,-220,-666
2809943,-308,669,413,1009,-200,-643
2809959,-342,635,412,986,-244,-659
2809976,-349,625,415,983,-240,-660
2809993,-344,609,414,955,-264,-678
2810011,-376,582,414,911,-287,-701
2810027,-369,567,412,909,-297,-707
2810044,-427,532,414,842,-359,-792
2810061,-362,585,412,917,-300,-712
2810077,-297,650,411,974,-229,-663
2810094,-332,607,403,949,-261,-689
2810111,-367,572,409,885,-300,-734
2810127,-416,519,408,844,-337,-790
2810143,-460,481,407,770,-384,-824
2810160,-489,468,415,755,-406,-868
2810177,-453,482,408,766,-390,-827
2810193,-394,523,409,811,-346,-773
2810211,-424,492,407,777,-389,-806
2810227,-440,486,411,762,-388,-795
2810244,-432,489,409,764,-378,-783
2810260,-388,525,403,748,-295,-688
2810277,-437,480,402,695,-343,-735
2810293,-423,451,405,647,-381,-724
2810310,-602,357,398,567,-446,-845
2810327,-553,390,403,593,-414,-807
2810344,-660,300,403,501,-507,-911
2810361,-674,278,404,460,-539,-924
2810378,-661,286,408,468,-537,-918
2810394,-640,316,406,538,-496,-878
2810410,-510,480,407,653,-350,-708
2810427,-566,392,407,555,-429,-792
2810444,-523,412,407,596,-397,-775
2810474,-584,339,406,507,-463,-828
2810492,-653,262,407,459,-537,-904
2810509,-656,254,407,386,-591,-955
2810525,-653,256,403,380,-598,-963
2810542,-676,244,406,370,-607,-979
2810559,-686,232,408,355,-613,-995
2810575,-685,214,403,318,-651,-1027
2810592,-638,279,408,373,-600,-962
2810609,-654,266,405,372,-596,-957
2810626,-616,320,406,429,-548,-888
2810643,-602,320,412,431,-555,-877
2810659,-595,339,414,436,-529,-864
2810675,-564,337,413,456,-537,-842
2810693,-619,300,413,425,-560,-877
2810709,-655,261,405,390,-599,-920
2810725,-677,256,406,388,-601,-900
2810743,-692,239,400,351,-628,-939
2810759,-720,194,401,319,-672,-977
2810776,-752,166,406,285,-699,-988
2810792,-770,160,403,283,-701,-987
2810823,-766,143,406,258,-711,-963
2810841,-804,150,406,270,-697,-980
2810857,-730,176,407,289,-684,-902
2810874,-711,198,409,304,-675,-899
2810891,-695,204,405,316,-658,-882
2810907,-672,233,409,364,-621,-838
2810924,-676,250,410,375,-631,-840
2810941,-670,239,409,343,-643,-844
2810958,-675,251,411,347,-645,-862
2810974,-700,272,404,363,-636,-850
2810991,-654,295,403,382,-614,-804
2811007,-636,288,398,372,-623,-797
2811024,-659,263,404,355,-647,-821
2811040,-677,247,402,339,-645,-815
2811057,-685,252,401,347,-640,-793
2811074,-655,282,394,363,-607,-765
2811091,-692,267,397,348,-626,-793
2811107,-673,302,397,370,-595,-747
2811123,-642,302,397,385,-596,-726
2811140,-673,301,388,374,-590,-737
2811172,-599,384,402,468,-534,-644
2811190,-550,417,401,493,-519,-614
2811206,-550,395,404,481,-546,-660
2811222,-530,431,399,502,-512,-619
2811240,-519,412,405,517,-516,-601
2811256,-515,423,399,508,-507,-631
2811273,-521,446,409,515,-496,-626
2811290,-465,450,407,535,-493,-625
2811307,-464,459,400,532,-482,-623
2811323,-481,433,410,512,-505,-651
2811340,-483,450,400,526,-476,-638
2811356,-449,463,400,528,-466,-629
2811373,-458,452,407,514,-471,-639
2811390,-473,459,385,493,-482,-674
2811407,-459,487,406,512,-461,-668
2811424,-455,500,384,501,-444,-660
2811441,-452,516,390,543,-424,-645
2811457,-458,512,387,526,-433,-659
2811474,-534,466,391,484,-471,-712
2811491,-548,489,388,518,-449,-687
2811521,-540,505,387,552,-421,-667
2811538,-600,472,391,523,-470,-739
2811555,-571,504,390,541,-434,-713
2811573,-544,505,388,563,-447,-730
2811588,-565,496,392,544,-458,-753
2811605,-659,396,390,430,-567,-866
2811622,-670,374,396,433,-576,-897
2811639,-677,375,399,417,-572,-893
2811655,-662,387,390,425,-557,-876
2811673,-627,418,398,451,-531,-857
2811690,-658,397,398,467,-533,-866
2811706,-720,335,398,397,-600,-912
2811723,-655,397,408,454,-537,-859
2811754,-665,397,404,460,-518,-838
2811771,-722,366,402,444,-529,-923
2811788,-653,383,398,439,-522,-825
2811806,-569,437,404,477,-486,-761
2811822,-602,440,408,472,-495,-766
2811839,-594,444,405,472,-485,-765
2811855,-621,403,410,459,-514,-767
2811872,-639,404,405,413,-512,-784
2811889,-663,396,401,454,-522,-781
2811905,-632,400,405,454,-505,-755
2811921,-618,421,405,487,-482,-726
2811938,-649,385,407,458,-529,-754
2811955,-683,356,411,419,-547,-773
2811987,-667,375,405,438,-539,-754
2812004,-633,393,399,442,-517,-716
2812022,-705,354,401,406,-554,-740
2812038,-698,349,409,382,-575,-762
2812055,-692,340,404,388,-577,-756
2812071,-675,374,411,414,-544,-732
2812089,-658,386,405,411,-562,-714
2812106,-663,376,393,417,-545,-727
2812122,-656,382,404,440,-526,-700
2812139,-673,344,407,403,-567,-723
2812157,-646,363,409,435,-543,-706
2812173,-663,381,401,403,-577,-724
2812190,-619,411,401,426,-562,-702
2812206,-627,408,389,442,-566,-723
2812222,-644,404,404,441,-566,-716
2812240,-649,399,386,438,-555,-705
2812256,-675,376,403,420,-588,-744
2812273,-665,373,400,428,-593,-745
2812290,-675,385,401,409,-592,-752
2812306,-698,366,400,411,-589,-754
2812337,-673,397,399,440,-570,-715
2812354,-666,399,407,455,-585,-716
2812371,-633,411,397,459,-553,-699
2812387,-665,411,389,468,-547,-669
2812404,-662,420,393,502,-522,-696
2812420,-640,450,395,510,-523,-652
2812437,-637,422,399,496,-529,-685
2812454,-631,414,388,503,-506,-694
2812471,-635,440,383,532,-444,-691
2812487,-585,466,383,571,-426,-673
2812504,-607,459,382,575,-437,-696
2812521,-603,465,380,584,-416,-684
2812537,-597,472,372,609,-410,-700
2812554,-597,472,372,609,-410,-700
2812570,-597,472,372,609,-410,-700
2812587,-597,472,372,609,-410,-700
2812604,-597,472,372,609,-410,-700
2812622,-534,474,379,623,-406,-750
2812637,-562,455,378,588,-436,-764
2812654,-562,446,384,577,-437,-789
2812686,-513,509,385,617,-383,-708
2812703,-524,468,381,590,-423,-734
2812720,-499,511,393,637,-357,-670
2812735,-535,441,411,575,-435,-738
2812753,-489,455,409,613,-400,-698
2812770,-463,489,410,622,-390,-666
2812786,-444,507,415,644,-375,-634
2812804,-398,525,411,651,-363,-612
2812820,-415,529,399,638,-362,-603
2812836,-415,524,413,648,-354,-602
2812853,-364,562,405,680,-333,-544
2812869,-369,564,409,682,-319,-534
2812886,-392,523,401,667,-351,-540
2812903,-401,529,395,654,-342,-541
2812920,-403,528,399,674,-340,-523
2812937,-370,511,398,634,-357,-539
2812954,-389,509,395,617,-373,-536
2812970,-390,502,400,628,-374,-525
2812986,-341,536,393,674,-352,-499
2813004,-337,536,407,686,-326,-455
2813020,-334,527,395,672,-360,-464
2813036,-380,498,398,674,-371,-482
2813053,-304,541,394,676,-343,-421
2813070,-328,532,390,671,-355,-445
2813087,-341,514,389,643,-368,-429
2813103,-331,530,397,672,-364,-413
2813120,-305,523,393,678,-356,-395
2813137,-316,538,401,678,-338,-364
2813153,-327,512,395,670,-360,-395
2813171,-349,511,402,668,-343,-378
2813186,-313,542,389,683,-326,-364
2813203,-311,531,391,670,-320,-327
2813219,-341,509,401,638,-352,-373
2813237,-359,520,401,635,-363,-374
2813253,-322,529,413,655,-329,-332
2813270,-344,552,403,676,-326,-319
2813287,-236,578,400,697,-294,-277
2813303,-195,618,388,738,-267,-240
2813319,-174,644,398,746,-254,-220
2813337,-141,642,404,758,-236,-203
2813354,-189,633,401,730,-261,-219
2813384,-129,654,387,754,-230,-173
2813402,-105,690,375,793,-188,-119
2813418,-57,726,375,830,-147,-59
2813435,-123,669,390,795,-211,-118
2813452,-60,708,399,805,-159,-57
2813468,-67,697,397,848,-179,-59
2813485,-37,716,393,831,-171,-41
2813502,-19,755,388,863,-130,-15
2813518,19,765,409,868,-125,1
2813535,-12,769,393,874,-139,-5
2813551,-1,768,402,884,-123,-2
2813568,-20,766,398,907,-141,6
2813585,24,811,392,924,-100,35
2813602,24,820,398,917,-107,38
2813618,10,818,408,929,-89,45
2813636,18,810,399,918,-102,23
2813652,33,832,402,926,-83,43
2813669,10,809,397,914,-110,18
2813685,41,824,404,944,-82,30
2813702,50,843,396,969,-69,51
2813718,66,839,408,973,-61,58
2813735,54,847,387,974,-60,64
2813751,49,854,417,988,-49,72
2813769,11,803,386,931,-90,8
2813785,-18,791,396,909,-119,-12
2813802,-53,760,393,875,-146,-49
2813818,-15,802,390,901,-108,-31
2813835,-18,803,394,899,-104,-25
2813852,-5,812,391,920,-94,-7
2813868,-2,815,392,917,-74,0
2813885,-12,800,391,915,-92,-17
2813902,-27,781,390,881,-120,-37
2813919,-12,800,392,917,-114,-33
2813936,-8,802,394,914,-98,-16
2813966,-20,793,400,901,-127,-24
2813982,19,828,387,924,-97,2
2814000,5,812,409,919,-128,-4
2814016,-22,796,407,904,-134,-39
2814033,-5,821,405,908,-120,-9
2814050,-18,817,395,914,-123,-6
2814066,-8,805,390,921,-124,2
2814084,3,832,390,935,-107,18
2814100,-8,801,404,907,-118,30
2814117,-16,805,407,893,-125,6
2814133,-37,791,404,895,-126,9
2814149,1,822,402,912,-123,25
2814166,10,843,403,934,-103,46
2814183,-16,808,402,915,-113,30
2814199,-22,791,398,903,-109,45
2814218,-34,775,400,925,-97,52
2814233,-26,777,399,929,-97,2
2814250,-67,757,407,905,-131,-43
2814266,-19,778,410,918,-124,-51
2814283,-38,777,401,906,-137,-68
2814300,-34,787,396,937,-110,-61
2814316,-72,772,397,911,-133,-82
2814333,-34,804,406,937,-107,-71
2814350,-45,780,412,948,-109,-93
2814367,16,857,400,1012,-29,-15
2814383,45,896,411,1037,2,24
2814400,76,912,405,1073,30,43
2814431,56,907,400,1038,7,9
2814449,77,911,390,1053,-3,54
2814466,51,893,401,1039,-6,50
2814481,32,873,401,1034,-13,57
2814499,36,874,403,990,-17,48
2814516,-20,828,411,981,-65,30
2814533,-15,873,399,968,-74,-6
2814550,-5,893,408,974,-55,13
2814566,-16,867,399,980,-80,3
2814583,3,904,388,1018,-39,48
2814600,6,896,404,1011,-37,61
2814617,-3,883,410,967,-58,26
2814633,-38,862,405,964,-76,-7
2814665,-32,861,407,989,-67,29
2814682,-30,866,406,989,-67,43
2814698,-12,883,401,1002,-44,53
2814715,-42,870,409,995,-61,40
2814732,-80,834,396,933,-100,-6
2814748,-130,804,410,902,-130,-31
2814766,-117,825,413,933,-112,-24
2814782,-119,788,404,912,-137,-18
2814798,-125,808,408,925,-124,-22
2814815,-150,782,402,901,-144,-44
2814831,-135,802,411,899,-138,-47
2814848,-155,785,411,903,-141,-53
2814865,-154,779,414,897,-141,-60
2814882,-159,776,411,907,-139,-66
2814898,-178,761,417,885,-164,-96
2814915,-165,766,413,890,-158,-110
2814932,-180,765,417,879,-161,-105
2814949,-191,746,417,850,-183,-148
2814966,-214,733,420,842,-198,-216
2814981,-202,727,419,865,-193,-227
2814998,-226,736,417,868,-186,-216
2815015,-185,759,417,880,-147,-183
2815031,-187,757,413,869,-169,-202
2815049,-222,713,414,833,-218,-241
2815065,-216,736,418,862,-182,-207
2815082,-226,708,416,834,-214,-239
2815099,-229,738,415,846,-185,-210
2815115,-241,717,415,827,-205,-232
2815132,-262,690,417,838,-213,-252
2815148,-269,689,417,829,-213,-258
2815165,-282,689,414,841,-204,-259
2815181,-302,630,416,763,-267,-353
2815199,-387,589,421,728,-327,-394
2815215,-406,555,418,696,-336,-447
2815231,-416,565,417,690,-353,-454
2815249,-389,584,412,705,-315,-438
2815265,-379,593,413,706,-319,-447
2815281,-376,602,409,715,-313,-444
2815298,-386,621,407,723,-306,-452
2815314,-346,622,405,741,-291,-433
2815332,-350,652,399,761,-272,-428
2815362,-304,699,405,803,-220,-366
2815379,-296,685,407,803,-236,-387
2815396,-293,706,404,835,-190,-352
2815412,-273,730,404,816,-201,-370
2815430,-297,698,404,785,-229,-371
2815446,-282,728,409,819,-181,-379
2815464,-278,724,404,827,-188,-357
2815480,-288,714,414,801,-212,-372
2815497,-319,684,400,775,-259,-356
2815513,-338,675,412,767,-250,-326
2815530,-347,666,408,762,-258,-341
2815547,-385,639,409,710,-283,-385
2815563,-372,651,409,735,-272,-373
2815580,-375,650,408,726,-269,-378
2815596,-400,616,403,688,-298,-427
2815613,-403,613,416,699,-310,-443
2815630,-409,613,406,684,-288,-432
2815647,-403,608,407,670,-304,-443
2815664,-380,630,411,689,-287,-431
2815680,-380,621,407,651,-300,-440
2815711,-361,656,402,676,-256,-434
2815728,-389,624,402,655,-324,-498
2815745,-412,609,400,642,-336,-536
2815761,-414,600,410,644,-337,-526
2815779,-434,586,406,631,-344,-557
2815796,-461,556,400,589,-385,-607
2815812,-464,565,400,611,-378,-619
2815829,-432,566,405,625,-341,-552
2815846,-454,519,402,591,-359,-569
2815862,-413,533,414,631,-326,-527
2815879,-446,501,408,604,-357,-591
2815896,-471,499,395,596,-351,-583
2815912,-469,492,400,604,-352,-583
2815929,-455,494,398,618,-351,-571
2815946,-447,493,399,623,-348,-569
2815963,-469,500,403,619,-375,-570
2815979,-461,499,405,620,-360,-563
2815997,-427,526,403,646,-333,-540
2816013,-452,510,405,619,-359,-550
2816030,-438,511,406,631,-319,-514
2816047,-458,507,407,624,-340,-532
2816062,-444,496,404,630,-337,-521
2816079,-449,535,394,587,-361,-546
2816096,-454,536,396,599,-369,-568
2816113,-459,521,402,586,-379,-573
2816130,-454,544,397,576,-363,-574
2816146,-455,537,393,595,-364,-542
2816163,-435,528,401,577,-379,-556
2816180,-439,540,386,584,-365,-536
2816196,-434,521,396,588,-366,-525
2816213,-439,540,395,607,-306,-465
2816229,-403,553,390,627,-269,-432
2816246,-392,550,387,628,-285,-389
2816263,-328,603,393,693,-214,-286
2816279,-365,579,392,650,-258,-326
2816296,-348,592,394,658,-248,-305
2816313,-344,605,396,654,-255,-301
2816329,-310,619,393,707,-228,-228
2816346,-312,610,396,687,-238,-243
2816362,-316,593,386,695,-235,-224
2816380,-298,616,391,708,-215,-190
2816409,-270,643,386,718,-221,-166
2816427,-261,654,386,740,-190,-124
2816443,-263,632,387,727,-192,-115
2816460,-239,669,386,766,-163,-76
2816478,-229,660,381,777,-173,-61
2816497,-218,631,385,741,-186,-45
2816527,-231,645,378,782,-155,-8
2816544,-205,662,373,786,-155,-2
2816561,-173,689,383,822,-143,26
2816577,-203,657,382,791,-164,4
2816594,-236,622,385,722,-203,-50
2816611,-246,626,388,752,-195,-39
2816628,-194,631,386,755,-190,-9
2816644,-143,697,394,824,-138,58
2816660,-221,618,391,750,-186,-9
2816678,-216,627,385,735,-189,-31
2816695,-207,627,402,744,-187,-47
2816711,-162,672,387,792,-156,10
2816728,-142,690,387,804,-130,23
2816744,-126,695,389,821,-102,38
2816760,-147,669,390,776,-136,16
2816777,-159,652,393,754,-158,-30
2816794,-195,638,394,720,-177,-52
2816810,-118,674,397,789,-105,29
2816828,-124,662,404,799,-112,39
2816845,-168,615,398,764,-152,-16
2816876,-151,621,404,758,-164,-23
2816893,-111,670,404,848,-118,33
2816909,-105,666,401,817,-120,34
2816926,-134,636,399,767,-162,-26
2816943,-118,650,399,791,-144,8
2816959,-124,656,394,800,-137,5
2816991,-68,694,404,818,-121,41
2817008,-86,672,405,797,-141,35
2817026,-112,653,407,797,-112,30
2817043,-120,664,404,804,-120,42
2817060,-165,615,407,752,-161,-18
2817076,-120,677,403,759,-144,-10
2817092,-121,661,398,777,-146,-26
2817110,-109,683,407,778,-133,-11
2817126,-91,695,405,790,-118,13
2817143,-74,719,399,835,-95,35
2817159,-48,724,406,819,-98,60
2817176,-19,759,402,863,-42,103
2817193,-27,741,406,839,-74,69
2817209,-24,755,403,856,-56,82
2817226,4,780,405,845,-61,75
2817242,25,795,398,884,-25,97
2817259,15,790,402,874,-39,78
2817276,19,775,397,863,-53,84
2817292,19,813,404,899,-11,82
2817308,42,808,407,902,-24,112
2817326,75,839,405,934,14,135
2817342,67,837,404,926,-4,131
2817359,42,814,402,902,-29,102
2817376,32,794,403,885,-48,84
2817392,63,799,401,908,-64,120
2817410,113,820,399,886,-52,164
2817425,134,812,393,851,-107,164
2817443,174,821,401,858,-92,228
2817460,220,835,393,871,-93,258
2817476,223,843,405,883,-86,278
2817493,228,849,400,900,-72,258
2817509,176,839,394,865,-81,234
2817525,145,825,391,883,-82,202
2817542,134,826,392,876,-87,173
2817573,88,857,390,959,-10,181
2817590,47,814,405,897,-62,112
2817607,15,783,399,875,-113,75
2817625,10,790,404,887,-86,100
2817642,-58,776,391,876,-86,78
2817658,-15,774,394,844,-75,74
2817674,-86,739,399,814,-129,21
2817691,-81,718,400,825,-126,30
2817708,-86,734,401,837,-130,24
2817724,-11,803,399,902,-76,84
2817741,-26,796,396,900,-74,95
2817758,-45,784,398,894,-109,84
2817774,-47,758,393,862,-128,74
2817792,-89,757,396,840,-146,46
2817809,-95,728,398,821,-161,22
2817825,-66,750,390,843,-145,38
2817842,-144,713,393,814,-175,-4
2817858,-108,733,391,843,-145,36
2817876,-63,779,389,881,-113,71
2817892,-161,665,400,804,-211,-21
2817908,-204,620,406,749,-247,-80
2817925,-221,674,401,804,-208,-41
2817941,-197,694,400,825,-177,-32
2817958,-131,723,398,832,-180,-13
2817974,-145,737,399,868,-144,14
2817992,-115,750,407,875,-142,12
2818008,-116,744,404,889,-132,26
2818025,-136,735,386,850,-170,-8
2818042,-146,717,406,782,-230,-84
2818058,-227,690,407,776,-223,-159
2818075,-190,693,408,781,-234,-147
2818092,-174,710,399,813,-231,-116
2818109,-154,735,405,826,-221,-113
2818125,-125,744,407,838,-220,-94
2818141,-223,675,408,775,-273,-165
2818158,-313,595,407,707,-337,-246
2818175,-284,617,406,722,-300,-214
2818192,-279,602,414,716,-337,-251
2818208,-347,548,411,661,-380,-292
2818225,-370,542,407,662,-377,-287
2818242,-386,515,412,633,-410,-325
2818272,-370,539,414,651,-393,-281
2818290,-394,514,411,621,-395,-306
2818306,-348,593,413,690,-329,-230
2818324,-344,576,416,672,-351,-255
2818340,-302,599,411,705,-331,-220
2818357,-317,599,410,727,-304,-201
2818374,-269,615,403,742,-291,-155
2818391,-326,553,409,703,-330,-210
2818408,-362,515,410,665,-370,-255
2818424,-425,486,406,634,-378,-332
2818441,-394,470,414,606,-423,-353
2818457,-493,397,410,564,-459,-444
2818474,-528,374,411,520,-495,-465
2818505,-570,324,415,469,-526,-516
2818521,-610,280,414,429,-578,-568
2818539,-622,261,410,420,-578,-573
2818556,-634,262,413,430,-572,-560
2818572,-585,307,413,435,-567,-523
2818590,-545,329,415,443,-513,-462
2818606,-646,258,411,429,-603,-528
2818622,-597,304,404,454,-578,-455
2818639,-555,324,406,481,-563,-419
2818656,-538,321,405,474,-560,-403
2818672,-540,344,408,504,-564,-387
2818689,-494,357,405,506,-548,-376
2818706,-513,351,400,504,-540,-360
2818737,-519,311,403,493,-560,-385
2818754,-544,309,412,464,-593,-421
2818772,-568,298,407,462,-592,-429
2818788,-555,304,410,462,-586,-428
2818805,-575,300,406,442,-605,-450
2818822,-587,293,406,442,-616,-449
2818838,-565,312,406,471,-588,-415
2818855,-569,309,401,476,-569,-409
2818872,-560,328,405,467,-587,-422
2818888,-541,346,403,481,-553,-415
2818905,-539,351,403,486,-564,-426
2818922,-515,347,405,512,-556,-431
2818938,-549,350,409,515,-553,-440
2818970,-520,386,405,518,-537,-444
2818988,-512,371,407,520,-536,-453
2819004,-522,358,406,514,-538,-474
2819022,-526,343,413,504,-563,-508
2819038,-503,372,406,541,-515,-475
2819055,-509,369,405,543,-511,-482
2819071,-477,405,411,598,-473,-451
2819088,-432,435,412,590,-449,-437
2819105,-381,475,405,635,-427,-366
2819121,-440,441,407,629,-445,-404
2819138,-419,511,410,706,-394,-408
2819154,-357,542,412,708,-369,-370
2819171,-321,577,417,737,-338,-354
2819188,-344,554,408,709,-372,-407
2819204,-373,553,414,716,-366,-391
2819221,-360,551,410,704,-365,-424
2819238,-375,551,406,700,-357,-428
2819254,-345,575,411,732,-318,-404
2819271,-343,575,410,750,-310,-398
2819287,-345,570,414,733,-329,-435
2819304,-366,566,409,736,-333,-434
2819321,-351,546,406,719,-332,-448
2819337,-371,531,408,706,-356,-471
2819354,-366,534,404,681,-374,-491
2819371,-391,538,410,723,-338,-477
2819387,-383,510,411,701,-369,-486
2819404,-413,538,409,700,-356,-493
2819421,-325,543,413,721,-348,-461
2819438,-398,500,412,686,-378,-502
2819455,-422,478,407,659,-400,-557
2819472,-422,469,415,659,-418,-552
2819488,-460,455,412,656,-408,-578
2819505,-436,475,410,647,-394,-565
2819521,-411,514,414,702,-346,-519
2819538,-417,504,407,670,-366,-570
2819554,-403,519,408,689,-358,-526
2819571,-402,512,405,701,-363,-555
2819588,-433,485,405,659,-401,-587
2819604,-424,493,408,685,-386,-564
2819621,-415,497,405,667,-371,-550
2819638,-476,461,390,645,-406,-589
2819654,-462,486,392,666,-362,-550
2819671,-478,474,387,648,-384,-556
2819687,-455,473,391,650,-378,-565
2819704,-465,483,392,659,-377,-532
2819721,-445,499,391,661,-373,-529
2819737,-483,476,396,648,-388,-536
2819754,-406,512,403,677,-369,-500
2819771,-462,452,402,621,-415,-538
2819787,-512,435,393,604,-433,-594
2819804,-511,446,404,599,-433,-581
2819821,-462,460,410,606,-430,-562
2819838,-481,461,406,622,-430,-576
2819854,-461,459,417,620,-437,-569
2819870,-466,465,403,651,-400,-549
2819888,-482,470,397,632,-421,-568
2819904,-487,488,404,650,-388,-546
2819920,-501,417,400,585,-457,-637
2819938,-451,502,390,672,-342,-525
2819956,-467,442,391,601,-439,-600
2819971,-480,443,397,591,-425,-611
2819988,-461,475,405,630,-388,-549
2820017,-488,437,408,591,-425,-582
2820035,-439,479,411,627,-397,-564
2820052,-479,438,406,585,-452,-603
2820069,-509,403,414,556,-488,-610
2820085,-437,470,410,614,-419,-555
2820102,-513,423,406,575,-461,-555
2820119,-483,411,408,567,-467,-561
2820136,-478,432,410,584,-449,-537
2820153,-439,455,410,602,-440,-500
2820169,-370,484,403,611,-409,-435
2820187,-318,479,394,620,-422,-363
2820204,-178,549,399,678,-347,-239
2820219,-150,533,403,682,-356,-214
2820236,-83,579,401,729,-336,-152
2820253,-72,595,393,726,-307,-118
2820270,-93,584,389,741,-317,-117
2820286,-79,566,408,705,-335,-95
2820303,-103,568,396,690,-340,-137
2820319,-93,574,394,717,-322,-105
2820336,-130,564,403,693,-333,-190
2820367,-140,556,392,706,-332,-190
2820385,-162,538,396,706,-351,-215
2820401,-184,530,404,685,-349,-227
2820418,-276,485,394,616,-394,-322
2820434,-301,467,402,600,-419,-384
2820451,-317,456,403,613,-427,-423
2820468,-355,441,404,599,-437,-451
2820484,-441,403,390,558,-472,-497
2820501,-411,436,391,591,-426,-481
2820518,-349,464,390,655,-397,-443
2820535,-369,464,390,661,-357,-426
2820552,-468,413,391,608,-412,-483
2820568,-417,448,388,613,-390,-472
2820585,-445,440,393,634,-385,-479
2820602,-462,419,391,609,-407,-518
2820618,-517,386,406,569,-438,-545
2820636,-502,394,396,556,-444,-535
2820651,-514,373,403,540,-456,-547
2820668,-542,368,404,547,-472,-540
2820685,-543,343,408,542,-486,-537
2820716,-509,361,413,538,-500,-523
2820734,-601,306,413,504,-530,-572
2820749,-600,308,408,513,-534,-581
2820766,-507,373,401,552,-477,-510
2820784,-403,458,406,642,-395,-434
2820801,-444,462,404,640,-390,-429
2820818,-412,459,403,652,-375,-422
2820834,-419,466,406,656,-361,-418
2820851,-376,499,393,700,-340,-356
2820868,-367,509,407,697,-316,-361
2820885,-346,499,399,721,-273,-253
2820900,-397,452,393,685,-309,-290
2820919,-431,429,393,649,-333,-329
2820949,-389,462,389,686,-301,-272
2820967,-422,435,414,638,-339,-309
2820983,-389,464,416,674,-312,-266
2821000,-444,424,420,608,-355,-317
2821016,-419,430,418,620,-354,-317
2821034,-404,468,422,657,-322,-274
2821050,-394,451,419,644,-332,-276
2821067,-378,483,417,659,-314,-274
2821083,-387,486,412,659,-317,-286
2821101,-347,555,410,659,-316,-306
2821117,-267,599,415,689,-267,-258
2821134,-347,555,414,655,-299,-303
2821150,-339,559,403,693,-290,-283
2821167,-346,547,407,664,-308,-317
2821184,-270,622,414,737,-230,-221
2821201,-337,605,404,720,-255,-302
2821217,-262,604,409,705,-269,-261
2821235,-294,618,402,732,-245,-241
2821251,-337,576,398,683,-315,-316
2821267,-329,561,400,693,-291,-275
2821298,-422,499,405,617,-367,-353
2821315,-385,517,405,644,-341,-342
2821332,-404,517,399,641,-348,-328
2821350,-406,527,403,641,-314,-298
2821366,-394,474,409,598,-392,-331
2821383,-414,502,404,623,-377,-309
2821399,-383,522,407,645,-344,-276
2821416,-398,496,407,641,-371,-298
2821432,-442,478,407,592,-401,-339
2821450,-418,505,403,599,-366,-298
2821466,-414,498,408,625,-386,-304
2821483,-406,474,404,618,-395,-291
2821500,-452,439,403,564,-425,-351
2821531,-454,456,404,557,-452,-348
2821548,-454,460,411,602,-411,-303
2821566,-430,471,412,600,-404,-255
2821582,-423,465,410,601,-405,-240
2821599,-412,464,412,592,-435,-248
2821615,-474,430,413,562,-442,-257
2821632,-457,416,420,561,-452,-261
2821649,-487,395,416,540,-476,-257
2821666,-474,408,415,562,-455,-241
2821682,-474,395,414,554,-456,-243
2821700,-484,379,410,530,-480,-282
2821716,-526,372,414,511,-496,-270
2821733,-485,399,417,540,-475,-273
2821763,-493,403,420,553,-460,-275
2821781,-474,400,414,553,-470,-251
2821798,-506,374,421,517,-487,-299
2821814,-477,395,420,535,-478,-287
2821831,-479,394,421,527,-498,-298
2821848,-437,422,419,549,-452,-273
2821865,-456,412,421,551,-452,-261
2821881,-467,420,426,579,-424,-247
2821898,-469,411,417,580,-424,-249
2821914,-467,401,420,559,-453,-293
2821931,-433,436,413,599,-421,-247
2821948,-479,409,412,568,-456,-304
2821965,-437,427,414,587,-438,-277
2821996,-416,459,410,605,-409,-266
2822014,-410,455,412,623,-415,-281
2822030,-411,470,405,637,-392,-233
2822047,-382,475,410,655,-382,-226
2822064,-400,456,404,618,-412,-282
2822081,-439,451,413,628,-392,-266
2822098,-396,462,413,622,-391,-283
2822114,-333,530,413,693,-331,-221
2822131,-344,514,420,679,-347,-252
2822148,-335,532,422,653,-363,-265
2822164,-340,533,422,682,-333,-262
2822180,-337,528,424,685,-345,-282
2822197,-339,547,418,652,-366,-319
2822229,-295,605,414,728,-285,-268
2822247,-278,606,417,729,-282,-263
2822263,-277,600,407,745,-281,-259
2822281,-281,599,396,748,-287,-285
2822297,-258,628,402,768,-274,-252
2822314,-306,563,404,711,-318,-311
2822330,-362,519,414,661,-379,-394
2822347,-369,496,412,645,-381,-408
2822363,-378,508,415,665,-375,-401
2822380,-339,541,406,685,-344,-367
2822397,-387,490,422,719,-376,-384
2822413,-229,655,415,835,-209,-241
2822430,-232,628,401,807,-250,-241
2822448,-240,617,420,797,-234,-242
2822464,-246,631,414,822,-234,-239
2822481,-242,641,408,834,-174,-193
2822497,-199,675,404,862,-166,-178
2822515,-190,674,393,869,-128,-161
2822531,-215,676,400,833,-166,-195
2822547,-240,682,389,839,-149,-207
2822578,-267,643,387,811,-187,-245
2822595,-315,615,383,785,-200,-270
2822612,-323,597,379,754,-233,-311
2822630,-328,597,383,760,-236,-310
2822646,-341,579,385,746,-250,-314
2822662,-316,596,386,754,-246,-305
2822679,-318,588,384,748,-252,-319
2822696,-322,573,382,740,-273,-343
2822713,-335,575,384,768,-258,-348
2822729,-323,578,382,764,-264,-336
2822746,-293,589,383,754,-251,-320
2822762,-356,534,381,719,-320,-397
2822780,-381,497,378,667,-327,-429
2822811,-444,463,373,642,-369,-468
2822829,-439,484,374,667,-339,-464
2822845,-369,531,364,719,-301,-386
2822861,-418,468,363,633,-378,-454
2822879,-472,418,355,595,-409,-503
2822896,-440,458,356,646,-374,-455
2822912,-440,453,353,672,-350,-425
2822928,-413,472,349,682,-357,-409
2822945,-413,478,340,688,-339,-411
2822962,-391,492,333,700,-339,-396
2822979,-386,485,330,698,-342,-400
2822995,-391,484,322,696,-355,-406
2823012,-337,530,320,756,-304,-339
2823030,-377,500,319,716,-338,-446
2823045,-342,534,321,758,-305,-597
2823062,-307,568,303,790,-259,-618
2823079,-352,516,333,737,-314,-737
2823096,-361,525,317,754,-302,-752
2823111,-440,440,381,654,-378,-867
2823128,-360,525,320,732,-300,-793
2823145,-395,489,345,680,-337,-862
2823162,-309,568,312,769,-275,-790
2823178,-310,576,324,781,-241,-785
2823195,-350,519,333,720,-307,-847
2823212,-367,492,357,690,-345,-892
2823230,-410,475,357,655,-371,-941
2823246,-421,455,375,626,-403,-970
2823263,-449,420,376,619,-419,-978
2823279,-537,315,467,538,-505,-1068
2823296,-433,426,449,588,-394,-952
2823313,-624,2250,-1007,2281,1256,-1171
2823329,4091,4430,-1737,4601,3397,3848
2823345,777,666,439,884,-216,-759
2823361,-201,664,371,904,-181,-725
2823379,-285,562,356,783,-280,-862
2823396,-281,565,339,806,-265,-828
2823412,-325,541,345,763,-295,-859
2823429,-406,464,378,662,-347,-924
2823445,-404,450,395,655,-368,-945
2823462,-435,394,423,611,-397,-965
2823478,-485,353,431,582,-447,-1020
2823496,-492,362,419,581,-431,-1010
2823512,-444,399,403,617,-404,-972
2823528,-413,418,399,638,-388,-929
2823545,-413,427,396,634,-385,-930
2823562,-432,390,424,619,-413,-957
2823578,-431,346,435,571,-470,-986
2823595,-481,355,425,571,-466,-1008
2823611,-394,411,416,617,-415,-949
2823630,-350,457,413,673,-376,-872
2823646,-351,451,408,670,-361,-872
2823662,-359,447,412,659,-367,-863
2823679,-358,444,419,670,-359,-863
2823695,-345,455,394,686,-341,-832
2823713,-284,514,381,748,-281,-767
2823742,-246,548,371,794,-267,-751
2823760,-205,585,368,810,-226,-707
2823777,-216,557,368,811,-227,-710
2823792,-214,578,379,812,-227,-704
2823809,-202,575,385,793,-247,-701
2823827,-278,519,391,715,-300,-780
2823842,-243,539,385,729,-275,-758
2823860,-202,575,384,791,-235,-690
2823877,-208,576,382,779,-256,-674
2823893,-267,522,385,728,-296,-728
2823910,-267,519,403,728,-318,-734
2823926,-270,509,411,714,-312,-730
2823943,-285,510,416,698,-338,-732
2823960,-234,528,410,725,-299,-694
2823977,-243,536,400,720,-316,-683
2823993,-211,612,401,798,-220,-644
2824009,-68,691,401,885,-156,-485
2824026,-119,650,400,865,-191,-521
2824042,-86,671,414,857,-175,-516
2824060,-128,652,408,848,-217,-535
2824077,-71,702,394,896,-142,-470
2824093,-38,740,379,920,-117,-438
2824110,-70,685,442,810,-159,-474
2824126,-243,523,486,698,-306,-628
2824144,-260,518,450,715,-301,-626
2824159,-157,608,405,808,-225,-531
2824177,-104,671,365,895,-147,-441
2824208,-42,731,336,924,-101,-392
2824226,4,787,337,956,-77,-345
2824241,11,775,331,955,-82,-351
2824259,4,782,329,948,-76,-345
2824276,-5,774,330,944,-79,-335
2824292,-17,760,350,937,-104,-346
2824309,18,781,338,937,-79,-314
2824325,-8,791,343,950,-79,-286
2824342,13,801,334,964,-42,-231
2824359,13,801,342,924,-46,-216
2824375,-39,759,354,898,-91,-274
2824393,-60,732,371,891,-96,-369
2824410,-67,724,366,877,-125,-474
2824426,-48,742,374,894,-103,-504
2824443,-46,764,365,899,-83,-526
2824460,-32,763,362,924,-86,-547
2824476,-52,764,361,930,-69,-553
2824493,-35,705,387,861,-151,-579
2824510,-168,659,420,773,-174,-722
2824525,-168,639,422,800,-182,-719
2824557,-210,596,434,776,-234,-784
2824573,-204,648,405,793,-193,-727
2824590,-106,728,384,873,-137,-648
2824608,-54,778,375,928,-74,-579
2824625,-90,756,386,910,-109,-615
2824641,-105,735,393,901,-99,-626
2824673,-89,725,394,892,-114,-634
2824691,-82,767,363,945,-77,-566
2824707,-34,796,333,978,-39,-520
2824725,1,837,326,1000,0,-476
2824741,-25,817,345,982,-36,-497
2824758,-97,736,385,912,-108,-553
2824775,-84,749,384,904,-100,-527
2824792,-79,774,366,951,-77,-481
2824808,-59,784,345,964,-60,-463
2824825,-49,811,340,969,-46,-433
2824842,-52,820,338,947,-52,-436
2824859,-71,788,363,915,-73,-452
2824875,-129,743,378,885,-110,-466
2824907,-148,711,381,885,-115,-442
2824924,-107,752,362,911,-86,-382
2824940,-93,776,361,885,-121,-388
2824958,-86,771,373,903,-111,-358
2824974,-145,714,380,857,-163,-404
2824990,-162,712,393,853,-154,-451
2825007,-166,705,402,849,-170,-486
2825024,-161,715,396,862,-151,-506
2825041,-164,686,391,822,-185,-557
2825057,-203,673,400,831,-183,-601
2825073,-227,642,424,814,-230,-647
2825090,-242,618,438,777,-247,-697
2825107,-287,593,441,737,-278,-745
2825125,-314,566,455,711,-301,-778
2825140,-349,528,475,690,-306,-801
2825157,-425,457,540,579,-381,-893
2825174,-457,426,528,605,-419,-929
2825191,-330,548,484,707,-293,-803
2825208,-250,644,434,790,-220,-649
2825224,-316,591,455,731,-261,-655
2825255,-215,696,375,842,-169,-489
2825272,-148,762,337,901,-117,-395
2825290,-119,791,317,951,-72,-329
2825306,-110,803,307,961,-32,-269
2825323,-108,818,311,986,-39,-232
2825339,-113,797,329,981,-50,-244
2825357,-161,745,349,937,-87,-261
2825373,-152,758,337,937,-75,-234
2825390,-125,784,335,944,-56,-218
2825406,-75,842,297,1012,-11,-153
2825424,-3,917,191,1195,61,-83
2825440,160,1082,281,1103,208,90
2825456,-226,622,455,817,-224,-368
2825473,-411,512,456,703,-331,-490
2825490,-444,469,452,635,-384,-542
2825507,-498,426,451,609,-433,-566
2825524,-506,428,450,620,-411,-556
2825540,-475,457,438,658,-393,-526
2825556,-442,491,449,638,-364,-562
2825573,-491,399,467,619,-412,-647
2825604,-509,430,456,645,-371,-649
2825622,-485,438,450,652,-360,-644
2825639,-516,412,460,643,-390,-698
2825656,-525,400,455,596,-399,-737
2825672,-508,416,477,615,-401,-740
2825689,-526,421,479,605,-396,-740
2825705,-531,385,477,578,-449,-786
2825722,-542,405,469,582,-417,-768
2825739,-468,441,469,634,-410,-742
2825755,-460,460,466,635,-384,-728
2825772,-491,431,473,604,-407,-759
2825788,-476,442,465,626,-391,-680
2825806,-439,474,462,677,-342,-567
2825837,-464,470,453,663,-354,-518
2825854,-493,463,449,626,-368,-505
2825871,-440,501,461,654,-344,-448
2825888,-459,506,451,642,-364,-434
2825905,-429,522,452,669,-331,-405
2825922,-415,521,450,671,-343,-400
2825938,-435,507,444,635,-358,-408
2825956,-407,536,442,685,-312,-350
2825973,-390,569,444,730,-283,-310
2825988,-339,596,436,735,-275,-267
2826005,-340,602,435,727,-271,-279
2826021,-390,568,441,690,-283,-293
2826038,-397,554,444,708,-287,-284
2826070,-339,602,440,737,-246,-240
2826087,-379,571,445,709,-274,-260
2826105,-372,570,444,714,-285,-270
2826121,-377,568,444,716,-285,-264
2826138,-367,565,453,718,-304,-264
2826154,-382,556,450,708,-285,-252
2826171,-431,517,462,683,-329,-301
2826188,-413,519,455,715,-308,-267
2826205,-413,527,453,708,-302,-250
2826222,-373,558,456,699,-283,-206
2826238,-415,528,471,691,-319,-304
2826254,-391,524,451,704,-314,-352
2826271,-382,535,453,714,-306,-346
2826303,-392,538,443,714,-306,-373
2826321,-348,571,443,752,-268,-343
2826337,-371,561,434,749,-277,-372
2826354,-382,551,438,718,-310,-404
2826370,-386,552,433,709,-324,-424
2826387,-362,555,428,726,-300,-412
2826404,-367,552,429,738,-297,-408
2826421,-364,547,439,730,-287,-389
2826437,-365,559,428,736,-283,-377
2826454,-377,532,434,723,-317,-413
2826471,-344,569,439,750,-255,-344
2826487,-361,536,438,732,-276,-321
2826504,-390,533,443,730,-296,-202
2826535,-376,532,438,713,-300,-196
2826553,-388,524,445,709,-305,-186
2826569,-393,523,448,718,-302,-184
2826586,-396,512,447,708,-305,-183
2826602,-373,524,447,724,-288,-152
2826620,-375,548,446,728,-294,-140
2826652,-401,529,450,708,-301,-166
2826670,-376,540,444,719,-311,-118
2826686,-359,551,441,726,-298,-80
2826703,-370,530,435,732,-321,-101
2826720,-305,582,436,764,-259,4
2826737,-320,552,436,744,-279,-4
2826769,-330,552,423,766,-265,3
2826786,-331,546,425,759,-278,-12
2826803,-331,544,426,746,-287,-17
2826820,-304,568,421,795,-261,22
2826836,-327,557,417,761,-281,-8
2826853,-322,571,420,787,-262,23
2826884,-262,582,412,800,-229,105
2826902,-275,580,413,801,-244,91
2826919,-306,546,413,808,-249,80
2826935,-262,588,409,833,-233,117
2826952,-283,557,411,825,-243,105
2826969,-283,566,394,826,-228,117
2827001,-294,550,395,836,-238,113
2827020,-251,586,402,845,-210,155
2827037,-264,582,406,831,-229,144
2827053,-289,550,400,831,-227,110
2827070,-260,573,395,832,-253,89
2827087,-246,630,399,821,-240,57
2827117,-264,619,395,801,-258,13
2827135,-293,611,394,776,-266,11
2827151,-265,634,393,781,-249,28
2827168,-257,641,387,773,-258,44
2827185,-257,641,387,773,-258,44
2827203,-257,641,387,773,-258,44
2827218,-257,641,387,773,-258,44
2827235,-257,641,387,773,-258,44
2827252,-257,641,387,773,-258,44
2827269,-257,641,387,773,-258,44
2827285,-232,635,388,787,-239,85
2827302,-213,671,376,835,-194,165
2827318,-203,689,377,843,-188,171
2827335,-221,661,374,812,-217,143
2827367,-222,645,376,809,-233,133
2827385,-224,653,385,813,-229,132
2827401,-238,636,381,809,-236,115
2827418,-246,615,386,813,-233,92
2827434,-258,611,400,806,-240,101
2827451,-302,587,389,766,-283,54
2827483,-258,617,389,790,-257,91
2827501,-264,595,391,775,-256,90
2827518,-281,611,397,772,-281,77
2827534,-286,604,408,765,-293,73
2827551,-277,616,405,764,-268,85
2827567,-292,569,411,723,-321,20
2827585,-337,560,414,705,-340,12
2827601,-358,533,416,704,-351,1
2827619,-345,545,421,720,-337,32
2827636,-351,532,420,724,-332,27
2827652,-343,549,417,732,-337,34
2827669,-337,573,418,748,-323,19
2827685,-310,577,420,764,-307,66
2827717,-337,568,421,751,-303,33
2827734,-326,555,418,762,-308,42
2827750,-336,557,418,763,-315,15
2827767,-341,560,415,747,-294,17
2827784,-348,543,407,766,-302,10
2827801,-310,567,410,767,-274,26
2827833,-347,547,409,750,-296,-5
2827850,-340,561,402,767,-297,16
2827866,-311,569,411,771,-285,11
2827884,-326,564,410,756,-293,-5
2827900,-330,553,408,766,-300,-14
2827918,-329,552,407,763,-295,-28
2827949,-304,590,409,779,-262,-3
2827966,-306,599,410,788,-468,-12
2827982,-310,597,408,748,-524,-43
2828000,-316,591,410,752,-556,-61
2828017,-315,578,411,751,-534,-51
2828033,-308,588,408,787,-526,-36
2828066,-290,609,414,798,-488,-1
2828083,-261,626,405,802,-494,-19
2828099,-251,630,404,794,-487,-8
2828116,-218,632,415,825,-473,22
2828134,-241,622,402,801,-489,6
2828150,-277,595,417,814,-501,-17
2828182,-233,632,414,819,-458,24
2828199,-276,590,415,766,-511,-51
2828216,-240,624,412,836,-452,27
2828233,-261,605,416,800,-456,115
2828249,-258,618,421,800,-456,168
2828266,-285,607,414,797,-465,189
2828298,-278,608,413,821,-450,255
2828315,-295,612,412,794,-440,283
2828333,-306,605,414,800,-450,289
2828348,-292,611,412,784,-439,295
2828366,-270,631,407,802,-431,334
2828382,-300,612,414,782,-455,309
2828415,-298,611,415,776,-463,324
2828432,-297,609,407,775,-433,345
2828450,-268,641,408,797,-414,377
2828466,-288,641,415,798,-422,371
2828481,-260,637,417,814,-417,384
2828499,-279,634,416,798,-407,386
2828531,-258,622,415,798,-382,368
2828548,-238,650,413,829,-353,414
2828564,-237,610,411,794,-374,390
2828581,-210,659,418,853,-321,422
2828598,-207,661,421,850,-316,426
2828616,-184,692,416,859,-311,418
2828648,-180,675,416,852,-321,444
2828665,-178,677,419,860,-315,502
2828682,-152,700,420,870,-294,557
2828698,-173,689,417,893,-291,576
2828715,-155,704,414,874,-268,600
2828732,-216,677,414,859,-322,544
2828763,-161,713,412,889,-293,506
2828781,-195,700,415,894,-287,475
2828797,-186,689,413,875,-293,444
2828814,-214,670,415,872,-294,410
2828830,-212,679,415,902,-291,367
2828847,-201,665,409,873,-294,247
2828880,-196,641,413,855,-312,139
2828897,-228,693,413,886,-255,80
2828914,-193,684,410,869,-290,36
2828930,-169,703,414,885,-252,24
2828948,-177,677,415,875,-299,-20
2828965,-182,674,410,834,-277,-45
2828997,-74,778,398,981,-182,26
2829014,-72,766,385,960,-196,-11
2829031,-76,746,385,951,-217,-45
2829047,-99,766,384,950,-195,-72
2829064,-75,752,386,932,-216,-85
2829081,-87,766,388,962,-186,-105
2829113,-43,784,381,985,-170,-100
2829131,-63,740,387,945,-212,-125
2829146,-43,780,390,988,-151,-95
2829163,-79,733,392,939,-207,-166
2829181,-91,723,406,943,-201,-195
2829197,-130,693,395,893,-228,-242
2829229,-118,737,380,927,-185,-200
2829246,-98,739,388,924,-181,-202
2829264,-121,714,396,938,-176,-184
2829279,-131,711,393,941,-167,-197
2829296,-80,744,389,959,-154,-133
2829313,-96,734,387,952,-168,-150
2829346,-39,757,377,982,-124,-103
2829363,-130,714,385,937,-182,-168
2829381,-70,716,388,952,-172,-150
2829396,-88,711,388,912,-184,-150
2829414,-94,707,390,936,-191,-168
2829430,-139,696,383,906,-182,-175
2829462,-79,742,381,949,-148,-127
2829480,-93,725,385,930,-164,-65
2829495,-116,704,380,915,-186,-35
2829512,-101,726,385,931,-146,38
2829529,-82,734,389,918,-145,68
2829546,-132,697,390,909,-180,55
2829578,-138,678,397,885,-200,64
2829596,-166,651,397,870,-204,67
2829612,-168,646,394,861,-234,74
2829630,-143,666,402,873,-189,128
2829646,-143,658,403,842,-234,77
2829663,-160,635,389,829,-240,11
2829695,-125,670,389,858,-196,-33
2829712,-151,669,390,838,-194,-65
2829728,-151,651,401,854,-174,-78
2829745,-166,641,387,829,-178,-55
2829763,-129,647,402,844,-162,53
2829780,-116,669,398,829,-154,123
2829811,-131,657,401,860,-130,243
2829829,-156,658,402,838,-89,237
2829846,-133,641,394,843,-37,242
2829862,-169,622,401,847,-40,231
2829879,-165,638,397,850,11,247
2829896,-141,645,405,839,10,280
2829928,-146,640,405,830,-4,284
2829945,-131,660,398,864,27,311
2829962,-163,630,400,835,-16,291
2829979,-154,631,400,834,-20,292
2829995,-160,648,402,849,-6,356
2830012,-139,662,397,854,-13,387
2830044,-194,608,406,836,-59,390
2830061,-184,619,398,840,-64,416
2830078,-169,624,399,830,-78,430
2830094,-167,638,398,834,-59,454
2830112,-176,649,399,833,-49,472
2830128,-193,633,400,839,-52,473
2830161,-165,659,401,851,-56,478
2830178,-204,644,401,841,-77,480
2830194,-182,645,408,835,-78,481
2830211,-177,674,402,867,-55,508
2830228,-161,670,409,861,-55,512
2830245,-198,654,406,825,-72,478
2830276,-176,662,407,831,-76,505
2830294,-190,663,409,854,-50,510
2830311,-166,656,405,831,-65,526
2830328,-221,629,407,784,-100,450
2830344,-186,660,412,810,-91,489
2830360,-208,646,406,802,-101,472
2830393,-164,671,406,846,-78,498
2830410,-162,662,411,848,-81,508
2830428,-180,663,407,878,-52,518
2830445,-141,656,402,851,-77,519
2830462,-152,668,401,874,-61,518
2830479,-171,663,397,870,-79,503
2830510,-83,739,403,946,12,590
2830527,-118,711,409,905,-30,554
2830544,-155,671,405,880,-60,527
2830560,-141,691,396,881,-62,515
2830578,-110,715,402,898,-40,543
2830594,-141,703,407,891,-51,538
2830625,-140,689,405,890,-72,488
2830643,-120,689,405,889,-76,482
2830659,-105,715,405,918,-46,516
2830676,-106,695,410,894,-82,473
2830694,-119,710,409,880,-64,476
2830710,-107,716,414,890,-65,467
2830742,-117,704,408,881,-59,414
2830759,-148,686,412,845,-103,365
2830776,-157,663,407,843,-92,364
2830793,-139,697,413,855,-87,367
2830810,-163,671,412,840,-106,348
2830827,-157,654,403,857,-119,332
2830859,-162,668,405,880,-90,346
2830876,-146,651,410,841,-106,319
2830893,-151,664,406,856,-115,315
2830910,-115,678,406,872,-80,329
2830926,-77,711,407,899,-46,378
2830943,-120,703,409,885,-71,358
2830976,-131,657,405,843,-111,328
2830993,-139,653,406,838,-114,315
2831010,-102,687,412,865,-82,371
2831026,-132,657,405,841,-133,316
2831043,-139,631,409,821,-136,309
2831060,-153,611,409,817,-149,310
2831091,-141,621,406,805,-152,311
2831109,-107,631,407,819,-140,335
2831126,-120,631,408,828,-132,357
2831142,-104,665,405,827,-128,348
2831158,-80,645,406,815,-119,341
2831176,-76,651,404,819,-142,326
2831208,-55,657,408,828,-138,326
2831226,12,702,408,875,-84,366
2831242,-24,671,412,834,-104,348
2831259,-33,651,411,818,-146,283
2831275,-24,640,411,834,-140,282
2831292,-5,663,408,849,-135,285
2831325,23,689,409,873,-98,286
2831343,8,675,408,846,-101,265
2831360,-23,638,410,798,-139,231
2831375,-39,595,410,782,-207,193
2831392,26,622,412,811,-156,237
2831410,11,626,411,835,-152,267
2831426,40,629,414,820,-150,255
2831442,39,642,413,819,-169,273
2831459,73,673,415,838,-149,291
2831476,77,664,408,828,-153,323
2831492,72,663,410,847,-142,348
2831509,117,718,410,860,-105,410
2831526,152,739,409,878,-91,430
2831542,173,737,411,901,-48,467
2831559,154,720,408,886,-61,444
2831576,202,751,413,921,-12,493
2831593,192,728,414,893,-18,484
2831609,193,708,406,883,-19,500
2831626,181,719,413,897,-9,526
2831642,215,729,412,921,13,531
2831660,238,734,413,899,22,607
2831676,235,756,414,887,13,620
2831693,244,743,417,882,37,634
2831709,244,740,413,893,22,665
2831726,345,809,413,966,102,752
2831742,316,811,417,945,97,746
2831759,383,847,411,982,106,800
2831776,396,820,414,974,83,818
2831792,398,840,411,987,108,847
2831810,417,859,415,1002,133,890
2831826,455,885,414,1026,164,917
2831842,473,898,412,1038,165,942
2831859,505,912,410,1068,211,994
2831875,506,940,413,1071,225,985
2831893,550,971,410,1101,259,1053
2831910,587,990,413,1124,258,1074
2831926,609,1019,410,1149,283,1109
2831943,615,1013,407,1144,287,1106
2831960,629,1047,407,1164,298,1144
2831976,653,1060,416,1182,327,1169
2831993,669,1089,406,1173,350,1194
2832009,670,1071,406,1169,325,1199
2832026,686,1114,410,1166,370,1246
2832043,660,1073,414,1172,333,1236
2832059,654,1067,410,1146,329,1206
2832076,658,1073,414,1171,349,1247
2832093,660,1069,414,1182,332,1248
2832109,674,1090,410,1185,351,1267
2832126,654,1073,409,1165,338,1252
2832143,642,1056,412,1159,318,1242
2832159,649,1079,406,1164,323,1245
2832175,664,1082,414,1177,324,1246
2832193,629,1051,408,1135,302,1196
2832209,615,1047,406,1124,290,1167
2832226,593,1040,413,1134,305,1174
2832255,631,1075,413,1140,322,1166
2832272,665,1083,412,1175,344,1181
2832290,650,1080,408,1173,344,1170
2832306,622,1043,412,1142,294,1126
2832323,642,1084,411,1168,335,1156
2832339,667,1099,412,1166,322,1147
2832356,635,1068,409,1151,296,1113
2832373,658,1080,407,1163,302,1119
2832390,657,1068,409,1178,304,1133
2832407,655,1081,408,1179,293,1117
2832423,675,1083,411,1207,332,1126
2832439,648,1083,404,1186,320,1113
2832456,627,1074,409,1172,310,1094
2832472,671,1111,408,1204,342,1115
2832489,632,1083,408,1178,311,1106
2832506,627,1081,410,1196,315,1098
2832523,624,1072,411,1160,297,1081
2832540,615,1064,409,1146,258,1029
2832556,585,1084,411,1185,289,1032
2832572,590,1072,409,1173,301,1040
2832590,604,1081,409,1162,284,1020
2832606,584,1056,409,1162,290,1017
2832622,574,1053,405,1163,251,1003
2832639,584,1069,404,1169,281,1003
2832656,576,1066,400,1171,261,1007
2832673,590,1078,405,1193,284,1000
2832690,612,1097,405,1205,309,1029
2832706,581,1064,410,1179,284,1006
2832724,565,1026,407,1155,257,958
2832740,572,1045,405,1155,265,961
2832757,534,1015,401,1105,242,920
2832773,547,1028,404,1136,274,937
2832791,528,1017,406,1140,242,907
2832807,570,1028,406,1146,267,918
2832824,531,994,404,1124,239,886
2832841,579,1033,409,1146,269,925
2832858,535,1007,407,1148,256,894
2832873,568,1014,407,1132,248,892
2832890,572,1045,411,1161,292,918
2832907,553,1037,404,1146,257,901
2832924,527,1026,401,1138,249,877
2832955,501,1002,408,1134,224,873
2832971,500,1007,405,1131,244,889
2832988,490,994,409,1129,224,873
2833005,480,986,396,1122,207,846
2833021,469,989,411,1130,225,854
2833038,463,982,403,1141,234,840
2833070,391,924,400,1094,172,767
2833087,423,951,408,1105,185,795
2833103,421,954,407,1109,191,765
2833120,403,933,408,1095,172,723
2833138,420,961,407,1101,199,739
2833154,379,924,409,1060,169,691
2833171,379,927,405,1074,179,672
2833188,350,897,404,1058,136,625
2833205,347,905,408,1067,150,657
2833221,341,898,402,1038,102,603
2833237,323,897,408,1044,119,598
2833255,349,918,405,1045,124,604
2833271,335,906,408,1072,144,611
2833288,295,883,404,1037,106,554
2833304,292,871,410,1024,79,534
2833321,273,881,406,1006,91,524
2833337,285,886,404,1015,90,529
2833354,265,891,409,1024,90,524
2833370,245,871,402,1011,81,483
2833387,257,891,411,1027,88,462
2833404,241,871,407,1009,57,405
2833421,231,866,406,1009,59,408
2833437,222,845,408,994,33,396
2833454,287,881,405,1024,78,481
2833471,322,915,404,1030,74,497
2833487,319,902,405,1001,44,477
2833505,293,903,408,1034,62,498
2833536,214,870,408,1017,13,408
2833553,208,859,411,1013,23,365
2833570,196,862,401,1015,25,366
2833586,177,853,405,1014,-3,332
2833603,186,863,401,1030,19,340
2833620,145,836,407,993,-5,293
2833652,137,821,406,987,-24,258
2833669,124,830,403,998,-18,272
2833687,78,816,399,981,-34,235
2833702,72,816,400,983,-35,238
2833720,52,799,405,973,-40,220
2833736,62,802,399,960,-30,223
2833753,52,798,405,951,-40,199
2833770,49,820,404,963,-26,205
2833786,45,821,391,946,-41,188
2833803,57,808,389,968,-28,198
2833819,50,815,395,982,-29,203
2833836,44,789,399,981,-30,183
2833853,22,794,395,975,-54,173
2833869,29,780,411,956,-74,145
2833886,36,803,404,983,-35,159
2833904,-2,763,406,940,-62,123
2833919,6,765,406,928,-74,94
2833936,-26,740,410,891,-116,49
2833954,-34,753,409,908,-112,55
2833970,-39,744,405,890,-102,63
2833987,-35,734,411,891,-103,56
2834003,-29,751,404,926,-85,79
2834020,-22,737,415,912,-118,9
2834036,-49,710,404,890,-144,-94
2834054,-36,715,411,896,-133,-139
2834070,-33,727,404,923,-107,-152
2834087,-33,716,401,897,-118,-181
2834103,-63,710,403,879,-153,-233
2834120,-51,706,407,863,-151,-258
2834136,-68,700,409,863,-155,-283
2834153,-80,677,411,840,-179,-326
2834170,-90,682,406,845,-173,-322
2834187,-59,700,410,879,-154,-315
2834203,-84,705,409,873,-157,-345
2834220,-97,667,410,832,-186,-369
2834236,-108,673,406,836,-216,-413
2834253,-80,663,415,857,-202,-404
2834270,-100,652,407,846,-202,-422
2834286,-133,627,409,814,-227,-455
2834303,-124,643,408,823,-204,-438
2834320,-108,652,407,836,-193,-439
2834336,-66,699,405,863,-148,-403
2834353,-103,647,404,839,-209,-427
2834369,-147,626,410,792,-229,-467
2834386,-167,628,414,810,-236,-479
2834402,-144,627,411,806,-243,-479
2834420,-123,651,401,843,-209,-453
2834436,-139,667,408,825,-217,-463
2834453,-132,655,409,841,-189,-457
2834470,-103,682,403,849,-197,-458
2834487,-130,683,412,864,-188,-449
2834504,-162,662,406,824,-213,-483
2834520,-155,637,413,826,-238,-494
2834537,-178,636,408,823,-239,-501
2834554,-134,683,410,854,-205,-460
2834583,-163,649,405,823,-249,-511
2834601,-200,618,408,800,-247,-519
2834617,-189,655,407,823,-206,-488
2834634,-192,645,407,828,-201,-492
2834651,-172,658,409,856,-196,-489
2834667,-178,639,405,815,-210,-533
2834684,-196,620,404,808,-236,-537
2834701,-186,634,411,818,-207,-535
2834717,-169,655,405,818,-195,-505
2834734,-188,637,408,786,-234,-554
2834751,-224,615,404,792,-246,-548
2834768,-210,618,409,812,-239,-552
2834784,-226,613,412,808,-250,-546
2834800,-210,616,405,798,-245,-547
2834818,-220,614,411,791,-262,-551
2834834,-234,603,405,774,-259,-564
2834850,-254,593,413,784,-277,-561
2834867,-252,593,407,790,-273,-622
2834884,-238,613,409,800,-261,-643
2834901,-251,598,410,796,-268,-683
2834918,-262,597,403,808,-262,-686
2834934,-268,617,416,821,-260,-703
2834951,-237,624,401,826,-247,-671
2834967,-255,625,402,828,-242,-677
2834983,-262,597,401,806,-272,-670
2835001,-300,591,400,804,-282,-689
2835017,-277,598,396,811,-290,-691
2835034,-356,563,402,747,-334,-783
2835051,-272,597,401,784,-275,-685
2835067,-321,565,408,791,-297,-718
2835084,-321,558,404,787,-300,-731
2835101,-319,571,408,791,-303,-734
2835117,-321,565,407,804,-283,-723
2835134,-339,549,411,801,-290,-734
2835151,-322,556,414,810,-276,-725
2835168,-340,547,412,819,-282,-736
2835184,-320,570,414,800,-281,-717
2835200,-344,555,413,823,-285,-740
2835217,-324,553,415,795,-291,-714
2835234,-275,561,414,815,-286,-673
2835251,-307,561,413,794,-302,-684
2835267,-261,594,413,815,-281,-661
2835284,-335,540,413,759,-333,-747
2835300,-325,562,408,794,-313,-725
2835317,-263,611,414,795,-332,-701
2835337,-262,621,410,737,-413,-754
2835351,-327,607,410,734,-396,-799
2835368,-272,642,414,788,-358,-757
2835398,-299,588,418,750,-393,-808
2835416,-291,605,411,761,-404,-811
2835431,-319,600,416,748,-408,-822
2835449,-262,616,414,778,-398,-796
2835465,-307,588,414,741,-427,-823
2835482,-290,600,413,769,-415,-822
2835499,-304,607,413,776,-415,-818
2835515,-290,608,411,791,-390,-810
2835532,-312,587,413,765,-436,-850
2835549,-324,564,415,787,-355,-754
2835566,-328,506,415,798,-271,-692
2835583,-349,496,413,836,-252,-658
2835599,-363,494,416,821,-243,-640
2835616,-391,481,410,800,-285,-674
2835633,-369,477,411,800,-265,-657
2835649,-356,515,413,812,-264,-620
2835665,-329,536,413,828,-252,-592
2835683,-329,539,417,811,-250,-591
2835699,-366,520,416,810,-251,-596
2835716,-378,510,413,796,-269,-598
2835732,-344,554,407,823,-237,-560
2835749,-352,530,414,832,-238,-524
2835766,-333,561,410,841,-235,-496
2835783,-326,544,413,845,-235,-507
2835799,-354,540,411,811,-258,-508
2835816,-325,568,413,828,-240,-507
2835832,-314,587,414,832,-242,-462
2835850,-318,588,413,815,-246,-486
2835866,-320,578,407,793,-254,-491
2835883,-345,560,420,790,-267,-509
2835899,-310,595,412,825,-230,-458
2835916,-328,576,412,814,-237,-495
2835932,-365,555,408,840,-265,-492
2835949,-305,603,418,853,-211,-446
2835979,-365,577,412,829,-236,-469
2835997,-283,621,413,866,-190,-416
2836013,-290,631,413,886,-193,-441
2836030,-325,590,410,841,-230,-455
2836048,-336,587,413,843,-251,-475
2836065,-274,661,414,849,-244,-463
2836096,-317,630,412,828,-293,-500
2836114,-294,625,416,814,-314,-504
2836130,-319,617,413,800,-331,-535
2836147,-309,615,415,834,-314,-500
2836164,-296,614,410,814,-308,-504
2836181,-329,605,416,828,-297,-506
2836213,-332,593,413,826,-319,-514
2836230,-293,599,414,804,-321,-503
2836247,-333,587,413,808,-347,-507
2836265,-304,606,414,813,-329,-516
2836280,-331,602,417,783,-336,-533
2836297,-339,584,414,782,-348,-556
2836315,-303,600,407,815,-270,-449
2836345,-385,514,411,815,-290,-504
2836363,-371,520,417,833,-257,-464
2836379,-360,528,408,829,-258,-474
2836396,-371,508,413,826,-272,-478
2836414,-401,498,414,804,-285,-518
2836430,-385,489,414,781,-301,-544
2836446,-378,500,418,786,-278,-519
2836464,-399,505,413,787,-285,-542
2836480,-366,514,416,783,-280,-532
2836497,-384,525,413,800,-254,-545
2836513,-377,518,413,805,-267,-432
2836530,-384,518,416,799,-271,-357
2836546,-390,532,415,806,-269,-332
2836563,-372,516,412,795,-286,-297
2836580,-361,548,414,795,-275,-274
2836596,-377,526,412,837,-246,-220
2836613,-324,578,409,788,-291,-221
2836630,-290,606,402,769,-323,-229
2836646,-237,643,414,806,-331,-193
2836663,-206,657,409,818,-311,-139
2836680,-239,623,410,812,-334,-143
2836696,-245,613,405,795,-348,-150
2836713,-256,627,411,775,-373,-163
2836729,-211,635,408,790,-355,-117
2836746,-123,679,407,824,-340,-49
2836763,-61,731,409,814,-318,29
2836780,6,738,401,836,-300,96
2836796,-9,721,411,840,-317,85
2836812,-20,716,405,878,-279,99
2836830,-118,679,414,848,-301,31
2836847,-150,653,407,852,-296,-13
2836863,-184,654,408,831,-288,-54
2836880,-204,650,409,819,-289,-76
2836896,-241,656,403,835,-279,-90
2836914,-272,668,406,848,-261,-43
2836930,-277,649,406,851,-265,-34
2836946,-328,644,409,847,-284,-43
2836963,-319,665,406,843,-253,-27
2836980,-343,633,406,823,-265,-39
2836997,-355,625,404,811,-250,-51
2837013,-358,626,406,808,-241,-49
2837030,-389,608,400,775,-280,-66
2837046,-387,593,413,783,-280,-66
2837062,-365,601,403,805,-269,-48
2837079,-348,616,410,831,-240,-34
2837096,-341,629,408,827,-230,-12
2837114,-356,597,407,816,-251,-25
2837129,-383,581,409,771,-288,-47
2837146,-383,590,408,781,-275,-39
2837163,-397,560,406,772,-323,-93
2837180,-362,591,407,816,-200,29
2837197,-364,594,406,823,-214,5
2837213,-404,557,410,819,-233,-13
2837230,-405,567,406,792,-239,-25
2837247,-401,555,411,805,-236,-4
2837277,-414,532,409,762,-270,-52
2837294,-439,498,409,750,-305,-78
2837311,-432,539,409,784,-252,-54
2837328,-417,500,405,754,-290,-61
2837344,-418,515,413,731,-284,-93
2837361,-443,505,411,716,-318,-124
2837378,-412,526,415,757,-280,-172
2837395,-435,508,414,767,-287,-238
2837411,-464,497,409,748,-289,-288
2837427,-424,510,414,758,-281,-302
2837445,-466,473,412,722,-310,-394
2837461,-458,485,411,722,-303,-420
2837478,-438,483,411,723,-321,-446
2837494,-403,508,411,764,-275,-434
2837511,-373,533,409,785,-261,-410
2837528,-382,516,406,747,-294,-452
2837544,-402,502,410,734,-296,-474
2837561,-389,535,413,795,-267,-451
2837578,-354,526,408,753,-267,-472
2837594,-355,515,412,754,-290,-470
2837610,-381,496,410,757,-297,-504
2837627,-403,479,411,755,-313,-507
2837644,-393,485,407,727,-322,-554
2837661,-417,481,413,734,-324,-544
2837678,-355,510,414,737,-311,-525
2837694,-377,489,409,725,-314,-543
2837711,-367,489,412,741,-313,-525
2837728,-337,521,414,760,-294,-495
2837744,-355,494,410,746,-319,-537
2837761,-332,535,414,753,-287,-496
2837777,-338,523,413,756,-285,-507
2837795,-317,532,414,765,-262,-486
2837810,-332,534,420,786,-261,-504
2837827,-345,525,414,774,-275,-519
2837844,-336,519,418,793,-260,-516
2837861,-317,530,419,792,-264,-505
2837878,-352,514,417,772,-276,-526
2837895,-375,478,418,767,-279,-547
2837910,-338,542,420,766,-305,-554
2837928,-327,561,415,726,-354,-576
2837944,-322,563,416,756,-332,-550
2837961,-329,563,413,753,-335,-556
2837977,-324,568,420,759,-315,-529
2837994,-350,550,413,757,-325,-523
2838011,-350,554,420,722,-339,-533
2838027,-331,575,411,756,-318,-496
2838044,-379,534,414,710,-363,-533
2838061,-369,549,416,730,-329,-505
2838077,-361,548,412,726,-343,-496
2838094,-335,562,422,740,-322,-474
2838111,-316,578,413,760,-311,-409
2838127,-231,607,417,790,-300,-345
2838144,-145,638,412,810,-271,-240
2838161,-111,636,422,825,-289,-194
2838177,-22,666,420,835,-261,-121
2838193,-9,651,420,829,-249,-147
2838210,-42,631,421,844,-253,-177
2838227,-103,606,416,834,-242,-223
2838244,-132,602,421,811,-254,-294
2838260,-178,600,419,807,-249,-360
2838277,-230,564,421,776,-274,-433
2838294,-231,584,420,769,-255,-411
2838324,-259,576,425,810,-243,-461
2838342,-349,530,419,756,-295,-559
2838358,-348,545,423,773,-265,-553
2838375,-329,543,419,755,-280,-582
2838391,-348,536,423,751,-279,-586
2838409,-348,539,417,749,-283,-593
2838425,-369,507,424,743,-309,-617
2838442,-342,545,420,774,-264,-580
2838459,-379,490,436,765,-309,-607
2838476,-334,590,424,748,-318,-594
2838492,-310,597,425,757,-332,-610
2838508,-309,600,425,771,-316,-616
2838525,-327,570,419,772,-329,-623
2838542,-320,585,438,782,-321,-605
2838558,-337,550,420,767,-355,-649
2838575,-300,573,432,771,-344,-631
2838592,-307,562,431,744,-362,-656
2838609,-355,554,434,737,-363,-694
2838625,-331,571,435,754,-347,-700
2838642,-329,591,435,762,-323,-568
2838658,-342,569,432,751,-343,-540
2838676,-330,574,441,780,-322,-489
2838693,-321,577,423,777,-305,-460
2838709,-301,598,420,805,-294,-466
2838725,-306,593,418,789,-305,-480
2838743,-304,597,417,795,-293,-532
2838760,-289,598,422,809,-270,-545
2838789,-272,600,414,794,-284,-595
2838806,-248,601,414,818,-268,-587
2838823,-209,673,416,842,-246,-553
2838841,-187,671,415,830,-250,-584
2838857,-228,655,417,801,-269,-629
2838874,-222,668,416,828,-233,-589
2838891,-189,661,415,822,-234,-581
2838908,-238,636,416,802,-261,-599
2838924,-235,628,413,808,-255,-590
2838941,-224,637,411,816,-237,-570
2838957,-197,643,410,830,-238,-537
2838974,-226,644,412,823,-247,-527
2838991,-218,638,415,816,-242,-520
2839008,-215,630,417,813,-248,-537
2839024,-218,630,417,826,-242,-532
2839041,-243,602,419,816,-260,-563
2839058,-173,676,415,801,-256,-565
2839075,-171,668,417,793,-267,-612
2839091,-215,657,417,788,-299,-650
2839108,-213,644,423,786,-299,-640
2839124,-219,660,418,801,-293,-616
2839141,-173,674,419,836,-258,-608
2839158,-156,674,413,824,-280,-617
2839174,-170,662,412,828,-291,-654
2839191,-161,661,410,835,-283,-663
2839208,-181,653,409,820,-268,-703
2839225,-197,647,410,782,-276,-704
2839241,-222,639,408,810,-277,-760
2839258,-171,663,405,828,-243,-704
2839274,-185,648,405,842,-243,-698
2839292,-184,639,414,829,-261,-709
2839308,-211,624,411,819,-267,-721
2839325,-181,636,406,826,-272,-714
2839342,-200,616,408,828,-293,-708
2839371,-162,620,409,885,-177,-522
2839389,-191,576,402,854,-190,-499
2839405,-243,540,400,825,-228,-537
2839422,-245,550,398,861,-199,-472
2839440,-252,551,391,851,-207,-471
2839456,-254,543,388,832,-242,-475
2839473,-238,585,385,866,-206,-453
2839489,-205,595,388,895,-199,-441
2839507,-217,562,381,838,-216,-454
2839523,-217,623,383,904,-174,-436
2839540,-168,608,380,890,-194,-410
2839556,-171,633,380,909,-159,-395
2839573,-153,621,384,911,-173,-389
2839590,-115,644,390,924,-171,-401
2839606,-144,620,386,906,-199,-431
2839624,-189,585,388,855,-221,-476
2839640,-160,568,392,840,-261,-463
2839657,-206,645,384,880,-212,-491
2839673,-120,608,402,868,-239,-441
2839690,-167,615,395,847,-260,-463
2839707,-208,570,405,821,-279,-509
2839724,-203,576,409,847,-255,-483
2839740,-198,573,407,860,-241,-473
2839756,-212,555,404,828,-278,-513
2839773,-215,559,407,837,-252,-459
2839790,-204,537,402,812,-275,-482
2839806,-219,571,410,827,-268,-487
2839823,-230,544,407,816,-283,-507
2839840,-202,573,410,824,-278,-509
2839857,-213,553,408,795,-294,-556
2839874,-213,572,404,823,-260,-538
2839890,-178,598,407,844,-241,-500
2839907,-148,593,406,846,-253,-438
2839922,-76,637,407,868,-260,-368
2839953,118,723,412,919,-203,-257
2839971,99,728,408,897,-228,-303
2839987,79,741,400,910,-227,-331
2840004,-21,688,394,886,-246,-402
2840021,-35,686,394,907,-238,-397
2840038,-58,665,395,879,-247,-441
2840054,-88,641,391,895,-239,-422
2840071,-112,645,390,883,-237,-433
2840088,-100,652,400,882,-235,-428
2840105,-157,626,404,850,-276,-463
2840121,-124,631,403,841,-267,-453
2840138,-183,594,404,809,-294,-486
2840155,-155,616,409,800,-278,-441
2840172,-161,624,409,841,-268,-458
2840187,-191,584,418,812,-300,-443
2840204,-158,592,412,824,-297,-455
2840222,-235,557,413,779,-311,-479
2840239,-196,590,408,800,-295,-466
2840254,-225,583,414,789,-296,-463
2840272,-167,622,414,837,-248,-405
2840289,-229,613,407,845,-256,-393
2840304,-227,573,410,838,-277,-413
2840322,-210,622,408,857,-253,-367
2840338,-255,589,409,827,-279,-397
2840354,-178,633,410,851,-245,-373
2840371,-194,639,409,840,-257,-381
2840388,-169,665,398,864,-219,-338
2840405,-171,658,405,866,-224,-353
2840422,-140,662,397,875,-209,-338
2840438,-161,659,391,870,-208,-341
2840455,-116,658,391,868,-217,-342
2840472,-120,670,389,881,-201,-310
2840489,-93,679,403,895,-206,-303
2840504,-153,611,411,834,-249,-360
2840522,-159,589,400,827,-297,-405
2840538,-191,610,394,863,-182,-286
2840555,-218,569,397,902,-113,-272
2840571,-236,536,409,876,-152,-267
2840588,-240,557,390,897,-128,-303
2840605,-228,578,383,927,-125,-244
2840622,-201,616,381,953,-64,-206
2840652,-228,585,389,910,-124,-267
2840669,-227,594,400,919,-112,-277
2840685,-252,573,406,896,-141,-295
2840702,-244,586,413,919,-120,-288
2840719,-246,564,409,896,-138,-282
2840736,-226,566,406,888,-145,-270
2840769,-97,617,412,948,-129,-153
2840786,10,656,406,977,-99,-57
2840803,0,658,416,975,-110,-73
2840820,-1,656,407,959,-117,-77
2840836,-55,632,402,950,-135,-129
2840852,-67,630,409,974,-98,-158
2840869,-92,632,409,989,-96,-169
2840886,-124,611,409,946,-141,-234
2840902,-144,570,419,919,-154,-281
2840920,-159,560,415,900,-157,-292
2840936,-119,596,413,933,-125,-273
2840953,-145,566,409,901,-169,-289
2840969,-117,582,414,889,-178,-270
2840986,-134,594,410,897,-185,-275
2841002,-168,601,411,907,-149,-282
2841019,-154,625,414,914,-154,-310
2841036,-152,626,406,921,-130,-335
2841052,-188,593,409,892,-161,-385
2841069,-162,591,413,898,-151,-386
2841086,-205,590,419,881,-152,-414
2841118,-185,559,418,877,-184,-470
2841135,-166,569,430,875,-159,-479
2841152,-176,551,436,865,-195,-485
2841169,-176,550,428,879,-185,-458
2841185,-174,542,431,871,-205,-473
2841202,-184,533,434,860,-215,-449
2841218,-210,494,432,822,-218,-485
2841236,-187,524,439,828,-206,-486
2841252,-185,543,418,845,-177,-469
2841269,-154,566,420,851,-183,-455
2841285,-128,572,412,884,-145,-434
2841302,-159,560,414,867,-161,-459
2841318,-126,590,416,884,-150,-459
2841336,-151,559,420,862,-160,-511
2841353,-116,605,420,906,-132,-550
2841369,-158,563,429,851,-184,-528
2841385,-124,594,421,853,-179,-495
2841402,-150,565,425,866,-169,-464
2841419,-88,614,421,865,-176,-453
2841435,-113,627,421,861,-170,-429
2841452,-102,620,421,850,-178,-429
2841469,-159,576,419,813,-213,-457
2841486,-158,547,418,788,-256,-447
2841502,-178,580,414,822,-220,-451
2841519,-165,559,405,815,-222,-382
2841536,-142,585,406,827,-204,-400
2841552,-139,588,416,834,-212,-420
2841569,-135,570,406,836,-216,-465
2841585,-187,542,409,793,-268,-535
2841603,-158,571,406,834,-222,-536
2841619,-146,584,411,845,-208,-485
2841636,-161,552,412,821,-251,-541
2841653,-157,559,409,794,-257,-541
2841669,-175,553,416,794,-258,-546
2841685,-156,561,418,805,-255,-528
2841702,-159,562,414,814,-246,-509
2841718,-117,598,410,839,-239,-493
2841736,-133,598,414,824,-241,-483
2841752,-113,600,409,840,-234,-473
2841769,-121,596,410,841,-241,-460
2841786,-118,598,409,835,-240,-468
2841816,-123,588,413,820,-261,-420
2841834,-114,587,407,815,-269,-422
2841850,-109,590,414,841,-243,-380
2841867,-106,602,414,808,-258,-399
2841884,-137,590,407,823,-273,-409
2841900,-120,582,414,811,-273,-370
2841917,-117,602,409,833,-245,-333
2841934,-164,586,417,810,-260,-336
2841950,-125,602,409,836,-238,-275
2841967,-124,591,412,845,-248,-261
2841983,-122,590,404,847,-246,-269
2842000,-127,591,410,847,-257,-263
2842017,-153,567,415,821,-274,-286
2842033,-174,552,412,832,-284,-297
2842050,-191,520,413,799,-304,-323
2842067,-198,518,414,777,-316,-322
2842083,-242,486,416,754,-332,-324
2842100,-227,492,411,750,-330,-277
2842118,-234,480,413,732,-347,-287
2842134,-242,477,414,741,-339,-256
2842150,-218,537,412,793,-290,-208
2842168,-179,533,413,782,-276,-141
2842184,-226,497,413,743,-320,-156
2842200,-209,497,421,739,-339,-174
2842217,-186,531,420,783,-304,-137
2842234,-172,524,422,797,-304,-132
2842250,-206,494,420,735,-321,-155
2842267,-243,468,422,719,-350,-175
2842283,-263,457,421,717,-353,-187
2842301,-183,494,419,771,-294,-108
2842317,-197,506,414,766,-304,-91
2842334,-185,500,418,764,-310,-89
2842350,-188,492,414,751,-312,-77
2842367,-192,488,413,765,-300,-52
2842397,-164,499,411,784,-282,104
2842415,-237,439,413,697,-365,39
2842431,-231,426,411,724,-349,81
2842449,-175,498,413,750,-327,69
2842465,-169,481,412,748,-350,38
2842482,-169,480,413,718,-394,-35
2842498,-190,484,409,741,-366,-86
2842516,-165,507,406,725,-377,-110
2842532,-136,533,414,753,-352,-65
2842549,-144,541,419,758,-368,-78
2842566,-116,530,418,792,-365,-30
2842582,-98,536,414,805,-358,8
2842599,-101,521,415,762,-360,-5
2842616,-103,541,419,745,-375,-7
2842633,-109,495,421,736,-392,-9
2842650,-60,506,426,795,-359,63
2842666,-69,494,420,770,-379,115
2842683,-52,523,420,756,-356,130
2842699,-73,489,421,700,-414,113
2842717,-115,455,420,703,-443,66
2842733,-72,465,417,743,-382,142
2842750,-33,491,421,771,-380,174
2842766,-34,499,416,778,-360,187
2842783,-71,461,421,726,-404,169
2842799,-46,473,423,728,-385,187
2842816,-52,483,421,746,-382,246
2842832,6,520,417,776,-348,306
2842850,19,523,419,796,-328,335
2842867,23,549,415,798,-317,345
2842883,28,559,414,787,-333,321
2842900,33,547,414,796,-309,336
2842916,30,567,414,819,-274,365
2842932,73,597,406,834,-253,391
2842950,109,596,415,823,-259,447
2842980,63,572,405,814,-268,435
2842997,75,582,404,807,-263,460
2843013,88,587,413,819,-265,479
2843031,103,617,413,837,-231,517
2843048,127,598,417,809,-259,512
2843063,108,578,415,790,-251,521
2843081,85,584,413,790,-252,549
2843098,190,608,408,828,-241,648
2843115,291,679,414,846,-217,747
2843132,317,652,411,814,-235,760
2843149,361,683,409,836,-212,808
2843165,371,699,410,857,-188,844
2843181,344,683,410,846,-200,813
2843198,279,669,406,805,-223,725
2843214,273,670,405,822,-225,695
2843231,205,636,413,791,-257,644
2843248,170,607,405,735,-307,588
2843265,189,665,417,790,-240,661
2843282,158,644,409,783,-254,654
2843298,167,643,415,816,-224,699
2843315,121,618,410,788,-245,652
2843331,97,613,409,760,-259,582
2843348,90,599,415,740,-258,564
2843364,100,620,410,774,-253,580
2843382,88,609,409,766,-244,533
2843398,62,565,407,753,-278,457
2843414,159,686,409,781,-226,503
2843445,113,652,409,719,-289,378
2843463,90,632,412,719,-284,345
2843480,95,623,408,716,-292,347
2843497,78,635,416,715,-284,311
2843513,104,647,415,742,-288,315
2843530,88,622,413,741,-297,297
2843546,101,617,415,723,-285,294
2843563,67,603,416,742,-291,288
2843580,82,620,414,719,-284,265
2843596,46,602,417,722,-287,259
2843613,109,603,408,731,-269,253
2843630,89,620,410,740,-278,252
2843647,108,589,413,739,-270,241
2843664,109,576,412,754,-290,227
2843680,88,619,413,775,-268,205
2843696,141,593,411,758,-295,189
2843713,65,574,418,775,-297,130
2843730,100,554,405,802,-189,264
2843747,91,523,417,814,-152,303
2843763,58,539,412,807,-174,251
2843781,68,497,409,804,-180,252
2843797,82,526,411,780,-181,231
2843814,36,527,408,804,-191,232
2843830,46,513,404,784,-213,242
2843846,43,500,410,797,-202,261
2843864,63,524,408,843,-173,332
2843880,59,529,409,850,-172,334
2843896,69,533,405,834,-171,344
2843913,41,525,407,812,-189,329
2843930,62,556,403,825,-186,359
2843947,74,547,402,817,-190,376
2843963,90,568,388,851,-156,447
2843980,60,542,388,851,-163,448
2843997,86,554,398,850,-168,423
2844027,88,538,400,851,-163,389
2844044,71,535,397,822,-166,379
2844061,74,543,403,830,-159,375
2844078,67,532,399,821,-150,371
2844095,39,522,404,829,-170,371
2844112,55,537,397,833,-163,395
2844128,46,531,406,840,-176,376
2844146,17,534,401,844,-168,373
2844161,22,524,400,808,-173,370
2844178,11,521,400,812,-199,353
2844195,13,504,389,799,-203,368
2844212,10,517,404,796,-195,375
2844228,33,523,401,791,-218,389
2844245,22,523,392,810,-199,345
2844262,79,560,396,823,-161,379
2844279,87,567,387,826,-156,379
2844296,86,569,394,815,-128,369
2844312,26,525,388,804,-157,358
2844329,64,553,402,836,-116,404
2844346,66,571,388,848,-112,432
2844362,55,545,399,835,-152,393
2844379,49,540,393,818,-173,409
2844395,38,550,394,816,-166,383
2844412,33,551,390,829,-181,368
2844429,11,535,390,773,-203,326
2844445,36,537,393,813,-216,364
2844462,3,537,392,788,-200,324
2844479,5,552,401,800,-181,349
2844495,10,540,392,793,-206,351
2844512,-14,520,394,764,-237,284
2844528,5,550,396,792,-207,312
2844545,-29,516,395,777,-222,282
2844562,-49,508,407,746,-259,247
2844579,-28,522,403,763,-236,232
2844595,-24,523,411,756,-268,192
2844612,-70,452,412,742,-284,132
2844629,-16,555,404,756,-298,101
2844644,1,559,408,722,-327,71
2844663,-6,564,411,722,-341,-7
2844679,-19,560,410,700,-354,-24
2844695,-23,545,409,687,-362,-27
2844711,-64,504,415,667,-395,-63
2844729,-28,514,414,697,-378,-70
2844745,-28,524,412,713,-366,-58
2844762,-33,504,417,730,-387,-78
2844778,-48,462,411,648,-425,-132
2844795,-60,493,418,708,-416,-127
2844812,-82,481,414,640,-389,-196
2844843,-56,492,415,647,-372,-167
2844860,-30,518,414,696,-373,-119
2844877,-50,491,413,663,-378,-143
2844893,-20,507,414,675,-379,-101
2844910,38,567,416,738,-350,-40
2844926,158,614,415,768,-332,78
2844944,197,621,413,751,-352,22
2844959,131,616,411,740,-358,-25
2844976,127,603,416,748,-372,-77
2844993,58,585,418,743,-374,-112
2845010,4,568,416,731,-387,-168
2845026,-5,574,413,707,-379,-147
2845043,-31,543,415,723,-412,-186
2845060,-83,500,415,677,-449,-206
2845076,-93,518,415,704,-417,-170
2845094,-106,506,414,685,-426,-189
2845109,-26,567,415,769,-353,-93
2845126,-81,561,414,760,-351,-95
2845143,-115,557,415,753,-348,-84
2845160,-147,577,412,760,-342,-100
2845176,-99,557,415,743,-375,-58
2845193,-118,577,412,755,-374,-106
2845209,-118,598,415,732,-408,-140
2845226,-93,589,413,757,-387,-116
2845244,-91,598,414,766,-374,-111
2845261,-99,595,413,764,-397,-101
2845277,-118,583,416,733,-405,-124
2845294,-142,566,410,727,-433,-135
2845310,-147,575,416,733,-425,-114
2845326,-164,567,407,734,-429,-114
2845343,-140,573,412,743,-422,-115
2845360,-125,576,409,744,-421,-121
2845377,-170,566,411,749,-409,-140
2845393,-196,531,411,707,-447,-176
2845410,-166,593,407,782,-379,-112
2845427,-183,571,412,767,-397,-143
2845443,-168,580,407,769,-368,-145
2845461,-209,563,408,758,-398,-173
2845476,-191,569,414,751,-388,-186
2845494,-219,539,412,746,-392,-203
2845510,-240,533,412,722,-427,-232
2845526,-243,535,412,717,-415,-233
2845543,-237,532,410,719,-417,-215
2845559,-225,530,412,712,-434,-214
2845576,-181,548,416,738,-426,-143
2845594,-105,559,417,756,-394,-73
2845610,-19,596,417,756,-418,-24
2845627,73,659,412,803,-382,47
2845656,100,681,416,810,-390,54
2845674,101,703,411,836,-369,53
2845691,63,728,414,857,-332,33
2845707,4,682,416,852,-312,11
2845724,-82,620,416,828,-301,-26
2845741,-100,608,420,850,-248,17
2845758,-151,576,413,817,-316,-29
2845774,-193,562,413,792,-313,-27
2845791,-163,587,418,822,-293,-13
2845808,-180,585,414,831,-272,-5
2845825,-238,553,417,820,-301,-95
2845841,-213,559,419,813,-290,-96
2845857,-202,583,418,845,-275,-106
2845874,-254,552,419,829,-296,-140
2845891,-232,557,422,812,-305,-147
2845907,-273,510,420,784,-330,-182
2845924,-239,542,422,803,-314,-178
2845940,-245,555,420,824,-295,-172
2845958,-269,545,420,778,-320,-159
2845974,-280,520,426,763,-333,-108
2845991,-295,553,418,801,-326,-22
2846008,-262,571,422,804,-322,19
2846024,-264,544,426,811,-351,61
2846041,-273,540,420,824,-309,112
2846057,-282,516,425,825,-292,167
2846074,-290,527,419,830,-305,180
2846091,-284,519,418,811,-287,195
2846108,-317,521,417,791,-282,200
2846124,-310,522,423,793,-286,230
2846141,-300,524,419,783,-297,214
2846158,-326,519,417,792,-304,227
2846175,-315,519,414,788,-304,207
2846191,-313,535,408,790,-276,218
2846208,-317,550,409,815,-275,221
2846224,-307,517,414,804,-306,201
2846241,-337,512,409,804,-280,204
2846257,-305,524,414,788,-297,133
2846274,-311,520,414,781,-307,96
2846291,-315,512,412,776,-309,43
2846307,-305,507,407,777,-299,40
2846324,-283,575,408,784,-315,36
2846341,-260,613,410,811,-274,44
2846358,-235,612,413,795,-273,35
2846375,-241,629,412,805,-276,27
2846391,-275,593,410,779,-312,-30
2846408,-256,584,410,779,-316,-34
2846424,-274,593,410,775,-294,2
2846442,-263,585,413,796,-303,35
2846457,-285,571,416,771,-310,50
2846474,-287,572,414,791,-325,79
2846490,-274,561,417,796,-320,110
2846508,-259,571,417,796,-313,138
2846524,-311,556,420,787,-316,143
2846541,-333,542,413,755,-344,131
2846558,-345,539,418,758,-338,142
2846575,-328,534,415,750,-332,152
2846604,-304,549,412,779,-304,220
2846621,-313,549,418,774,-308,207
2846639,-318,535,416,786,-316,209
2846655,-327,529,419,777,-328,187
2846672,-346,498,415,758,-361,143
2846689,-322,514,416,785,-327,193
2846705,-323,486,414,769,-350,173
2846722,-319,506,419,790,-320,203
2846739,-297,506,418,767,-321,209
2846756,-278,520,428,716,-332,199
2846772,-278,501,425,715,-355,177
2846789,-281,508,432,724,-346,217
2846805,-171,515,428,751,-343,282
2846822,-93,522,432,762,-317,347
2846838,-78,537,421,749,-337,383
2846855,1,549,426,781,-301,435
2846872,31,560,420,765,-333,422
2846888,-8,531,430,750,-333,392
2846905,-25,557,418,754,-311,393
2846922,54,579,424,777,-300,450
2846939,132,628,418,802,-292,505
2846955,138,632,414,809,-285,538
2846972,184,637,412,857,-263,579
2846988,183,630,415,875,-233,619
2847005,207,594,414,867,-232,629
2847021,164,551,413,828,-248,609
2847039,129,524,413,845,-270,556
2847070,148,534,411,876,-213,618
2847087,150,570,410,867,-222,580
2847103,136,563,413,879,-215,589
2847121,126,560,409,891,-211,566
2847137,125,597,407,903,-205,563
2847155,106,569,411,850,-257,516
2847171,123,612,406,865,-247,525
2847187,93,577,411,847,-277,485
2847204,77,605,405,878,-243,478
2847221,55,580,410,858,-247,436
2847238,14,597,405,831,-273,368
2847254,-4,579,413,814,-303,323
2847271,-23,568,417,804,-315,300
2847288,-43,591,411,830,-302,242
2847304,-57,589,410,834,-269,250
2847322,-103,580,414,803,-285,162
2847338,-174,528,416,759,-345,66
2847354,-192,508,412,759,-348,37
2847372,-203,519,419,771,-327,24
2847387,-185,532,417,786,-336,25
2847405,-199,506,421,762,-352,15
2847421,-271,461,418,726,-374,-40
2847438,-334,449,420,694,-383,-81
2847455,-312,478,418,717,-355,-77
2847471,-315,465,420,721,-351,-58
2847489,-315,469,423,749,-338,-65
2847505,-315,462,417,734,-369,-72
2847522,-328,453,419,726,-377,-103
2847538,-346,451,417,706,-393,-102
2847554,-343,451,419,717,-382,-94
2847572,-313,465,418,752,-364,-83
2847589,-350,448,421,719,-392,-129
2847605,-323,468,422,760,-357,-115
2847622,-383,426,418,751,-396,-191
2847652,-355,439,419,760,-351,-193
2847670,-363,442,420,748,-378,-228
2847686,-354,433,424,733,-365,-217
2847703,-411,416,430,722,-387,-292
2847719,-391,445,439,743,-341,-233
2847737,-397,457,429,757,-336,-239
2847753,-376,475,440,779,-326,-238
2847770,-387,458,435,745,-347,-310
2847788,-349,466,441,761,-330,-280
2847804,-358,449,440,751,-347,-305
2847821,-361,463,443,751,-336,-314
2847836,-375,444,442,730,-363,-331
2847854,-370,436,441,755,-365,-332
2847885,-401,409,444,731,-397,-377
2847902,-417,397,449,704,-407,-420
2847919,-417,394,448,702,-420,-441
2847936,-412,411,454,758,-385,-435
2847952,-400,411,446,746,-376,-442
2847969,-409,399,447,748,-391,-460
2847986,-412,380,449,731,-390,-460
2848003,-371,405,450,727,-411,-445
2848019,-323,435,451,732,-390,-402
2848036,-297,429,450,722,-411,-373
2848052,-232,450,451,723,-413,-341
2848070,-182,470,455,730,-414,-299
2848086,-161,474,450,759,-408,-302
2848103,-114,492,461,764,-400,-261
2848120,-127,489,453,777,-394,-277
2848135,-66,528,463,810,-387,-249
2848154,-94,496,456,810,-355,-240
2848169,-83,512,472,793,-360,-255
2848186,-118,499,463,800,-366,-267
2848203,-92,503,470,805,-343,-252
2848234,-94,482,453,804,-352,-228
2848250,-171,458,457,801,-342,-286
2848267,-152,479,459,802,-325,-288
2848284,-226,459,464,757,-375,-378
2848300,-238,455,458,750,-383,-423
2848319,-248,463,443,783,-368,-435
2848334,-280,456,440,780,-347,-472
2848352,-277,481,444,799,-339,-468
2848368,-303,467,447,792,-365,-532
2848384,-351,444,441,772,-359,-573
2848401,-408,403,444,740,-386,-625
2848418,-393,431,444,756,-344,-625
2848434,-460,351,443,693,-434,-687
2848467,-550,273,436,617,-486,-771
2848483,-617,222,441,554,-552,-850
2848501,-633,206,442,525,-570,-905
2848518,-641,212,430,565,-546,-886
2848535,-610,216,433,564,-543,-880
2848551,-600,254,435,599,-516,-868
2848567,-607,234,428,591,-530,-879
2848584,-625,229,423,572,-544,-907
2848601,-606,280,434,618,-527,-884
2848618,-607,270,434,623,-525,-854
2848634,-623,274,429,624,-517,-853
2848651,-594,289,429,655,-509,-838
2848667,-599,298,422,645,-478,-828
2848684,-595,294,421,634,-479,-843
2848700,-568,319,420,649,-471,-832
2848717,-617,263,426,612,-512,-881
2848735,-565,286,423,634,-481,-857
2848751,-581,279,429,612,-509,-908
2848768,-582,292,427,625,-473,-893
2848785,-500,332,437,645,-444,-868
2848801,-541,316,425,612,-481,-924
2848818,-505,333,429,615,-480,-918
2848835,-515,340,439,646,-443,-893
2848851,-509,346,442,653,-436,-853
2848868,-498,327,436,620,-483,-897
2848884,-589,291,435,593,-508,-948
2848901,-589,293,439,592,-512,-980
2848932,-577,328,433,624,-468,-1006
2848950,-535,349,428,650,-463,-979
2848967,-487,357,421,656,-448,-973
2848982,-522,339,418,643,-472,-986
2848999,-479,361,423,675,-437,-950
2849016,-421,384,420,731,-397,-886
2849033,-463,391,411,718,-381,-887
2849050,-450,368,414,709,-401,-880
2849067,-442,398,412,714,-400,-860
2849083,-439,397,414,737,-395,-833
2849100,-388,457,407,780,-354,-826
2849117,-319,507,412,832,-284,-805
2849133,-309,508,400,816,-281,-789
2849150,-277,524,406,814,-280,-784
2849167,-164,596,404,902,-228,-687
2849184,-5,694,401,987,-140,-527
2849199,135,772,395,1044,-96,-410
2849217,216,814,398,1074,-72,-336
2849233,217,784,389,1070,-90,-291
2849250,243,813,399,1104,-93,-296
2849267,282,834,387,1097,-71,-216
2849284,292,879,389,1146,1,-171
2849300,295,887,384,1150,-4,-187
2849317,301,891,384,1152,-1,-188
2849334,260,840,382,1117,-30,-212
2849351,276,870,383,1129,-32,-227
2849367,201,837,384,1111,-15,-248
2849384,184,850,387,1096,-38,-295
2849400,134,826,389,1123,-38,-342
2849417,52,776,387,1038,-105,-460
2849433,-60,700,389,976,-150,-544
2849449,-39,717,382,998,-140,-575
2849467,-36,757,389,1036,-117,-536
2849483,17,774,387,1039,-99,-519
2849514,-72,737,400,1005,-132,-547
2849532,-62,742,394,991,-120,-523
2849548,-93,716,398,971,-143,-502
2849565,-133,683,394,954,-157,-514
2849582,-153,684,396,962,-159,-497
2849599,-136,710,391,970,-123,-469
2849615,-160,679,391,957,-150,-486
2849632,-167,672,392,951,-129,-449
2849649,-161,688,386,946,-133,-408
2849665,-180,678,388,962,-129,-468
2849682,-155,701,385,985,-104,-480
2849699,-176,670,403,971,-139,-534
2849715,-160,655,401,961,-153,-560
2849732,-138,683,402,957,-160,-615
2849748,-123,708,395,974,-124,-569
2849765,-171,663,402,948,-157,-568
2849782,-195,642,409,933,-158,-557
2849798,-193,621,405,918,-200,-540
2849816,-237,607,412,911,-196,-511
2849832,-230,599,397,908,-204,-489
2849849,-184,635,403,934,-188,-441
2849866,-141,657,391,961,-163,-385
2849882,-160,658,398,934,-187,-402
2849898,-188,646,410,911,-192,-406
2849916,-177,644,403,930,-184,-415
2849932,-190,611,398,892,-227,-453
2849949,-169,627,400,912,-189,-453
2849980,-147,633,398,913,-182,-464
2849997,-164,630,393,921,-196,-472
2850014,-125,626,401,910,-205,-460
2850030,-164,625,401,891,-217,-478
2850048,-153,616,398,887,-238,-493
2850064,-180,609,399,880,-242,-484
2850081,-175,604,396,874,-252,-479
2850099,-122,596,409,852,-276,-456
2850116,-94,585,406,852,-284,-386
2850132,16,646,406,895,-245,-254
2850149,102,675,394,925,-216,-152
2850165,103,652,407,919,-241,-155
2850182,132,666,402,925,-242,-176
2850213,113,657,407,920,-207,-180
2850230,122,677,409,905,-412,-197
