TIME,AF3,F7,F3,F4,F8,AF4
3537044,-287,503,100,699,-436,-380
3537060,-298,505,96,697,-440,-392
3537077,-322,478,93,704,-464,-419
3537093,-351,459,74,710,-508,-445
3537111,-348,456,85,708,-507,-450
3537142,-357,494,87,616,-493,-447
3537159,-337,502,93,567,-476,-449
3537176,-323,533,98,555,-459,-442
3537193,-323,522,96,549,-473,-446
3537209,-324,533,97,573,-439,-446
3537226,-323,524,110,648,-436,-438
3537258,-315,531,124,622,-404,-427
3537275,-340,552,135,658,-381,-423
3537293,-307,565,148,673,-387,-421
3537308,-315,558,151,663,-380,-433
3537325,-326,536,145,626,-385,-449
3537342,-337,532,152,578,-424,-451
3537359,-317,536,159,574,-412,-444
3537376,-330,540,152,648,-397,-441
3537392,-350,536,132,709,-410,-473
3537410,-340,533,139,702,-412,-468
3537426,-359,521,127,658,-414,-486
3537442,-363,509,127,671,-434,-489
3537459,-398,478,114,680,-445,-512
3537476,-409,489,96,706,-447,-510
3537492,-418,481,87,718,-443,-538
3537508,-416,508,96,717,-448,-528
3537525,-394,509,124,719,-437,-531
3537543,-384,530,131,726,-436,-512
3537558,-346,550,170,710,-396,-468
3537576,-383,524,148,711,-440,-506
3537593,-400,498,126,692,-457,-522
3537609,-417,502,126,684,-474,-535
3537625,-398,514,153,690,-437,-504
3537642,-392,528,156,721,-442,-508
3537659,-388,524,159,768,-463,-503
3537676,-394,520,149,712,-471,-508
3537692,-378,535,158,811,-464,-491
3537723,-326,577,220,909,-388,-431
3537741,-349,569,205,728,-403,-444
3537757,-353,577,211,700,-400,-454
3537774,-385,545,188,744,-420,-477
3537791,-371,557,201,739,-416,-476
3537808,-360,561,198,763,-417,-474
3537824,-364,537,189,809,-409,-474
3537841,-371,533,180,796,-446,-489
3537858,-343,557,206,783,-422,-467
3537875,-354,558,197,683,-452,-489
3537891,-365,551,190,675,-444,-494
3537908,-362,553,214,590,-437,-496
3537925,-363,551,185,518,-431,-489
3537941,-374,564,202,515,-438,-514
3537957,-366,561,194,516,-428,-515
3537975,-402,530,176,501,-469,-551
3537991,-407,533,176,515,-474,-557
3538008,-377,540,188,544,-434,-529
3538025,-390,546,190,546,-464,-539
3538041,-386,563,185,516,-470,-540
3538073,-405,534,178,666,-475,-563
3538090,-386,563,181,691,-439,-531
3538107,-401,548,166,715,-458,-552
3538124,-417,536,147,717,-481,-570
3538141,-418,528,148,717,-499,-576
3538157,-440,527,124,714,-479,-593
3538174,-412,537,123,717,-452,-565
3538191,-448,533,145,723,-466,-594
3538207,-413,535,147,733,-474,-579
3538224,-410,538,155,719,-468,-572
3538240,-418,566,154,705,-473,-570
3538257,-401,564,165,707,-465,-562
3538274,-407,566,170,727,-439,-558
3538290,-400,567,183,725,-434,-562
3538307,-404,570,180,730,-439,-564
3538324,-415,567,169,718,-453,-576
3538341,-422,562,157,709,-439,-589
3538357,-421,565,168,703,-432,-571
3538373,-433,557,165,713,-443,-587
3538391,-445,533,153,714,-478,-606
3538409,-463,533,145,726,-469,-634
3538424,-442,559,170,754,-476,-593
3538441,-439,570,176,807,-456,-593
3538457,-436,563,153,874,-453,-598
3538474,-459,543,151,1137,-468,-593
3538491,-449,558,159,857,-476,-590
3538507,-431,567,182,977,-434,-563
3538524,-446,568,173,934,-473,-568
3538541,-437,565,179,951,-443,-570
3538558,-442,564,181,979,-445,-562
3538574,-463,539,151,1008,-450,-567
3538590,-468,540,170,775,-449,-567
3538607,-472,539,151,815,-446,-566
3538624,-466,538,163,785,-438,-553
3538654,-435,566,188,763,-417,-528
3538672,-468,557,184,764,-443,-537
3538689,-446,569,191,749,-427,-521
3538705,-476,559,181,712,-476,-537
3538723,-473,544,179,658,-441,-530
3538738,-470,529,150,612,-455,-536
3538755,-480,531,154,498,-450,-532
3538772,-479,526,160,409,-446,-533
3538789,-476,526,159,185,-433,-535
3538806,-464,539,186,353,-436,-512
3538822,-504,505,152,438,-447,-540
3538839,-465,540,188,519,-418,-526
3538856,-478,528,167,527,-419,-514
3538872,-489,528,173,534,-433,-529
3538889,-441,550,200,547,-396,-501
3538907,-442,564,206,539,-384,-498
3538923,-443,562,198,539,-382,-507
3538939,-447,558,201,553,-388,-525
3538955,-449,556,185,517,-415,-535
3538973,-453,563,204,422,-392,-548
3539003,-476,537,185,365,-430,-600
3539020,-479,530,168,357,-448,-625
3539038,-477,532,161,419,-449,-625
3539055,-483,511,164,564,-465,-634
3539072,-474,536,186,704,-437,-625
3539088,-503,503,159,845,-461,-633
3539105,-512,470,120,876,-521,-675
3539122,-572,461,96,885,-536,-727
3539139,-572,461,96,897,-538,-759
3539156,-570,451,98,917,-512,-754
3539172,-563,475,110,1092,-505,-742
3539188,-561,479,92,537,-496,-781
3539205,-561,470,121,622,-507,-798
3539237,-574,466,95,687,-519,-842
3539254,-572,477,113,856,-511,-837
3539271,-560,480,128,995,-508,-819
3539287,-567,469,102,1185,-508,-824
3539304,-577,477,104,1095,-512,-823
3539321,-601,454,88,1087,-535,-840
3539338,-570,473,90,789,-511,-867
3539355,-566,501,119,745,-505,-855
3539371,-562,474,118,776,-508,-873
3539388,-564,475,102,718,-526,-883
3539405,-567,475,106,659,-537,-882
3539421,-535,512,134,619,-484,-846
3539437,-548,499,122,594,-503,-865
3539454,-555,507,125,574,-494,-843
3539471,-538,508,140,573,-501,-824
3539488,-529,520,139,576,-479,-805
3539504,-538,501,138,579,-482,-802
3539521,-540,509,136,570,-489,-783
3539537,-563,509,125,576,-505,-781
3539554,-595,485,94,580,-530,-810
3539571,-571,507,115,598,-505,-758
3539587,-572,503,119,605,-517,-747
3539604,-578,501,90,602,-497,-724
3539621,-587,525,125,609,-480,-712
3539637,-557,535,121,621,-476,-671
3539654,-568,512,124,616,-505,-664
3539671,-565,533,125,615,-504,-654
3539688,-585,500,122,615,-509,-650
3539704,-599,506,116,629,-540,-649
3539721,-592,501,122,624,-536,-626
3539737,-594,481,122,640,-535,-601
3539754,-601,473,105,655,-550,-604
3539771,-594,474,92,661,-567,-592
3539787,-615,478,94,664,-532,-565
3539804,-632,474,67,663,-571,-566
3539821,-619,483,86,667,-559,-554
3539838,-638,469,72,664,-570,-541
3539854,-631,477,88,661,-570,-527
3539871,-689,435,52,661,-601,-556
3539887,-657,443,61,662,-588,-524
3539904,-668,440,62,666,-602,-508
3539920,-666,451,71,672,-579,-495
3539937,-630,480,92,667,-566,-470
3539954,-631,485,99,674,-560,-440
3539970,-669,442,51,670,-602,-483
3539988,-682,444,58,668,-591,-476
3540004,-681,436,65,670,-588,-456
3540021,-675,441,63,668,-601,-443
3540037,-687,438,49,667,-584,-440
3540054,-675,447,67,665,-565,-401
3540071,-676,452,61,661,-568,-401
3540087,-681,454,61,658,-569,-386
3540104,-676,443,63,662,-565,-362
3540120,-661,446,66,663,-598,-352
3540137,-692,442,55,660,-595,-342
3540168,-685,441,56,657,-573,-322
3540185,-668,438,63,657,-591,-294
3540201,-661,463,60,659,-532,-252
3540218,-624,505,87,660,-489,-205
3540235,-629,504,88,649,-482,-183
3540252,-622,508,95,660,-526,-184
3540269,-631,500,94,655,-564,-181
3540286,-644,479,68,656,-539,-170
3540302,-662,474,84,656,-566,-187
3540319,-654,474,84,655,-539,-140
3540336,-655,465,67,658,-538,-120
3540352,-655,473,71,661,-518,-113
3540369,-662,447,61,659,-540,-100
3540385,-665,448,66,659,-529,-86
3540402,-697,430,62,656,-556,-103
3540418,-676,442,72,657,-562,-59
3540435,-663,454,97,664,-527,-58
3540452,-658,454,88,668,-544,-29
3540468,-663,450,89,667,-544,-23
3540485,-661,463,74,662,-563,-25
3540502,-663,472,64,667,-560,-6
3540519,-695,481,59,665,-569,-35
3540535,-675,530,63,668,-589,-22
3540552,-674,563,61,671,-573,-15
3540569,-657,605,71,667,-597,1
3540584,-682,593,61,677,-606,-38
3540601,-668,606,67,677,-602,1
3540619,-695,592,60,677,-612,-26
3540635,-678,663,91,682,-600,-4
3540652,-663,750,96,675,-566,0
3540669,-652,832,90,673,-573,4
3540685,-646,1078,93,668,-559,2
3540702,-626,1185,94,669,-533,26
3540718,-624,1366,91,662,-543,20
3540735,-609,1432,93,665,-537,24
3540752,-609,4568,86,664,-569,-1
3540769,-588,7440,96,666,-565,3
3540785,-584,7198,91,666,-554,-11
3540802,-569,4708,65,663,-585,-37
3540818,-567,2641,60,665,-596,-35
3540835,-532,2080,66,664,-592,-39
3540853,-532,2013,77,670,-591,-32
3540868,-532,1993,66,665,-593,-43
3540885,-528,1942,66,666,-597,-45
3540902,-513,1966,62,664,-598,-40
3540918,-504,1976,64,666,-592,-34
3540935,-486,1954,97,668,-575,-28
3540952,-475,1920,95,669,-567,-3
3540968,-480,1873,97,661,-586,-6
3540986,-467,1852,100,668,-560,10
3541003,-475,1850,99,665,-571,-3
3541018,-469,1855,110,668,-561,28
3541035,-475,1875,93,669,-557,-6
3541051,-457,1883,92,666,-553,5
3541069,-409,1903,123,669,-557,32
3541085,-412,1909,121,665,-530,29
3541102,-387,1905,118,667,-538,32
3541118,-362,1931,129,674,-534,43
3541136,-358,1915,119,675,-535,44
3541152,-351,1891,120,670,-554,35
3541169,-338,1850,128,671,-559,28
3541185,-268,1845,122,668,-532,73
3541215,-272,1816,111,667,-542,59
3541233,-243,1854,155,667,-504,111
3541249,-226,1877,169,670,-492,137
3541266,-181,1916,219,646,-449,183
3541283,-185,1869,236,646,-429,194
3541300,-194,1784,245,621,-409,217
3541316,-216,1755,240,583,-412,211
3541333,-231,1758,231,466,-435,190
3541349,-244,1725,208,441,-420,186
3541366,-232,1744,245,476,-377,214
3541383,-234,1736,248,505,-366,222
3541400,-246,1702,265,522,-354,236
3541415,-269,1668,261,549,-371,215
3541433,-268,1657,264,586,-329,236
3541450,-273,1653,273,589,-337,230
3541467,-293,1843,279,535,-323,232
3541483,-321,2217,246,608,-351,184
3541500,-371,2040,242,874,-358,181
3541517,-406,1854,232,877,-389,179
3541533,-414,2465,238,962,-352,188
3541564,-452,461,238,869,-356,179
3541581,-439,316,252,662,-325,202
3541598,-476,-8,251,677,-321,180
3541615,-444,158,231,663,-342,179
3541631,-512,93,186,650,-356,121
3541649,-511,94,198,618,-364,111
3541665,-528,53,201,612,-364,115
3541683,-464,129,243,602,-309,158
3541699,-485,53,230,613,-333,141
3541715,-511,-2,221,634,-337,118
3541732,-524,-52,213,648,-313,129
3541749,-532,-105,218,644,-321,98
3541766,-573,-176,192,624,-355,77
3541783,-538,-171,208,612,-334,34
3541800,-573,-168,206,582,-322,91
3541817,-578,-205,200,575,-316,92
3541833,-605,-252,194,465,-320,84
3541849,-617,-265,207,515,-324,62
3541866,-655,-294,212,568,-337,68
3541882,-627,-219,219,612,-297,90
3541899,-663,-228,223,645,-305,91
3541916,-659,-195,215,677,-333,69
3541932,-683,-177,192,701,-366,56
3541949,-712,-173,166,732,-393,21
3541966,-716,-150,183,740,-404,25
3541982,-716,-147,162,749,-412,12
3541999,-740,-132,160,743,-442,-1
3542015,-729,-128,159,740,-460,-7
3542033,-719,-129,159,733,-451,-25
3542049,-742,-149,151,728,-481,-30
3542066,-750,-156,131,713,-476,-50
3542083,-748,-152,132,700,-504,-57
3542099,-757,-181,119,647,-494,-74
3542116,-775,-195,88,649,-509,-94
3542146,-742,-150,119,683,-486,-54
3542163,-752,-167,134,677,-495,-66
3542181,-749,-184,126,678,-495,-69
3542197,-742,-162,116,679,-487,-62
3542213,-714,-148,150,672,-459,-23
3542231,-694,-132,149,673,-439,-20
3542263,-677,-153,186,675,-405,25
3542279,-664,-222,198,676,-383,30
3542297,-676,-261,187,695,-375,32
3542313,-712,-260,170,683,-384,17
3542330,-725,-263,147,694,-404,2
3542347,-730,-220,148,685,-419,0
3542364,-759,-230,117,676,-453,-6
3542381,-762,-232,110,673,-454,-3
3542398,-789,-256,86,676,-486,-21
3542414,-812,-272,87,684,-505,-39
3542430,-814,-274,87,679,-517,-52
3542447,-812,-269,90,681,-510,-35
3542464,-799,-263,97,694,-515,-32
3542480,-802,-263,103,688,-539,-34
3542498,-801,-268,114,673,-543,-52
3542515,-805,-287,136,679,-574,-59
3542531,-750,-218,156,682,-565,-30
3542547,-755,-186,183,690,-552,-13
3542564,-730,-168,200,687,-597,-31
3542581,-677,-68,248,689,-554,12
3542598,-692,-42,244,685,-607,-24
3542614,-687,-20,239,673,-658,-41
3542631,-728,-87,215,674,-727,-104
3542648,-736,-104,185,676,-757,-98
3542664,-750,-130,211,688,-828,-141
3542681,-757,-153,203,683,-860,-157
3542697,-760,-171,209,676,-898,-161
3542728,-773,-243,197,639,-1018,-211
3542746,-780,-249,196,644,-1071,-231
3542763,-766,-279,209,640,-1097,-253
3542779,-747,-270,245,636,-1111,-236
3542796,-755,-337,249,607,-1186,-269
3542812,-733,-371,223,577,-1243,-266
3542829,-768,-433,215,558,-1302,-337
3542847,-776,-467,195,585,-1353,-367
3542863,-788,-519,169,583,-1427,-417
3542879,-776,-535,193,523,-1465,-417
3542896,-775,-586,190,401,-1507,-446
3542914,-744,-593,208,428,-1538,-454
3542930,-794,-733,172,588,-1674,-524
3542961,-801,-859,155,694,-1808,-585
3542979,-806,-932,149,708,-1882,-625
3542996,-762,-976,194,781,-1885,-594
3543011,-755,-1087,192,872,-1936,-617
3543029,-756,-1176,204,1014,-1999,-629
3543046,-726,-1212,229,782,-2013,-654
3543077,-617,-1158,271,722,-1992,-623
3543095,-588,-1103,269,867,-2051,-655
3543112,-566,-1067,272,718,-2064,-628
3543128,-562,-1064,288,637,-2072,-636
3543146,-536,-1075,268,650,-2113,-661
3543162,-510,-1077,271,691,-2087,-654
3543195,-487,-1082,266,775,-2109,-659
3543212,-454,-1066,266,634,-2079,-657
3543228,-419,-1045,273,644,-2069,-645
3543245,-418,-1044,231,615,-2084,-667
3543262,-357,-987,269,619,-2032,-611
3543278,-350,-956,252,610,-2003,-616
3543295,-277,-880,288,613,-1938,-559
3543311,-269,-842,245,612,-1943,-567
3543328,-262,-806,222,614,-1909,-562
3543346,-245,-784,185,618,-1878,-555
3543363,-243,-873,187,632,-1813,-505
3543378,-189,-858,188,637,-1729,-434
3543395,-159,-858,191,624,-1638,-380
3543426,-85,-932,189,637,-1451,-252
3543444,-59,-1112,189,636,-1368,-181
3543460,-58,-986,193,656,-1212,-91
3543478,-67,-674,186,657,-1082,-4
3543495,-21,-280,196,665,-928,130
3543512,26,115,194,667,-960,245
3543529,66,497,190,666,-958,354
3543546,132,896,212,651,-813,470
3543562,187,1548,208,651,-310,592
3543579,226,2053,236,631,284,673
3543595,314,2508,270,598,944,883
3543612,381,2944,288,624,1633,1033
3543628,416,3356,288,649,2263,1118
3543660,625,4298,322,677,3152,1392
3543677,675,4654,325,670,3308,1503
3543694,726,4953,330,671,3297,1591
3543711,759,5300,301,674,3249,1669
3543728,814,5434,319,662,3041,1799
3543743,946,5790,318,665,2856,1949
3543760,943,6368,352,698,2822,1985
3543777,996,6818,458,682,2895,2049
3543794,982,6981,484,579,2966,2024
3543810,1046,6970,477,331,3099,1985
3543828,1020,6965,375,711,3291,2051
3543844,1004,6960,326,740,3462,2025
3543861,1008,6960,291,720,3698,2007
3543892,1028,6960,190,715,3697,2061
3543910,1095,6960,147,729,3604,2116
3543926,1211,6960,152,731,3537,2161
3543943,1294,6960,147,718,3486,2228
3543960,1401,6960,179,711,3472,2318
3543976,1499,6960,179,706,3441,2404
3544008,1699,6960,164,739,3618,2566
3544026,1736,6960,162,725,3746,2612
3544042,1681,6960,138,718,3876,2547
3544060,1690,6960,152,735,4123,2666
3544076,1729,6961,156,737,4299,2658
3544093,1695,6961,129,739,4415,2646
3544126,1735,6899,138,714,4522,2592
3544143,1911,6892,161,719,4605,2634
3544160,2002,6860,125,718,4648,2657
3544176,2135,6901,127,716,4735,2737
3544193,2293,6834,118,717,4761,2846
3544209,2441,6822,52,717,4683,2869
3544241,2750,6936,43,688,4595,3081
3544259,2831,6955,52,687,4640,3182
3544276,3000,6959,66,684,4673,3203
3544293,3051,6971,59,685,4683,3181
3544309,3293,6978,66,676,4719,3138
3544326,3425,6732,87,655,4942,3094
3544358,3429,6478,102,657,5558,2943
3544376,3310,5965,98,629,6027,2892
3544391,3187,6411,101,623,6660,2775
3544409,3167,5917,121,621,6840,2651
3544425,3167,6017,115,598,6936,2571
3544443,3217,6007,89,587,6962,2526
3544474,3209,6178,96,571,6958,2415
3544491,3150,6321,95,562,6957,2356
3544509,3101,6442,117,564,6957,2332
3544525,3050,6510,127,564,6957,2279
3544543,2969,6472,84,569,6957,2205
3544559,2973,6513,161,599,6957,2219
3544575,2906,6778,154,592,6957,2195
3544592,2852,7019,190,572,6957,2159
3544609,2781,6486,207,547,6957,2086
3544626,2700,6389,238,529,6957,1939
3544642,2603,6590,306,561,6957,1810
3544659,2474,6853,328,566,6957,1718
3544677,2452,6917,366,532,6957,1723
3544707,2284,6956,383,513,6957,1655
3544725,2290,6960,389,535,6957,1644
3544741,2355,6958,394,536,6957,1675
3544758,2460,6961,416,571,6957,1701
3544775,2610,6960,443,588,6957,1724
3544792,2954,6960,441,606,6957,1726
3544808,3073,6960,419,606,6957,1719
3544826,3149,6960,419,611,6957,1758
3544843,3185,6960,413,617,6957,1755
3544859,3101,6960,376,623,6957,1747
3544876,3003,6960,369,642,6958,1783
3544893,2907,6960,346,680,6961,1842
3544908,2850,6960,338,689,6954,1890
3544940,2904,6960,348,732,6874,1924
3544957,2946,6960,326,726,6732,2117
3544975,2974,6960,320,685,6593,2481
3544991,2943,6960,301,662,6371,2721
3545008,2945,6960,331,692,6094,2874
3545024,2913,6960,335,571,5748,2950
3545056,2982,6960,411,613,5155,3356
3545074,2977,6960,392,665,5025,3081
3545090,3050,6960,504,672,5036,3047
3545107,3108,6960,580,668,5141,3057
3545124,3064,6960,574,667,5283,2999
3545141,3001,6969,554,637,5578,2864
3545173,2853,7611,562,759,6768,2725
3545191,2712,-897,580,748,6974,2604
3545207,2563,-4975,619,741,6973,2515
3545224,2497,-4337,693,714,6964,2329
3545240,2351,-3060,715,720,6956,2221
3545257,2318,-2369,786,702,6957,2359
3545274,2199,-1898,923,706,6957,2465
3545290,2616,-914,964,754,6956,2818
3545308,3621,-154,1006,716,6955,2665
3545323,4222,217,999,725,6955,2558
3545341,4779,396,1075,733,6955,2530
3545357,6177,820,1127,756,6955,2336
3545374,6785,1079,1181,761,6955,2171
3545405,5733,4004,1234,721,6955,2096
3545422,5474,3975,1296,746,6959,1986
3545439,4495,4210,1232,768,6968,2095
3545456,4105,4568,1253,776,6925,2188
3545473,3807,4896,1251,791,6714,2190
3545490,3747,4979,1223,786,6376,2205
3545522,3943,5017,1112,811,5258,2292
3545539,4510,4900,1084,815,4729,2400
3545556,4885,4792,1131,827,4280,2354
3545573,5289,4799,1198,843,3921,2357
3545590,5435,4742,1212,833,3455,2307
3545606,5394,4869,1219,841,3193,2335
3545638,5472,6482,1128,841,2793,2335
3545656,5413,6792,1139,856,2555,2337
3545672,5375,4910,1176,825,2396,2375
3545690,5257,4847,1131,811,2137,2378
3545706,5253,4638,1079,827,1815,2376
3545722,5261,4520,1041,836,1678,2455
3545755,5154,4338,1001,829,1294,2727
3545772,5144,4551,1003,826,1155,2739
3545788,5079,4665,937,817,962,2781
3545806,5061,4768,923,818,863,2853
3545822,5014,4840,927,811,744,2934
3545839,4904,4958,907,802,626,3024
3545871,4696,5119,918,798,574,2955
3545889,4609,5156,919,793,539,2972
3545905,4514,5081,896,785,491,2917
3545922,4440,4944,898,794,466,2861
3545938,4363,4830,881,789,438,2840
3545955,4276,4587,827,774,312,2807
3545987,4165,4377,794,787,174,2823
3546005,4142,4461,904,793,242,2884
3546022,4066,4393,899,773,262,2837
3546038,3986,4354,904,774,262,2771
3546055,3947,4360,931,785,335,2782
3546072,3882,4333,956,778,321,2788
3546103,3750,4128,931,774,214,2697
3546120,3628,4025,928,775,101,2639
3546137,3533,3888,893,767,14,2588
3546155,3509,3823,925,763,-11,2594
3546171,3440,3734,899,755,-82,2563
3546188,3383,3666,890,749,-113,2543
3546221,3301,3477,918,736,-182,2519
3546237,3218,3374,894,726,-224,2405
3546254,3200,3352,924,720,-184,2410
3546271,3153,3307,935,703,-191,2359
3546288,3095,3257,921,704,-194,2305
3546304,3075,3222,935,700,-142,2289
3546353,2927,3055,937,679,-39,2152
3546371,2920,3124,941,685,60,2130
3546387,2821,3069,964,697,125,2111
3546404,2707,2994,911,680,82,2006
3546420,2711,3004,964,683,191,2049
3546437,2646,2996,962,673,247,2001
3546469,2572,3010,970,669,308,1974
3546487,2540,2978,984,670,358,1964
3546504,2513,2955,1019,666,357,1945
3546521,2508,2887,1009,665,367,1944
3546537,2486,2807,1025,665,344,1930
3546554,2434,2722,1010,657,291,1879
3546586,2395,2605,1039,647,273,1857
3546604,2365,2537,1039,649,252,1829
3546619,2365,2499,1052,637,210,1821
3546636,2342,2354,1051,630,100,1796
3546653,2299,2218,1040,621,82,1778
3546671,2298,2158,1069,607,90,1791
3546702,2294,2088,1106,602,128,1819
3546720,2321,2048,1141,613,143,1858
3546736,2269,1964,1128,614,111,1830
3546753,2237,1839,1098,614,94,1814
3546769,2221,1790,1130,604,94,1826
3546786,2199,1750,1130,599,91,1823
3546819,2154,1657,1141,578,84,1812
3546836,2130,1603,1147,575,63,1819
3546852,2117,1589,1157,558,63,1813
3546870,2259,1692,1310,565,217,1967
3546886,2204,1622,1300,566,206,1935
3546903,2224,1593,1325,570,251,1963
3546935,2164,1507,1345,550,216,1944
3546953,2171,1446,1367,560,227,1971
3546969,2205,1472,1416,562,258,2019
3546985,2186,1425,1426,565,265,2036
3547002,2154,1391,1429,569,245,2007
3547019,2133,1328,1408,568,232,2007
3547052,2089,1244,1407,573,249,2019
3547069,2052,1191,1409,576,246,2008
3547086,2006,1153,1394,575,259,1980
3547102,2020,1142,1434,576,288,1997
3547119,1972,1131,1440,574,289,1973
3547136,1922,1083,1435,574,270,1940
3547168,1898,1009,1466,582,299,1922
3547185,1863,961,1486,577,321,1903
3547202,1863,947,1502,602,362,1901
3547219,1825,879,1497,587,328,1858
3547235,1804,822,1506,582,352,1850
3547253,1831,814,1537,577,394,1864
3547284,1783,705,1532,587,406,1816
3547301,1756,640,1495,603,366,1771
3547317,1741,585,1504,592,342,1753
3547335,1728,555,1528,583,340,1736
3547351,1694,481,1526,577,311,1696
3547369,1670,406,1522,575,282,1678
3547400,1624,263,1531,586,256,1606
3547418,1606,219,1547,590,260,1580
3547434,1599,181,1579,581,284,1570
3547451,1565,117,1571,570,264,1531
3547468,1534,60,1579,565,275,1504
3547485,1508,0,1584,563,273,1463
3547517,1467,321,1608,552,287,1402
3547534,1466,-50,1641,578,318,1390
3547551,1433,-247,1646,577,290,1343
3547568,1403,-287,1664,563,289,1320
3547585,1374,-361,1660,578,297,1297
3547601,1347,-464,1654,577,332,1264
3547633,1307,-606,1667,572,331,1217
3547650,1308,-668,1670,568,315,1196
3547668,1258,-746,1662,568,269,1170
3547684,1253,-793,1666,569,251,1162
3547701,1239,-866,1674,574,200,1135
3547717,1243,-904,1697,572,181,1137
3547750,1187,-1025,1668,554,102,1057
3547767,1160,-1053,1669,561,77,1050
3547784,1103,-1132,1659,561,-3,986
3547801,1104,-1152,1655,575,0,999
3547817,1054,-1253,1605,570,-129,948
3547834,965,-1296,1592,568,-204,874
3547866,948,-1320,1633,572,-254,855
3547884,931,-1320,1640,581,-304,838
3547901,896,-1352,1631,576,-345,790
3547917,860,-1407,1628,573,-394,743
3547934,841,-1434,1633,573,-436,747
3547950,840,-1446,1657,577,-449,724
3547983,837,-1469,1696,571,-470,695
3548000,814,-1495,1701,552,-511,667
3548017,815,-1517,1697,552,-501,660
3548034,793,-1525,1726,562,-500,622
3548050,775,-1557,1729,565,-524,607
3548067,748,-1577,1723,557,-546,578
3548083,746,-1605,1740,557,-575,576
3548116,685,-1680,1719,549,-658,488
3548133,653,-1735,1698,534,-693,454
3548151,640,-1741,1719,550,-693,445
3548167,600,-1795,1694,542,-757,398
3548184,596,-1817,1700,539,-750,398
3548200,571,-1839,1705,549,-775,393
3548231,514,-1895,1692,537,-824,321
3548248,540,-1902,1704,538,-838,346
3548266,502,-1922,1697,542,-867,326
3548282,481,-1969,1697,532,-905,308
3548300,467,-2009,1697,532,-938,289
3548315,466,-2002,1698,527,-969,286
3548348,441,-2060,1696,530,-1013,269
3548366,408,-2084,1702,521,-1068,264
3548382,378,-2129,1694,527,-1105,245
3548399,380,-2147,1723,523,-1101,247
3548416,369,-2173,1730,523,-1139,248
3548433,321,-2223,1701,519,-1171,210
3548464,269,-2270,1687,520,-1221,181
3548482,280,-2280,1708,518,-1190,201
3548498,210,-2322,1687,515,-1268,154
3548516,236,-2315,1706,515,-1244,177
3548532,195,-2354,1695,515,-1283,144
3548549,204,-2371,1715,519,-1276,153
3548581,154,-2415,1707,519,-1329,129
3548599,146,-2433,1702,510,-1369,123
3548615,127,-2478,1670,511,-1421,93
3548632,70,-2485,1667,514,-1407,86
3548649,89,-2508,1693,525,-1406,89
3548665,58,-2509,1676,523,-1429,73
3548697,24,-2541,1669,523,-1508,26
3548715,11,-2565,1663,519,-1533,13
3548731,3,-2560,1665,527,-1559,0
3548748,-26,-2572,1667,527,-1578,-4
3548766,-25,-2578,1668,521,-1579,2
3548782,-53,-2596,1667,522,-1599,-31
3548814,-81,-2599,1662,517,-1615,-31
3548830,-97,-2599,1653,513,-1665,-65
3548847,-107,-2618,1659,507,-1665,-98
3548864,-67,-2558,1743,515,-1609,-16
3548881,-46,-2579,1745,504,-1634,-15
3548898,-66,-2569,1728,511,-1634,-6
3548930,-90,-2601,1728,494,-1666,18
3548948,-97,-2603,1735,497,-1678,36
3548965,-154,-2640,1709,499,-1699,36
3548981,-146,-2628,1715,499,-1688,83
3548997,-161,-2658,1723,493,-1702,84
3549014,-167,-2649,1723,493,-1685,105
3549047,-212,-2691,1702,494,-1774,103
3549063,-219,-2708,1693,489,-1782,125
3549081,-210,-2722,1715,485,-1762,155
3549098,-209,-2714,1722,485,-1788,157
3549114,-238,-2739,1688,475,-1806,133
3549130,-245,-2764,1699,476,-1814,145
3549163,-247,-2763,1705,474,-1810,159
3549180,-271,-2772,1703,471,-1831,152
3549197,-271,-2757,1726,476,-1810,163
3549215,-328,-2809,1703,473,-1855,116
3549231,-321,-2796,1690,473,-1825,124
3549248,-333,-2793,1697,466,-1839,113
3549279,-355,-2794,1670,471,-1872,92
3549296,-360,-2829,1701,481,-1869,91
3549313,-380,-2821,1667,471,-1883,67
3549329,-374,-2828,1705,474,-1879,68
3549346,-415,-2863,1661,471,-1911,39
3549364,-428,-2866,1675,471,-1917,24
3549396,-447,-2868,1655,462,-1898,-7
3549413,-440,-2875,1661,460,-1892,-6
3549431,-483,-2893,1627,457,-1936,-56
3549447,-451,-2872,1657,457,-1908,-49
3549464,-451,-2866,1653,459,-1880,-31
3549480,-448,-2882,1674,454,-1905,-38
3549512,-472,-2893,1667,456,-1964,-87
3549530,-498,-2894,1654,456,-1975,-113
3549546,-492,-2889,1664,452,-1970,-118
3549564,-521,-2897,1637,456,-1999,-156
3549580,-540,-2922,1635,453,-2003,-169
3549597,-553,-2922,1626,448,-2009,-180
3549629,-569,-2948,1604,445,-2016,-215
3549646,-568,-2922,1606,439,-2033,-219
3549662,-597,-2949,1609,451,-2038,-247
3549679,-599,-2945,1604,442,-2045,-263
3549696,-612,-2956,1591,439,-2053,-278
3549713,-647,-2963,1566,442,-2062,-311
3549745,-639,-2982,1580,438,-2035,-315
3549762,-658,-2979,1573,442,-2055,-324
3549780,-656,-2983,1562,444,-2067,-333
3549796,-639,-2962,1583,440,-2010,-319
3549813,-682,-2978,1556,448,-2040,-363
3549829,-671,-2972,1563,439,-2026,-361
3549845,-678,-2955,1552,435,-2035,-388
3549863,-692,-2968,1535,434,-2051,-413
3549880,-721,-2985,1548,436,-2063,-420
3549896,-705,-2955,1522,433,-2039,-402
3549912,-727,-2929,1548,432,-2062,-416
3549930,-705,-2881,1546,434,-2067,-405
3549945,-703,-2857,1542,431,-2059,-407
3549962,-741,-2894,1526,436,-2110,-441
3549979,-726,-2859,1529,427,-2105,-434
3549996,-740,-2869,1526,432,-2113,-438
3550012,-743,-2857,1511,428,-2126,-444
3550029,-754,-2852,1514,429,-2153,-474
3550045,-775,-2870,1495,422,-2194,-473
3550062,-793,-2873,1486,422,-2184,-475
3550079,-841,-2895,1439,416,-2211,-525
3550096,-833,-2895,1450,415,-2203,-525
3550112,-844,-2900,1434,421,-2207,-542
3550129,-839,-2890,1459,420,-2200,-537
3550146,-847,-2883,1431,414,-2216,-551
3550162,-875,-2898,1405,417,-2243,-587
3550179,-874,-2886,1415,416,-2213,-589
3550211,-895,-2878,1390,419,-2233,-616
3550228,-914,-2898,1373,418,-2262,-638
3550245,-896,-2869,1384,418,-2214,-617
3550261,-929,-2892,1348,414,-2246,-660
3550278,-889,-2861,1389,413,-2218,-616
3550296,-928,-2865,1368,415,-2246,-654
3550312,-935,-2887,1344,409,-2262,-687
3550330,-926,-2842,1382,417,-2204,-651
3550346,-939,-2848,1353,405,-2230,-677
3550362,-952,-2854,1360,414,-2249,-687
3550379,-909,-2804,1400,413,-2188,-626
3550396,-903,-2801,1381,419,-2186,-645
3550412,-930,-2819,1374,406,-2209,-658
3550429,-945,-2800,1382,412,-2188,-678
3550446,-962,-2808,1358,416,-2195,-699
3550462,-976,-2811,1345,402,-2216,-724
3550479,-968,-2798,1347,410,-2227,-710
3550496,-984,-2783,1334,407,-2231,-727
3550512,-982,-2781,1340,406,-2248,-702
3550529,-959,-2745,1349,417,-2232,-684
3550559,-972,-2738,1333,412,-2226,-717
3550577,-983,-2742,1322,412,-2168,-721
3550594,-982,-2742,1314,407,-2186,-738
3550610,-1001,-2731,1316,411,-2164,-745
3550628,-1016,-2747,1311,411,-2188,-751
3550644,-987,-2698,1325,418,-2188,-720
3550660,-1014,-2721,1317,407,-2200,-738
3550678,-1036,-2709,1292,402,-2207,-746
3550693,-1042,-2709,1314,403,-2183,-760
3550710,-1044,-2720,1282,404,-2206,-758
3550727,-1037,-2705,1295,406,-2187,-748
3550744,-1039,-2686,1286,408,-2204,-754
3550761,-1077,-2708,1248,404,-2236,-788
3550777,-1072,-2689,1254,400,-2193,-779
3550794,-1054,-2663,1259,401,-2176,-752
3550811,-1068,-2667,1252,402,-2184,-772
3550827,-1067,-2656,1228,402,-2222,-778
3550844,-1093,-2663,1212,400,-2253,-815
3550860,-1056,-2624,1228,398,-2191,-767
3550877,-1112,-2658,1186,405,-2220,-825
3550895,-1083,-2630,1203,399,-2190,-788
3550910,-1108,-2631,1185,398,-2230,-816
3550927,-1090,-2602,1201,397,-2209,-770
3550944,-1115,-2613,1160,396,-2258,-816
3550961,-1117,-2627,1166,395,-2239,-812
3550977,-1128,-2599,1163,397,-2258,-828
3550994,-1143,-2597,1132,395,-2270,-850
3551025,-1130,-2573,1150,392,-2231,-834
3551042,-1129,-2567,1162,390,-2225,-828
3551059,-1135,-2578,1134,391,-2236,-853
3551076,-1155,-2568,1104,386,-2256,-865
3551092,-1158,-2547,1127,395,-2234,-858
3551109,-1184,-2548,1061,389,-2260,-907
3551127,-1179,-2510,1085,389,-2219,-877
3551144,-1181,-2482,1069,385,-2222,-904
3551161,-1185,-2487,1074,394,-2195,-898
3551178,-1168,-2473,1074,392,-2201,-924
3551195,-1164,-2453,1080,392,-2208,-899
3551211,-1186,-2454,1069,388,-2204,-925
3551228,-1159,-2421,1074,396,-2173,-886
3551258,-1161,-2393,1074,389,-2173,-893
3551275,-1178,-2390,1068,392,-2170,-904
3551292,-1184,-2392,1062,393,-2175,-917
3551309,-1161,-2352,1077,384,-2153,-899
3551326,-1194,-2360,1040,385,-2181,-925
3551342,-1192,-2333,1023,378,-2206,-931
3551359,-1202,-2302,1031,386,-2176,-956
3551376,-1228,-2300,1008,380,-2178,-966
3551393,-1203,-2269,1020,381,-2148,-944
3551409,-1181,-2233,1040,384,-2110,-925
3551426,-1184,-2200,1039,386,-2106,-914
3551443,-1202,-2204,995,382,-2151,-960
3551460,-1191,-2167,997,390,-2126,-939
3551477,-1215,-2158,997,378,-2142,-951
3551493,-1219,-2157,980,383,-2138,-964
3551509,-1221,-2134,984,382,-2147,-965
3551526,-1220,-2097,983,380,-2148,-951
3551544,-1222,-2076,985,384,-2150,-953
3551560,-1231,-2069,977,378,-2167,-975
3551576,-1227,-2033,970,380,-2138,-970
3551592,-1249,-2012,933,371,-2145,-1002
3551610,-1260,-1958,936,370,-2142,-996
3551626,-1233,-1929,947,371,-2143,-994
3551643,-1228,-1893,936,371,-2108,-993
3551659,-1257,-1895,921,372,-2132,-1017
3551677,-1255,-1885,912,364,-2123,-1027
3551693,-1261,-1860,902,363,-2107,-1032
3551723,-1257,-1726,904,359,-2112,-1044
3551741,-1250,-1758,912,360,-2065,-1046
3551757,-1245,-1768,883,355,-2069,-1038
3551774,-1253,-1771,894,356,-2062,-1063
3551791,-1270,-1797,863,349,-2075,-1079
3551808,-1282,-1785,870,355,-2047,-1064
3551825,-1230,-1720,911,353,-1985,-1033
3551842,-1209,-1712,926,353,-1949,-1013
3551859,-1192,-1695,943,358,-1944,-1008
3551875,-1191,-1711,926,358,-1938,-1008
3551892,-1194,-1702,921,355,-1939,-1029
3551908,-1223,-1695,912,342,-1913,-1047
3551925,-1227,-1692,913,341,-1911,-1040
3551943,-1197,-1703,911,336,-1881,-1022
3551959,-1212,-1704,911,334,-1893,-1030
3551975,-1184,-1700,925,334,-1853,-990
3551991,-1188,-1701,891,322,-1865,-1012
3552008,-1221,-1701,874,321,-1882,-1027
3552025,-1213,-1683,897,319,-1879,-1001
3552041,-1225,-1681,867,321,-1889,-1011
3552059,-1222,-1662,859,318,-1880,-1006
3552076,-1235,-1676,843,318,-1883,-1005
3552092,-1221,-1650,861,314,-1847,-974
3552109,-1248,-1670,852,312,-1887,-1012
3552125,-1244,-1632,853,310,-1849,-988
3552142,-1228,-1642,850,313,-1836,-977
3552158,-1197,-1616,850,319,-1814,-954
3552175,-1233,-1597,811,309,-1823,-961
3552193,-1221,-1580,782,311,-1822,-950
3552209,-1226,-1555,762,310,-1845,-947
3552226,-1220,-1518,728,310,-1825,-924
3552242,-1261,-1487,696,303,-1858,-983
3552259,-1229,-1504,692,304,-1856,-948
3552276,-1255,-1490,667,302,-1879,-945
3552305,-1270,-1418,622,291,-1891,-944
3552323,-1257,-1409,610,292,-1875,-938
3552339,-1248,-1378,598,291,-1867,-940
3552356,-1242,-1342,596,285,-1849,-919
3552373,-1240,-1323,599,283,-1829,-916
3552390,-1286,-1361,541,274,-1856,-956
3552406,-1257,-1312,567,280,-1787,-905
3552424,-1253,-1312,566,269,-1811,-902
3552440,-1257,-1289,536,276,-1793,-902
3552456,-1252,-1283,539,272,-1792,-891
3552473,-1266,-1285,518,270,-1780,-908
3552491,-1291,-1289,501,267,-1790,-931
3552507,-1279,-1281,498,262,-1746,-908
3552538,-1279,-1260,472,251,-1730,-918
3552555,-1259,-1262,482,249,-1687,-897
3552573,-1278,-1251,479,251,-1697,-921
3552589,-1294,-1246,468,245,-1702,-938
3552606,-1290,-1226,465,245,-1667,-931
3552623,-1300,-1219,449,244,-1663,-938
3552639,-1269,-1195,480,241,-1633,-902
3552656,-1249,-1164,477,233,-1615,-879
3552673,-1277,-1170,472,236,-1607,-910
3552690,-1268,-1152,459,225,-1625,-906
3552706,-1242,-1120,476,230,-1547,-860
3552722,-1263,-1132,446,222,-1574,-884
3552739,-1259,-1117,439,225,-1564,-870
3552757,-1280,-1136,440,219,-1566,-875
3552772,-1287,-1133,438,216,-1559,-872
3552789,-1265,-1128,438,215,-1510,-868
3552806,-1263,-1139,425,207,-1519,-873
3552823,-1258,-1136,421,212,-1496,-863
3552839,-1290,-1168,407,205,-1519,-880
3552856,-1274,-1159,424,206,-1464,-864
3552873,-1272,-1135,424,211,-1439,-851
3552889,-1289,-1150,403,202,-1455,-867
3552906,-1316,-1159,390,196,-1462,-878
3552923,-1296,-1156,413,200,-1456,-870
3552939,-1283,-1121,402,202,-1456,-843
3552956,-1316,-1130,382,205,-1459,-875
3552973,-1347,-1151,366,201,-1475,-880
3553003,-1356,-1131,344,202,-1460,-901
3553021,-1354,-1125,349,195,-1434,-884
3553037,-1348,-1122,354,192,-1431,-888
3553054,-1352,-1118,346,198,-1434,-880
3553072,-1344,-1097,347,182,-1414,-875
3553087,-1349,-1101,342,182,-1419,-861
3553105,-1359,-1101,326,179,-1419,-860
3553122,-1371,-1106,322,183,-1408,-848
3553138,-1345,-1098,343,184,-1376,-832
3553155,-1375,-1105,320,177,-1411,-850
3553172,-1349,-1073,335,171,-1372,-835
3553188,-1343,-1070,319,174,-1339,-824
3553205,-1344,-1073,332,170,-1326,-811
3553236,-1353,-1072,301,166,-1348,-807
3553254,-1335,-1022,319,166,-1339,-800
3553270,-1337,-1019,307,166,-1340,-788
3553288,-1335,-1004,318,173,-1328,-787
3553304,-1350,-1014,307,165,-1348,-788
3553321,-1360,-1020,269,151,-1373,-804
3553353,-1349,-980,271,143,-1412,-814
3553369,-1384,-974,259,135,-1409,-808
3553386,-1342,-936,278,132,-1401,-779
3553404,-1333,-896,280,111,-1396,-777
3553421,-1349,-891,273,99,-1383,-761
3553438,-1327,-861,263,60,-1363,-753
3553455,-1350,-830,263,-6,-1375,-780
3553471,-1357,-807,241,-52,-1377,-790
3553489,-1316,-740,282,-69,-1361,-741
3553505,-1349,-737,252,-54,-1406,-776
3553522,-1340,-720,261,-12,-1411,-753
3553538,-1353,-705,237,-11,-1466,-789
3553555,-1336,-683,269,7,-1436,-757
3553571,-1336,-683,269,7,-1436,-757
3553588,-1336,-683,269,7,-1436,-757
3553606,-1336,-683,269,7,-1436,-757
3553623,-1336,-683,269,7,-1436,-757
3553639,-1336,-683,269,7,-1436,-757
3553655,-1336,-683,269,7,-1436,-757
3553672,-1336,-683,269,7,-1436,-757
3553702,-1332,-697,229,109,-1475,-742
3553719,-1338,-605,209,179,-1436,-715
3553735,-1347,-586,211,302,-1366,-683
3553753,-1300,-561,219,81,-1329,-652
3553770,-1315,-569,209,49,-1311,-681
3553786,-1294,-572,202,8,-1258,-660
3553803,-1282,-567,209,16,-1221,-658
3553820,-1296,-600,181,-18,-1212,-685
3553837,-1291,-537,182,-22,-1162,-652
3553853,-1308,-522,234,-13,-1140,-650
3553869,-1247,-544,207,-21,-1101,-623
3553886,-1247,-533,236,-17,-1050,-575
3553903,-1291,-590,210,-32,-1088,-595
3553920,-1291,-613,205,-36,-1105,-593
3553938,-1310,-638,190,-42,-1141,-594
3553954,-1313,-645,183,-36,-1162,-593
3553971,-1306,-666,175,-30,-1163,-593
3553987,-1309,-664,191,-21,-1190,-567
3554003,-1287,-694,186,-16,-1273,-564
3554020,-1317,-706,160,-23,-1347,-559
3554051,-1338,-716,150,-52,-1430,-546
3554068,-1311,-677,167,-55,-1466,-528
3554086,-1315,-631,165,-62,-1513,-511
3554103,-1321,-621,151,-70,-1564,-512
3554119,-1322,-572,181,-67,-1582,-506
3554135,-1313,-550,148,-61,-1616,-472
3554152,-1307,-503,178,-55,-1628,-449
3554169,-1320,-487,147,-63,-1644,-458
3554186,-1311,-437,185,-54,-1612,-433
3554202,-1321,-408,158,-56,-1620,-448
3554219,-1288,-369,184,-51,-1604,-418
3554235,-1290,-344,184,-52,-1581,-402
3554252,-1298,-310,164,-65,-1612,-410
3554269,-1301,-258,174,-65,-1608,-393
3554286,-1310,-239,171,-71,-1608,-407
3554302,-1309,-220,153,-73,-1600,-410
3554319,-1325,-219,148,-80,-1588,-416
3554335,-1309,-192,158,-82,-1561,-403
3554352,-1285,-163,155,-88,-1519,-374
3554369,-1294,-55,157,-85,-1529,-389
3554400,-1303,2331,172,-95,-1478,-384
3554418,-1288,544,169,-104,-1473,-354
3554435,-1256,374,187,-107,-1442,-334
3554452,-1284,111,164,-110,-1457,-340
3554468,-1270,32,178,-103,-1431,-330
3554486,-1262,38,191,-107,-1444,-332
3554517,-1258,62,170,-113,-1435,-294
3554535,-1262,58,164,-119,-1401,-275
3554551,-1214,96,201,-125,-1375,-256
3554568,-1241,56,186,-122,-1374,-267
3554584,-1256,63,177,-130,-1382,-275
3554602,-1252,58,185,-132,-1370,-275
3554634,-1230,97,193,-132,-1331,-253
3554651,-1247,101,194,-134,-1323,-282
3554668,-1261,66,173,-141,-1344,-284
3554685,-1246,84,183,-144,-1346,-284
3554701,-1252,82,176,-141,-1352,-274
3554717,-1253,84,165,-140,-1343,-280
3554735,-1263,58,169,-151,-1329,-278
3554752,-1233,95,178,-148,-1297,-239
3554768,-1261,68,146,-172,-1323,-287
3554785,-1245,104,167,-158,-1275,-272
3554802,-1264,91,152,-165,-1311,-293
3554820,-1265,97,152,-171,-1315,-301
3554836,-1286,87,122,-172,-1326,-314
3554852,-1247,127,152,-173,-1278,-271
3554869,-1260,133,140,-178,-1286,-291
3554885,-1256,155,122,-176,-1259,-304
3554902,-1251,165,124,-180,-1250,-306
3554918,-1252,152,117,-180,-1269,-317
3554936,-1230,158,142,-184,-1217,-296
3554953,-1266,130,115,-189,-1237,-342
3554983,-1256,175,125,-203,-1214,-335
3555001,-1231,210,139,-203,-1191,-324
3555017,-1249,223,127,-207,-1203,-327
3555034,-1226,238,139,-215,-1194,-326
3555051,-1233,243,148,-213,-1175,-318
3555066,-1215,291,148,-223,-1150,-318
3555083,-1207,302,152,-212,-1134,-308
3555100,-1219,314,133,-218,-1121,-323
3555117,-1212,327,131,-220,-1094,-307
3555133,-1220,334,125,-226,-1071,-315
3555150,-1224,333,124,-226,-1064,-310
3555167,-1212,346,133,-227,-1042,-309
3555183,-1200,353,153,-232,-1051,-302
3555216,-1193,347,151,-242,-1041,-284
3555233,-1190,344,152,-242,-1011,-292
3555250,-1195,324,135,-245,-1023,-304
3555266,-1224,274,108,-252,-1034,-331
3555284,-1184,275,126,-250,-986,-300
3555300,-1189,278,127,-256,-955,-289
3555331,-1220,242,119,-261,-978,-324
3555349,-1212,217,114,-259,-969,-321
3555365,-1217,210,102,-265,-986,-350
3555383,-1178,245,148,-257,-961,-309
3555398,-1193,230,119,-266,-959,-327
3555416,-1190,262,124,-263,-936,-319
3555448,-1215,268,119,-275,-944,-347
3555466,-1224,268,85,-280,-948,-361
3555482,-1216,287,113,-275,-889,-347
3555499,-1191,296,118,-285,-894,-354
3555516,-1214,294,110,-282,-898,-370
3555532,-1224,303,88,-280,-903,-391
3555566,-1208,354,97,-286,-849,-395
3555582,-1190,398,96,-288,-821,-411
3555599,-1195,391,97,-288,-833,-440
3555616,-1202,414,95,-297,-813,-469
3555632,-1196,413,110,-291,-796,-473
3555649,-1204,411,103,-296,-795,-483
3555681,-1157,469,131,-295,-744,-468
3555699,-1181,447,124,-306,-772,-514
3555715,-1157,430,110,-303,-784,-510
3555731,-1160,419,112,-305,-778,-538
3555748,-1155,426,113,-308,-782,-562
3555766,-1139,411,127,-308,-747,-558
3555814,-1131,378,128,-310,-718,-584
3555831,-1135,343,122,-308,-713,-600
3555849,-1127,358,129,-307,-692,-590
3555865,-1142,292,113,-308,-722,-636
3555882,-1122,307,124,-311,-690,-636
3555898,-1093,325,149,-310,-684,-624
3555915,-1104,311,120,-313,-696,-663
3555932,-1099,327,127,-313,-659,-643
3555949,-1066,345,160,-312,-635,-621
3555965,-1074,338,144,-322,-649,-646
3555982,-1073,326,139,-309,-634,-652
3555999,-1069,340,125,-317,-633,-664
3556015,-1033,372,160,-311,-597,-627
3556047,-1051,338,156,-319,-589,-655
3556063,-1077,337,126,-321,-631,-691
3556080,-1037,358,156,-319,-581,-652
3556098,-1045,346,147,-320,-597,-664
3556114,-1036,347,145,-338,-588,-659
3556131,-1036,353,143,-326,-593,-670
3556148,-1007,384,156,-338,-568,-654
3556164,-1010,384,151,-331,-536,-646
3556182,-1022,378,136,-333,-570,-656
3556198,-1016,377,128,-332,-558,-661
3556214,-1009,383,105,-335,-561,-657
3556231,-1035,399,122,-336,-557,-662
3556249,-981,401,122,-336,-567,-655
3556279,-992,391,121,-333,-559,-659
3556296,-1010,352,114,-340,-575,-691
3556314,-955,379,144,-339,-520,-620
3556331,-953,356,128,-333,-525,-631
3556347,-961,341,127,-338,-499,-626
3556364,-964,304,127,-340,-510,-637
3556397,-948,295,154,-334,-487,-607
3556414,-961,272,130,-343,-512,-631
3556430,-963,264,133,-343,-500,-622
3556447,-982,235,112,-351,-526,-641
3556464,-926,256,145,-350,-464,-587
3556481,-929,261,136,-346,-443,-591
3556512,-944,245,121,-356,-413,-598
3556530,-945,272,121,-358,-412,-605
3556545,-945,249,104,-365,-411,-614
3556563,-916,282,158,-350,-367,-576
3556580,-934,267,123,-358,-396,-609
3556597,-914,299,125,-365,-372,-571
3556630,-917,278,124,-363,-408,-591
3556646,-931,297,124,-359,-400,-620
3556663,-944,273,104,-364,-444,-636
3556680,-950,272,98,-366,-442,-658
3556697,-924,290,129,-357,-412,-622
3556713,-921,276,128,-354,-404,-622
3556745,-938,279,124,-359,-414,-628
3556762,-954,279,112,-362,-408,-663
3556780,-923,303,120,-357,-386,-627
3556796,-898,328,131,-350,-358,-618
3556813,-918,306,124,-361,-378,-630
3556829,-910,333,126,-353,-356,-626
3556846,-923,318,121,-357,-370,-630
3556863,-904,322,155,-361,-357,-630
3556879,-870,322,163,-365,-350,-597
3556896,-867,330,173,-356,-338,-605
3556912,-853,325,160,-358,-316,-584
3556930,-879,273,147,-363,-345,-609
3556946,-856,305,173,-359,-297,-572
3556977,-838,301,172,-358,-304,-566
3556995,-843,296,158,-359,-300,-569
3557013,-848,289,156,-362,-322,-561
3557028,-848,275,161,-354,-303,-557
3557045,-848,270,157,-353,-303,-551
3557062,-835,275,173,-356,-291,-534
3557094,-847,266,169,-359,-311,-540
3557111,-864,269,156,-354,-320,-544
3557128,-839,296,172,-356,-300,-529
3557144,-842,299,168,-357,-299,-513
3557162,-836,304,175,-352,-272,-512
3557178,-832,311,175,-347,-284,-507
3557210,-833,292,160,-349,-246,-477
3557228,-828,313,180,-349,-242,-469
3557244,-838,297,153,-350,-252,-472
3557262,-825,280,195,-343,-241,-469
3557278,-806,308,179,-347,-219,-439
3557295,-828,291,166,-343,-244,-473
3557326,-806,323,190,-343,-239,-426
3557343,-812,287,186,-350,-248,-428
3557361,-805,305,191,-345,-221,-409
3557378,-812,289,172,-345,-240,-417
3557394,-822,296,177,-346,-224,-411
3557410,-831,286,156,-349,-239,-407
3557443,-789,341,215,-338,-206,-338
3557461,-783,319,183,-342,-230,-354
3557477,-783,323,184,-341,-245,-351
3557494,-776,336,191,-338,-207,-318
3557511,-802,321,171,-339,-253,-354
3557528,-804,312,182,-344,-251,-335
3557559,-777,354,206,-339,-216,-303
3557577,-779,357,184,-335,-248,-302
3557594,-779,342,183,-338,-255,-304
3557610,-776,367,187,-345,-246,-300
3557626,-757,373,182,-335,-225,-286
3557644,-744,390,190,-338,-215,-274
3557676,-767,379,186,-337,-232,-292
3557693,-789,350,152,-338,-258,-316
3557709,-775,373,163,-346,-213,-290
3557727,-775,380,171,-345,-226,-290
3557744,-771,399,177,-345,-210,-270
3557760,-767,391,176,-340,-212,-267
3557792,-772,389,161,-343,-212,-269
3557809,-761,390,190,-341,-208,-264
3557827,-788,387,151,-347,-222,-276
3557843,-775,409,160,-341,-205,-252
3557860,-760,413,160,-338,-222,-246
3557877,-769,415,152,-343,-240,-244
3557909,-750,441,157,-340,-246,-236
3557927,-771,425,163,-346,-243,-242
3557943,-747,440,181,-343,-219,-217
3557960,-730,460,197,-340,-217,-195
3557976,-725,496,202,-341,-189,-192
3557993,-753,478,178,-346,-239,-221
3558025,-683,556,226,-343,-182,-159
3558042,-693,542,213,-343,-181,-168
3558059,-688,562,212,-343,-163,-166
3558076,-690,539,217,-342,-160,-177
3558092,-695,537,212,-343,-152,-176
3558109,-710,536,211,-349,-153,-191
3558142,-689,568,226,-340,-133,-181
3558159,-690,561,223,-347,-124,-195
3558177,-696,525,201,-350,-127,-201
3558193,-713,540,189,-347,-128,-188
3558210,-708,590,225,-348,-113,-176
3558226,-691,570,203,-350,-122,-195
3558258,-725,559,189,-351,-123,-194
3558275,-706,566,203,-353,-115,-180
3558291,-709,560,207,-352,-128,-187
3558309,-682,593,226,-349,-67,-156
3558325,-688,586,216,-348,-66,-169
3558342,-689,598,218,-350,-64,-183
3558358,-675,594,227,-340,-63,-166
3558375,-651,616,251,-340,-40,-147
3558392,-665,600,231,-342,-82,-162
3558409,-692,592,209,-350,-102,-191
3558426,-685,626,232,-344,-64,-172
3558442,-689,601,199,-359,-101,-188
3558459,-685,625,196,-352,-32,-189
3558491,-690,628,197,-356,-79,-198
3558508,-679,628,205,-352,-96,-194
3558525,-660,653,216,-358,-67,-158
3558542,-644,660,234,-352,-68,-156
3558558,-658,651,213,-360,-95,-163
3558576,-649,640,218,-360,-59,-153
3558607,-624,638,222,-352,-45,-144
3558624,-631,638,248,-353,-24,-156
3558641,-622,631,237,-349,-36,-141
3558657,-622,631,236,-348,-60,-150
3558675,-628,640,230,-354,-53,-163
3558692,-630,645,216,-354,-61,-165
3558723,-624,644,218,-351,-47,-148
3558741,-640,622,184,-358,-95,-195
3558757,-624,657,224,-355,-46,-171
3558774,-615,661,225,-348,-33,-153
3558791,-618,667,212,-360,-35,-168
3558808,-632,661,196,-354,-37,-185
3558840,-616,672,215,-362,-8,-163
3558858,-618,686,217,-358,-15,-153
3558874,-594,694,225,-362,-15,-149
3558891,-629,689,209,-365,-38,-186
3558907,-601,690,217,-363,-31,-161
3558924,-633,686,211,-367,-27,-187
3558956,-589,706,230,-362,12,-150
3558974,-580,691,211,-370,17,-160
3558991,-585,705,250,-358,11,-159
3559008,-576,716,235,-361,26,-125
3559024,-568,731,236,-357,30,-126
3559040,-563,726,233,-362,31,-130
3559073,-536,775,270,-352,62,-99
3559091,-522,781,271,-352,91,-80
3559110,-501,791,293,-350,94,-61
3559124,-497,785,287,-354,99,-77
3559140,-522,778,271,-350,93,-88
3559157,-535,754,268,-352,67,-101
3559189,-527,785,275,-351,95,-86
3559207,-545,750,238,-354,66,-103
3559223,-472,808,300,-343,132,-40
3559240,-501,782,288,-342,115,-67
3559257,-479,800,311,-347,96,-63
3559273,-470,783,310,-341,106,-28
3559305,-478,812,309,-340,86,-37
3559322,-515,774,267,-351,45,-74
3559339,-503,798,286,-346,41,-57
3559357,-526,792,268,-361,35,-69
3559373,-531,794,268,-361,6,-69
3559389,-537,810,279,-361,2,-66
3559422,-524,832,253,-364,4,-40
3559439,-533,816,247,-355,1,-44
3559455,-538,818,233,-363,-32,-67
3559472,-535,810,244,-360,-29,-29
3559490,-531,799,244,-349,-61,-53
3559507,-555,791,252,-351,-55,-63
3559539,-565,767,246,-360,-111,-60
3559556,-563,749,233,-359,-150,-70
3559573,-563,751,244,-361,-147,-63
3559589,-567,743,230,-357,-208,-94
3559606,-601,725,227,-357,-251,-97
3559623,-593,713,242,-365,-282,-98
3559656,-604,684,248,-357,-342,-125
3559673,-600,668,242,-364,-380,-127
3559689,-626,651,241,-348,-411,-154
3559706,-621,625,243,-366,-447,-165
3559722,-637,597,232,-357,-482,-182
3559739,-645,599,240,-363,-543,-209
3559771,-655,571,235,-351,-612,-230
3559788,-668,537,240,-354,-674,-264
3559806,-658,535,239,-363,-701,-264
3559822,-659,516,249,-336,-743,-277
3559838,-692,500,225,-348,-822,-311
3559856,-687,502,241,-349,-864,-325
3559887,-706,460,218,-361,-957,-359
3559905,-685,444,268,-353,-946,-345
3559921,-648,436,234,-367,-946,-335
3559939,-681,354,233,-368,-1002,-418
3559955,-697,306,207,-395,-1070,-479
3559972,-666,283,231,-383,-1076,-463
3560003,-649,212,219,-401,-1133,-475
3560022,-615,166,213,-413,-1158,-460
3560039,-629,125,224,-393,-1191,-492
3560054,-592,126,216,-402,-1188,-476
3560071,-580,84,221,-397,-1230,-495
3560087,-526,124,241,-426,-1217,-466
3560120,-506,156,219,-489,-1291,-481
3560138,-485,175,221,-563,-1325,-493
3560154,-475,201,213,-546,-1345,-493
3560171,-439,235,215,-524,-1376,-484
3560187,-414,273,209,-527,-1400,-482
3560204,-360,273,213,-544,-1429,-461
3560237,-313,303,218,-577,-1470,-432
3560256,-264,320,221,-576,-1439,-399
3560271,-235,340,216,-594,-1451,-387
3560288,-205,339,214,-608,-1437,-387
3560304,-172,358,222,-620,-1458,-364
3560321,-141,354,213,-624,-1433,-336
3560354,-38,427,232,-657,-1422,-268
3560371,5,434,242,-672,-1404,-238
3560388,34,442,243,-685,-1392,-217
3560405,69,454,241,-681,-1364,-203
3560421,100,487,240,-710,-1359,-187
3560437,142,510,248,-704,-1332,-155
3560469,193,583,244,-726,-1278,-91
3560486,266,600,244,-733,-1248,-69
3560504,312,629,246,-747,-1219,-27
3560523,328,639,241,-759,-1177,-22
3560537,364,666,243,-759,-1143,10
3560554,398,692,218,-767,-1102,41
3560587,455,775,217,-784,-1045,82
3560603,489,824,232,-782,-1004,121
3560620,568,904,255,-772,-873,213
3560637,583,948,242,-776,-852,239
3560654,594,990,241,-821,-813,250
3560670,628,1042,241,-794,-786,278
3560702,662,1144,216,-762,-720,331
3560719,699,1250,239,-1269,-644,370
3560736,732,1309,235,-5326,-603,190
3560754,732,1341,255,-6575,-561,190
3560770,790,1415,255,-6625,-503,55
3560786,846,1478,278,-6361,-424,140
3560803,852,1513,282,-6377,-360,160
3560820,876,1556,231,-6357,-324,184
3560836,874,1584,229,-6307,-306,181
3560853,884,1624,215,-6291,-270,212
3560869,917,1663,233,-6279,-218,242
3560886,939,1718,238,-6315,-216,262
3560903,966,1769,249,-6361,-157,303
3560920,964,1794,234,-6373,-144,302
3560937,938,1815,200,-6369,-127,299
3560953,975,1856,209,-6387,-78,330
3560970,970,1895,186,-6413,-55,333
3560986,978,1924,177,-6940,-33,295
3561003,1029,1991,216,-6938,32,344
3561019,991,1985,165,-6960,30,316
3561036,1011,2010,159,-6937,62,333
3561053,1015,2024,157,-6936,79,350
3561071,1010,2049,155,-6936,157,364
3561086,1048,2084,151,-6936,172,413
3561103,1038,2098,135,-6936,192,419
3561120,997,2093,112,-6936,195,399
3561137,1024,2134,126,-6936,222,419
3561153,1030,2157,124,-6936,268,446
3561170,1042,2159,124,-6936,276,447
3561187,1016,2157,108,-6936,295,460
3561203,1004,2197,97,-6936,309,451
3561220,1019,2222,91,-6936,322,476
3561237,1028,2233,100,-6936,329,481
3561253,1006,2234,89,-6936,331,465
3561284,1020,2264,88,-6936,336,501
3561302,1032,2297,90,-6936,364,513
3561318,1043,2323,96,-6936,387,536
3561334,1034,2324,81,-6936,375,514
3561352,1049,2328,92,-6936,407,530
3561369,1054,2360,91,-6936,391,552
3561385,1067,2386,89,-6936,397,555
3561402,1068,2397,83,-6936,414,566
3561418,1108,2421,98,-6936,421,574
3561435,1110,2452,91,-6936,436,593
3561452,1131,2459,97,-6936,444,592
3561468,1148,2491,118,-6936,441,620
3561485,1175,2523,122,-6936,483,638
3561503,1163,2535,96,-6936,482,631
3561518,1202,2570,129,-6936,510,663
3561536,1213,2594,124,-6936,515,681
3561552,1230,2637,136,-6936,579,717
3561568,1252,2669,121,-6936,574,718
3561585,1245,2670,111,-6936,562,714
3561601,1300,2727,137,-6936,611,756
3561633,1312,2800,126,-6936,627,782
3561650,1320,2839,104,-6936,623,810
3561668,1317,2871,101,-6936,632,807
3561683,1351,2930,122,-6936,681,841
3561701,1352,2963,96,-6936,692,868
3561718,1396,3031,130,-6936,753,913
3561734,1404,3066,103,-6936,748,914
3561751,1389,3119,79,-6936,690,928
3561768,1420,3182,94,-6936,740,976
3561784,1427,3210,78,-6936,724,983
3561802,1434,3268,61,-6936,713,1013
3561817,1496,3352,122,-6936,791,1084
3561834,1491,3382,91,-6936,798,1082
3561852,1476,3393,58,-6936,808,1078
3561867,1472,3412,57,-6936,797,1094
3561885,1516,3472,75,-6936,879,1129
3561901,1503,3460,42,-6936,870,1142
3561918,1520,3491,36,-6936,896,1171
3561935,1513,3524,35,-6936,921,1191
3561952,1546,3578,38,-6936,983,1240
3561968,1558,3618,38,-6936,1015,1265
3561985,1606,3670,40,-6936,1085,1309
3562001,1579,3683,32,-6936,1106,1311
3562018,1608,3707,31,-6936,1134,1350
3562034,1636,3735,31,-6936,1169,1383
3562052,1660,3764,36,-6936,1233,1441
3562068,1671,3770,33,-6936,1262,1472
3562084,1686,3796,34,-6936,1294,1498
3562101,1692,3815,15,-6936,1315,1519
3562118,1715,3842,14,-6936,1393,1575
3562134,1724,3857,-2,-6936,1411,1573
3562151,1731,3896,17,-6936,1454,1629
3562168,1768,3890,24,-6936,1466,1648
3562185,1773,3910,0,-6936,1483,1674
3562215,1752,3885,-42,-6936,1498,1672
3562233,1797,3911,-29,-6936,1580,1728
3562249,1791,3919,-36,-6936,1567,1725
3562267,1819,3920,-63,-6936,1635,1758
3562283,1817,3933,-29,-6936,1676,1803
3562300,1840,3931,-64,-6936,1697,1817
3562316,1882,3956,-21,-6936,1765,1857
3562333,1850,3925,-41,-6936,1762,1845
3562349,1885,3940,-33,-6936,1821,1867
3562366,1862,3915,-57,-6936,1821,1863
3562383,1857,3905,-35,-6936,1846,1872
3562399,1877,3907,-84,-6936,1881,1887
3562416,1852,3857,-85,-6936,1889,1880
3562433,1844,3823,-100,-6936,1871,1857
3562450,1822,3802,-122,-6936,1879,1851
3562467,1818,3793,-116,-6936,1882,1852
3562484,1884,3801,-82,-6936,1949,1914
3562500,1842,3787,-128,-6936,1930,1883
3562517,1827,3732,-138,-6936,1923,1867
3562533,1827,3732,-138,-6936,1923,1867
3562550,1827,3732,-138,-6936,1923,1867
3562567,1826,3673,-123,-6936,1991,1887
3562584,1770,3618,-181,-6936,1915,1844
3562600,1800,3638,-144,-6936,1947,1868
3562617,1791,3607,-172,-6936,1929,1859
3562633,1793,3596,-156,-6936,1949,1862
3562650,1795,3580,-161,-6936,1942,1853
3562667,1787,3541,-178,-6936,1912,1851
3562684,1788,3518,-181,-6936,1910,1848
3562700,1773,3492,-175,-6936,1910,1845
3562718,1760,3456,-180,-6936,1903,1820
3562733,1764,3428,-161,-6936,1908,1822
3562750,1759,3410,-177,-6937,1891,1809
3562767,1755,3388,-163,-6928,1879,1808
3562797,1762,3360,-174,-6916,1892,1794
3562815,1754,3300,-183,-6901,1891,1768
3562831,1728,3261,-191,-6901,1855,1756
3562848,1736,3253,-180,-6881,1857,1743
3562865,1733,3251,-182,-6863,1867,1760
3562881,1769,3229,-146,-6836,1897,1761
3562898,1756,3205,-154,-6815,1881,1759
3562915,1764,3200,-149,-6778,1907,1755
3562931,1773,3164,-161,-6763,1931,1761
3562949,1758,3120,-181,-6742,1874,1729
3562965,1736,3079,-176,-6703,1864,1701
3562982,1728,3057,-165,-6677,1846,1707
3562998,1768,3068,-143,-6613,1877,1725
3563014,1727,3012,-156,-6582,1843,1686
3563031,1758,2988,-147,-6536,1824,1682
3563048,1772,3005,-119,-6441,1862,1702
3563065,1783,2954,-116,-6387,1850,1689
3563082,1787,2941,-93,-6332,1846,1705
3563098,1819,2927,-81,-6269,1839,1710
3563114,1796,2899,-66,-6236,1844,1697
3563132,1824,2899,-60,-6182,1839,1695
3563149,1799,2866,-63,-6150,1824,1692
3563166,1825,2858,-42,-6071,1848,1706
3563181,1815,2821,-53,-6032,1814,1695
3563199,1806,2782,-29,-5969,1856,1697
3563215,1819,2756,-12,-5920,1830,1690
3563232,1828,2748,4,-5852,1831,1703
3563263,1818,2684,9,-5783,1766,1678
3563280,1811,2660,34,-5731,1766,1667
3563297,1814,2627,36,-5674,1754,1667
3563313,1828,2622,66,-5607,1762,1678
3563330,1802,2540,38,-5578,1715,1662
3563347,1790,2520,73,-5512,1706,1643
3563379,1794,2477,96,-5418,1723,1646
3563397,1787,2457,83,-5384,1702,1634
3563412,1807,2458,132,-5310,1701,1663
3563430,1802,2419,129,-5278,1668,1637
3563446,1797,2402,129,-5232,1666,1637
3563463,1783,2387,168,-5148,1662,1624
3563480,1794,2356,164,-5110,1636,1630
3563496,1809,2348,197,-5054,1649,1648
3563514,1787,2294,199,-5029,1567,1608
3563530,1807,2293,231,-4960,1603,1632
3563546,1818,2292,266,-4904,1569,1634
3563563,1802,2270,266,-4872,1558,1631
3563580,1794,2240,279,-4822,1561,1624
3563612,1797,2212,332,-4690,1515,1634
3563629,1753,2154,310,-4669,1466,1591
3563645,1750,2139,323,-4634,1454,1579
3563663,1762,2117,337,-4585,1442,1576
3563680,1742,2104,357,-4531,1438,1578
3563696,1733,2052,375,-4483,1427,1577
3563713,1723,2012,365,-4425,1406,1558
3563729,1723,1972,381,-4373,1403,1548
3563746,1704,1960,411,-4325,1389,1561
3563764,1672,1921,399,-4303,1350,1525
3563779,1673,1897,416,-4212,1316,1517
3563797,1639,1844,399,-4208,1287,1498
3563814,1643,1822,411,-4048,1292,1514
3563845,1631,1779,438,-5872,1250,1302
3563862,1637,1762,473,-5605,1220,1307
3563879,1634,1726,463,-5568,1202,1346
3563895,1614,1722,495,-5688,1198,1315
3563912,1591,1667,486,-5668,1158,1306
3563929,1606,1659,507,-5597,1163,1309
3563946,1628,1665,553,-5510,1161,1341
3563963,1617,1622,561,-5454,1160,1332
3563979,1593,1573,564,-5372,1129,1314
3563996,1585,1546,598,-5289,1102,1319
3564012,1578,1501,587,-5232,1079,1311
3564030,1548,1491,603,-5164,1032,1300
3564046,1543,1452,630,-5098,1040,1287
3564063,1523,1411,610,-5047,1000,1272
3564079,1524,1403,634,-4972,1019,1289
3564096,1498,1369,619,-4900,972,1271
3564112,1504,1353,634,-4803,968,1290
3564130,1470,1308,652,-4742,917,1250
3564146,1478,1288,667,-4658,903,1257
3564163,1439,1253,681,-4604,881,1257
3564180,1418,1209,657,-4564,842,1219
3564197,1409,1176,682,-4497,832,1225
3564213,1390,1149,701,-4403,791,1206
3564230,1400,1108,719,-4336,768,1198
3564246,1367,1121,722,-4295,753,1192
3564263,1386,1104,737,-4213,741,1177
3564279,1347,1077,743,-4167,715,1160
3564296,1346,1038,749,-4105,686,1156
3564312,1319,1017,764,-4023,667,1135
3564330,1297,961,771,-3984,637,1128
3564346,1296,939,769,-3891,628,1128
3564363,1244,864,756,-3857,567,1067
3564379,1239,844,769,-3795,517,1057
3564395,1218,815,773,-3726,538,1043
3564426,1197,784,797,-3601,501,1038
3564444,1193,769,808,-3547,467,1023
3564460,1202,761,846,-3456,491,1048
3564478,1159,707,825,-3410,444,1014
3564494,1138,696,839,-3321,452,1013
3564511,1131,638,846,-3294,403,1003
3564527,1090,620,838,-3234,362,975
3564545,1073,582,841,-3155,347,953
3564561,1069,567,857,-3102,305,957
3564578,1062,563,874,-3037,311,948
3564594,1036,520,871,-2977,270,946
3564611,1010,494,871,-2923,247,921
3564627,986,459,871,-2855,212,906
3564660,972,438,879,-2723,205,906
3564677,938,390,902,-2653,143,873
3564694,902,354,897,-2620,102,863
3564711,897,341,906,-2561,91,845
3564727,886,321,904,-2524,70,842
3564744,860,285,900,-2485,53,828
3564761,829,273,893,-2434,22,825
3564777,804,259,909,-2373,-6,803
3564794,809,267,937,-2323,0,818
3564811,761,205,900,-2317,-73,760
3564827,791,217,951,-2245,-24,803
3564844,742,168,923,-2232,-74,758
3564860,754,161,950,-2171,-55,783
3564878,715,139,935,-2138,-89,741
3564893,709,120,933,-2071,-94,760
3564910,677,83,968,-2024,-140,716
3564927,693,55,937,-1984,-151,754
3564944,687,81,981,-1908,-132,747
3564960,665,60,981,-1883,-158,717
3564977,636,28,984,-1854,-201,691
3565009,621,-13,1007,-1747,-186,689
3565026,621,-29,1033,-1694,-215,686
3565043,604,-39,1029,-1674,-245,685
3565059,538,-72,993,-1663,-286,614
3565076,542,-60,1010,-1613,-297,626
3565093,529,-88,992,-1568,-323,595
3565109,530,-92,1012,-1526,-318,605
3565126,499,-114,1007,-1497,-346,591
3565143,495,-137,1021,-1435,-365,559
3565159,507,-126,1028,-1407,-365,584
3565176,467,-161,1034,-1369,-426,555
3565193,458,-171,1030,-1338,-467,530
3565209,456,-180,1048,-1306,-474,543
3565226,439,-198,1045,-1265,-505,514
3565242,400,-223,1019,-1248,-534,493
3565259,407,-234,1046,-1183,-530,507
3565276,373,-249,1035,-1151,-571,469
3565293,381,-241,1068,-1088,-546,477
3565310,384,-242,1050,-1078,-599,468
3565326,349,-259,1053,-1031,-600,443
3565357,306,-274,1034,-977,-642,404
3565374,356,-248,1090,-901,-631,450
3565392,324,-271,1083,-870,-640,423
3565408,296,-290,1068,-874,-686,390
3565426,267,-324,1040,-857,-715,358
3565442,245,-320,1069,-818,-743,343
3565474,245,-350,1069,-753,-751,331
3565492,205,-367,1068,-742,-771,299
3565507,197,-391,1072,-699,-782,301
3565525,193,-380,1077,-672,-791,281
3565542,150,-428,1062,-660,-831,239
3565559,161,-393,1077,-602,-812,258
3565576,136,-445,1065,-598,-855,219
3565592,132,-443,1073,-558,-870,202
3565608,101,-451,1061,-554,-905,179
3565625,113,-446,1071,-523,-921,196
3565642,130,-426,1104,-475,-862,219
3565658,117,-451,1091,-447,-896,211
3565675,122,-442,1097,-414,-892,190
3565691,96,-446,1103,-402,-919,190
3565708,70,-475,1072,-388,-937,160
3565725,33,-469,1071,-371,-939,146
3565742,65,-471,1091,-333,-943,147
3565758,63,-465,1104,-293,-945,148
3565775,65,-474,1104,-276,-932,141
3565792,40,-480,1101,-277,-976,115
3565823,34,-468,1131,-220,-963,119
3565840,48,-470,1135,-186,-958,109
3565857,40,-466,1135,-159,-932,112
3565873,44,-473,1159,-119,-918,127
3565891,36,-500,1157,-112,-933,119
3565908,35,-502,1158,-88,-962,109
3565924,5,-518,1140,-91,-996,86
3565941,-3,-544,1144,-61,-999,76
3565958,0,-572,1131,-54,-1010,98
3565974,-34,-568,1124,-57,-1038,55
3565991,-67,-603,1098,-49,-1055,17
3566008,-55,-564,1139,3,-1031,58
3566024,-69,-600,1122,-1,-1063,36
3566056,-96,-596,1128,19,-1086,24
3566074,-89,-589,1131,33,-1094,14
3566091,-93,-602,1095,22,-1110,-3
3566108,-92,-592,1127,62,-1102,2
3566124,-112,-603,1121,58,-1145,-5
3566140,-93,-596,1141,86,-1119,2
3566157,-155,-603,1107,52,-1153,-44
3566174,-124,-592,1147,92,-1128,-26
3566190,-126,-603,1150,120,-1125,-27
3566207,-122,-600,1142,129,-1133,-35
3566224,-134,-623,1137,145,-1132,-61
3566240,-130,-603,1165,160,-1137,-56
3566257,-119,-596,1165,177,-1168,-38
3566274,-153,-626,1143,176,-1177,-88
3566291,-168,-626,1143,174,-1204,-100
3566308,-185,-630,1131,180,-1204,-108
3566324,-183,-627,1129,192,-1198,-116
3566341,-189,-655,1131,217,-1216,-123
3566357,-210,-658,1130,220,-1195,-140
3566374,-210,-662,1121,217,-1234,-163
3566405,-228,-660,1122,242,-1242,-176
3566422,-251,-655,1098,247,-1285,-199
3566439,-235,-654,1127,295,-1255,-183
3566456,-250,-659,1106,294,-1267,-205
3566472,-247,-665,1119,320,-1256,-196
3566489,-214,-632,1150,368,-1237,-177
3566507,-259,-648,1120,345,-1285,-210
3566523,-228,-619,1139,392,-1230,-176
3566540,-248,-618,1131,386,-1248,-186
3566557,-243,-620,1130,389,-1253,-184
3566574,-254,-624,1128,395,-1273,-198
3566590,-272,-639,1119,408,-1292,-209
3566607,-276,-649,1129,413,-1261,-212
3566637,-254,-632,1137,440,-1285,-206
3566654,-244,-613,1136,439,-1281,-177
3566672,-266,-604,1128,439,-1293,-203
3566688,-263,-595,1123,457,-1260,-189
3566704,-281,-612,1101,452,-1283,-203
3566721,-292,-597,1097,456,-1277,-191
3566755,-303,-597,1103,481,-1318,-204
3566772,-304,-598,1090,456,-1324,-217
3566788,-286,-544,1131,505,-1296,-192
3566805,-307,-539,1104,484,-1332,-221
3566822,-294,-531,1106,501,-1329,-205
3566838,-295,-504,1106,509,-1317,-201
3566871,-294,-480,1126,534,-1325,-187
3566888,-258,-439,1171,578,-1280,-161
3566905,-267,-484,1149,570,-1293,-154
3566922,-259,-454,1166,595,-1308,-154
3566938,-281,-478,1149,588,-1320,-187
3566955,-323,-482,1125,561,-1385,-208
3566971,-321,-500,1124,570,-1347,-211
3566989,-304,-480,1138,597,-1344,-190
3567005,-328,-494,1125,599,-1336,-219
3567022,-300,-487,1135,597,-1317,-184
3567039,-335,-507,1107,592,-1338,-217
3567054,-310,-503,1136,606,-1306,-192
3567071,-326,-474,1125,602,-1309,-202
3567103,-353,-465,1098,596,-1317,-217
3567121,-331,-446,1103,618,-1286,-216
3567138,-350,-469,1108,638,-1306,-223
3567155,-361,-479,1096,624,-1285,-229
3567171,-336,-474,1097,626,-1316,-241
3567188,-330,-458,1103,632,-1297,-222
3567205,-355,-447,1100,631,-1331,-238
3567221,-338,-444,1116,650,-1315,-223
3567238,-335,-437,1111,657,-1313,-213
3567254,-370,-448,1095,621,-1325,-252
3567271,-339,-435,1103,652,-1310,-237
3567288,-336,-415,1103,671,-1285,-226
3567304,-347,-419,1109,680,-1318,-224
3567322,-360,-418,1097,661,-1311,-243
3567339,-351,-417,1102,665,-1282,-214
3567354,-329,-399,1110,693,-1278,-214
3567371,-359,-401,1098,652,-1312,-239
3567388,-351,-411,1103,672,-1302,-236
3567404,-364,-415,1097,682,-1308,-237
3567422,-342,-382,1118,697,-1252,-202
3567453,-328,-362,1115,706,-1251,-197
3567469,-350,-384,1102,698,-1285,-206
3567487,-378,-389,1062,670,-1274,-229
3567504,-349,-367,1102,689,-1256,-194
3567520,-327,-323,1105,714,-1213,-179
3567537,-379,-379,1061,670,-1257,-215
3567570,-382,-352,1049,677,-1254,-233
3567587,-376,-299,1067,687,-1252,-214
3567604,-400,-323,1036,664,-1261,-235
3567620,-394,-292,1049,689,-1256,-217
3567640,-420,-313,1070,693,-1262,-248
3567653,-380,-285,1076,696,-1243,-211
3567685,-417,-276,999,655,-1258,-253
3567703,-438,-238,1055,704,-1201,-214
3567719,-370,-221,1067,714,-1165,-199
3567737,-378,-214,1049,719,-1195,-212
3567753,-372,-202,1039,713,-1168,-203
3567770,-349,-183,1078,748,-1161,-178
3567801,-374,-187,1069,747,-1169,-207
3567819,-369,-151,1047,718,-1159,-204
3567836,-396,-147,1042,719,-1187,-230
3567852,-422,-163,1028,713,-1204,-251
3567870,-378,-90,1043,731,-1146,-203
3567886,-405,-124,1007,713,-1169,-231
3567918,-388,-92,1012,724,-1140,-218
3567935,-360,-80,1041,727,-1091,-193
3567952,-365,-72,1033,726,-1093,-193
3567969,-328,-20,1054,756,-1027,-154
3567985,-300,-5,1072,769,-999,-121
3568003,-292,33,1069,766,-988,-106
3568035,-291,39,1068,782,-961,-86
3568052,-293,33,1040,761,-960,-97
3568068,-312,5,1036,761,-981,-108
3568085,-282,22,1040,771,-936,-84
3568103,-284,25,1045,778,-942,-91
3568119,-318,-12,1035,753,-948,-131
3568151,-351,-20,1002,736,-988,-160
3568169,-351,-19,997,720,-969,-163
3568185,-337,-12,1015,748,-959,-150
3568202,-353,-17,995,735,-977,-162
3568218,-380,-30,992,719,-984,-184
3568235,-385,-32,979,721,-991,-203
3568267,-398,-52,968,710,-1001,-226
3568285,-417,-59,943,701,-1022,-255
3568302,-418,-26,950,699,-975,-241
3568319,-398,4,948,694,-978,-222
3568335,-421,2,954,712,-1000,-256
3568352,-408,11,950,718,-952,-239
3568384,-429,23,929,690,-972,-268
3568402,-423,62,941,685,-949,-262
3568418,-445,53,917,682,-968,-283
3568435,-408,103,953,707,-920,-253
3568452,-425,94,929,692,-939,-272
3568468,-444,89,920,687,-945,-289
3568500,-444,93,916,691,-913,-274
3568517,-446,100,910,689,-904,-294
3568534,-460,90,902,685,-919,-301
3568551,-471,98,907,686,-910,-297
3568568,-462,95,904,677,-912,-308
3568585,-440,100,878,662,-869,-286
3568616,-449,74,896,686,-880,-307
3568633,-455,92,896,683,-870,-299
3568650,-476,64,883,666,-885,-325
3568667,-458,78,887,672,-873,-325
3568684,-440,95,899,686,-863,-302
3568700,-487,80,861,655,-900,-343
3568733,-498,62,868,656,-905,-358
3568750,-480,72,891,666,-862,-330
3568766,-492,74,877,670,-863,-333
3568784,-483,85,880,683,-865,-330
3568801,-493,85,868,661,-850,-348
3568817,-482,91,877,664,-874,-350
3568849,-532,67,835,623,-889,-375
3568866,-512,97,860,644,-873,-362
3568883,-530,126,842,637,-843,-364
3568900,-518,116,850,632,-838,-364
3568917,-505,155,853,635,-822,-356
3568934,-550,112,813,618,-860,-405
3568966,-500,154,841,650,-825,-352
3568983,-499,157,841,653,-805,-339
3569000,-507,188,857,660,-818,-347
3569017,-515,188,833,623,-841,-360
3569033,-506,195,837,637,-814,-344
3569053,-506,218,847,662,-803,-346
3569082,-546,186,797,606,-856,-404
3569098,-506,195,828,628,-816,-362
3569116,-522,174,816,627,-823,-375
3569133,-538,170,843,643,-784,-379
3569150,-525,149,817,621,-810,-373
3569166,-507,126,835,635,-779,-362
3569199,-503,106,814,620,-747,-366
3569216,-525,100,810,619,-751,-381
3569233,-513,100,835,638,-749,-395
3569249,-491,109,820,625,-718,-355
3569267,-476,140,846,659,-713,-348
3569283,-479,143,835,652,-703,-354
3569314,-482,180,828,648,-696,-348
3569331,-478,198,824,647,-703,-348
3569348,-469,213,843,664,-667,-337
3569366,-480,212,833,655,-687,-357
3569382,-476,214,826,658,-672,-357
3569399,-470,230,834,660,-653,-333
3569431,-472,220,813,650,-653,-352
3569448,-484,213,811,651,-663,-351
3569465,-495,180,789,631,-662,-382
3569482,-503,190,782,626,-663,-386
3569499,-489,182,783,629,-655,-390
3569515,-503,185,784,627,-645,-391
3569547,-496,184,785,627,-632,-400
3569565,-510,185,777,618,-652,-422
3569582,-478,184,796,624,-628,-411
3569598,-470,205,811,647,-626,-398
3569615,-479,191,786,623,-629,-414
3569632,-471,197,790,633,-608,-411
3569664,-477,212,775,625,-569,-421
3569682,-498,204,773,619,-595,-446
3569698,-498,211,779,628,-592,-441
3569714,-471,229,783,627,-588,-436
3569732,-514,206,769,618,-592,-472
3569748,-501,188,765,596,-591,-468
3569781,-516,172,756,597,-597,-487
3569797,-537,184,754,597,-581,-476
3569814,-509,208,751,603,-565,-482
3569831,-510,215,757,603,-571,-475
3569848,-543,200,727,590,-582,-511
3569865,-542,175,721,580,-574,-503
3569897,-533,187,724,577,-558,-499
3569914,-537,197,717,564,-573,-500
3569933,-558,196,698,548,-570,-506
3569947,-566,205,694,537,-568,-527
3569965,-568,217,697,560,-570,-503
3569981,-576,183,684,528,-575,-525
3570013,-563,236,691,546,-550,-503
3570030,-548,250,709,571,-531,-470
3570048,-577,231,688,549,-550,-499
3570064,-568,224,686,539,-550,-500
3570080,-588,233,666,534,-553,-506
3570097,-592,234,663,534,-556,-507
3570130,-598,235,655,525,-563,-511
3570148,-591,240,663,541,-531,-499
3570164,-606,206,647,520,-578,-515
3570181,-595,237,658,541,-533,-503
3570197,-600,247,650,530,-531,-505
3570214,-591,262,656,558,-502,-475
3570246,-583,291,662,563,-501,-473
3570264,-627,266,616,527,-543,-512
3570279,-619,276,628,541,-535,-508
3570297,-636,275,623,535,-567,-514
3570314,-619,298,619,556,-540,-501
3570330,-613,310,622,550,-547,-488
3570362,-597,354,634,567,-537,-454
3570379,-600,357,625,563,-529,-456
3570397,-617,349,618,561,-532,-457
3570414,-590,377,629,562,-483,-432
3570430,-605,349,593,560,-517,-463
3570447,-610,340,602,562,-506,-465
3570481,-636,327,591,544,-512,-471
3570495,-626,346,600,545,-487,-454
3570513,-649,324,571,530,-495,-476
3570530,-644,326,572,533,-471,-464
3570546,-631,354,589,539,-466,-447
3570563,-657,328,561,532,-479,-471
3570595,-628,343,566,531,-457,-434
3570612,-628,333,566,510,-468,-449
3570630,-632,351,563,506,-478,-441
3570646,-655,374,562,500,-456,-442
3570662,-642,375,560,490,-450,-431
3570680,-631,378,552,510,-430,-417
3570712,-646,367,534,476,-439,-421
3570729,-660,359,538,496,-442,-428
3570746,-654,372,563,510,-440,-413
3570763,-632,368,564,511,-444,-395
3570779,-627,386,572,530,-409,-379
3570796,-631,384,568,524,-413,-379
3570828,-645,384,532,509,-404,-366
3570845,-661,384,541,508,-418,-382
3570862,-664,360,529,506,-425,-384
3570879,-648,388,540,515,-406,-351
3570896,-671,355,533,498,-418,-386
3570912,-669,372,531,499,-411,-371
3570944,-656,355,530,501,-407,-343
3570962,-666,348,509,497,-396,-343
3570979,-662,338,505,497,-408,-340
3570995,-655,350,515,503,-361,-327
3571012,-661,358,518,501,-358,-307
3571029,-649,371,511,502,-353,-302
3571060,-652,379,516,496,-338,-290
3571078,-657,385,533,500,-329,-287
3571094,-656,339,497,479,-361,-288
3571112,-682,338,489,479,-380,-317
3571128,-661,330,504,481,-335,-292
3571146,-695,317,475,472,-357,-315
3571177,-678,347,476,470,-351,-291
3571194,-664,350,475,473,-365,-274
3571212,-682,351,484,477,-341,-279
3571227,-679,347,473,459,-375,-281
3571245,-662,376,469,454,-350,-259
3571262,-680,382,488,475,-336,-250
3571294,-654,383,482,490,-339,-235
3571311,-655,387,502,499,-320,-234
3571328,-621,413,505,509,-317,-205
3571344,-649,396,498,490,-335,-231
3571361,-630,394,499,504,-318,-216
3571378,-630,398,504,511,-320,-208
3571410,-661,370,476,499,-352,-246
3571427,-642,384,480,517,-338,-236
3571445,-626,385,496,536,-306,-216
3571461,-632,389,484,527,-308,-236
3571477,-628,390,473,532,-297,-222
3571494,-604,420,509,554,-269,-202
3571526,-621,410,480,545,-256,-191
3571543,-626,409,487,563,-248,-197
3571559,-597,415,497,564,-252,-182
3571577,-628,407,484,562,-273,-214
3571593,-628,368,471,541,-294,-220
3571610,-593,413,510,573,-227,-185
3571644,-628,378,453,527,-272,-214
3571660,-623,407,476,547,-243,-183
3571677,-614,405,461,533,-258,-203
3571694,-596,411,471,550,-242,-178
3571710,-598,406,479,553,-240,-174
3571727,-602,400,481,563,-240,-175
3571759,-566,442,506,593,-206,-152
3571777,-593,414,498,569,-190,-146
3571793,-556,427,505,572,-185,-131
3571810,-597,408,473,541,-207,-161
3571827,-558,443,504,574,-163,-122
3571843,-572,407,486,563,-169,-125
3571861,-565,424,501,567,-147,-116
3571877,-561,415,474,561,-162,-123
3571894,-573,410,471,552,-175,-127
3571912,-565,414,481,574,-150,-122
3571942,-564,427,471,508,-166,-129
3571959,-567,423,475,465,-154,-128
3571975,-586,402,438,334,-192,-150
3571992,-589,419,451,281,-178,-141
3572009,-603,410,439,235,-192,-157
3572026,-592,417,443,209,-187,-136
3572043,-590,424,478,225,-155,-111
3572060,-564,416,479,215,-186,-116
3572076,-557,437,479,219,-145,-94
3572093,-560,439,475,209,-185,-119
3572109,-565,441,467,208,-183,-118
3572126,-559,457,471,214,-185,-114
3572143,-573,463,477,215,-180,-120
3572160,-558,470,462,214,-209,-86
3572176,-578,449,442,200,-205,-129
3572194,-561,465,443,209,-194,-119
3572210,-600,455,437,195,-190,-129
3572226,-572,457,439,189,-202,-132
3572243,-603,448,424,181,-217,-152
3572260,-581,447,416,194,-199,-122
3572276,-569,469,427,214,-185,-119
3572293,-603,434,404,179,-214,-159
3572309,-599,449,411,190,-186,-137
3572326,-568,475,429,209,-183,-127
3572344,-565,491,448,228,-148,-92
3572360,-556,481,446,236,-156,-99
3572377,-564,469,451,245,-156,-98
3572393,-531,490,437,241,-154,-89
3572410,-578,469,440,242,-160,-118
3572426,-565,470,430,240,-177,-115
3572443,-530,509,451,271,-145,-78
3572460,-571,474,425,244,-183,-114
3572476,-561,478,424,260,-186,-112
3572493,-564,463,420,261,-183,-101
3572510,-567,440,444,276,-179,-116
3572526,-560,443,434,275,-184,-91
3572543,-564,467,437,287,-177,-90
3572573,-538,466,445,327,-180,-63
3572590,-539,467,440,325,-191,-69
3572607,-519,488,447,352,-190,-55
3572624,-509,504,450,352,-184,-55
3572642,-504,528,473,358,-157,-30
3572658,-542,493,443,359,-203,-71
3572675,-527,505,436,371,-188,-34
3572691,-513,513,442,387,-186,-35
3572709,-531,505,443,382,-179,-61
3572726,-521,505,452,391,-180,-33
3572741,-532,500,450,382,-197,-63
3572758,-535,491,433,384,-198,-58
3572775,-534,499,439,386,-188,-39
3572792,-531,475,419,395,-198,-65
3572809,-524,505,456,429,-145,-42
3572825,-503,495,468,427,-176,-34
3572841,-505,505,441,430,-148,-33
3572861,-508,490,441,422,-188,-40
3572875,-504,496,447,446,-147,-31
3572892,-510,483,442,439,-165,-40
3572909,-501,481,441,447,-152,-33
3572926,-530,462,435,423,-191,-64
3572942,-520,495,450,450,-176,-35
3572958,-510,479,445,454,-164,-34
3572975,-496,511,444,472,-162,-10
3572992,-514,499,440,477,-160,-14
3573008,-486,519,445,486,-146,8
3573025,-508,498,441,464,-205,-23
3573042,-511,512,441,470,-179,-28
3573059,-525,501,413,470,-194,-33
3573075,-500,519,427,480,-191,-26
3573091,-534,507,417,481,-222,-35
3573108,-538,503,408,472,-231,-36
3573126,-539,516,408,466,-228,-49
3573156,-557,511,388,473,-220,-42
3573174,-528,541,404,478,-202,-25
3573189,-542,536,395,480,-222,-32
3573207,-539,545,386,481,-190,-29
3573223,-539,560,400,492,-180,-23
3573240,-539,555,374,472,-199,-39
3573257,-513,576,413,498,-157,1
3573273,-523,589,403,498,-198,-11
3573290,-539,569,382,473,-185,-31
3573307,-561,543,383,474,-217,-36
3573323,-536,566,367,465,-184,-33
3573340,-554,530,391,476,-206,-38
3573356,-561,541,385,475,-202,-30
3573373,-565,549,370,453,-197,-48
3573390,-592,555,346,443,-219,-62
3573406,-556,591,367,466,-207,-33
3573423,-558,595,351,454,-218,-60
3573440,-564,591,353,468,-242,-34
3573457,-560,593,369,469,-213,-33
3573473,-560,598,347,441,-227,-27
3573491,-563,604,335,445,-232,-34
3573508,-595,588,308,413,-249,-61
3573523,-587,600,322,438,-254,-59
3573539,-594,596,317,426,-244,-64
3573556,-556,633,341,447,-215,-32
3573573,-563,635,350,442,-210,-27
3573590,-563,632,335,417,-222,-35
3573607,-570,599,320,431,-213,-34
3573624,-561,628,353,448,-211,1
3573640,-568,624,329,435,-183,-22
3573657,-607,588,316,387,-255,-60
3573674,-582,630,323,391,-211,-33
3573690,-563,628,323,409,-196,-12
3573707,-561,636,327,407,-224,1
3573724,-566,663,339,419,-200,1
3573740,-567,658,330,411,-220,-21
3573757,-564,657,324,397,-217,-8
3573774,-543,693,341,411,-210,9
3573790,-529,697,354,412,-199,31
3573807,-528,699,348,411,-199,11
3573823,-560,704,332,396,-218,-5
3573854,-526,741,361,436,-177,29
3573871,-521,723,343,420,-204,29
3573887,-536,716,335,423,-198,-6
3573905,-520,729,342,420,-192,19
3573921,-534,737,325,415,-184,5
3573939,-543,718,312,395,-223,-3
3573955,-565,721,319,406,-221,-7
3573971,-553,742,321,407,-212,-3
3573989,-536,751,347,424,-195,-2
3574005,-523,781,354,440,-155,37
3574022,-529,761,337,424,-183,8
3574039,-533,780,341,444,-185,10
3574055,-550,762,315,621,-200,-2
3574071,-569,753,304,611,-216,-6
3574088,-554,754,310,618,-201,-6
3574105,-533,767,324,625,-175,32
3574122,-538,771,320,623,-205,4
3574138,-553,773,321,626,-194,4
3574156,-553,760,324,629,-211,3
3574171,-571,745,300,600,-220,-26
3574189,-567,748,307,618,-217,-14
3574205,-561,767,308,658,-219,-19
3574221,-555,782,315,735,-237,5
3574238,-574,777,307,767,-238,-15
3574255,-539,806,326,799,-221,5
3574272,-580,798,295,775,-251,-10
3574289,-536,814,320,815,-204,24
3574319,-560,794,293,853,-210,0
3574337,-563,777,287,887,-207,8
3574354,-560,797,291,909,-211,23
3574371,-566,793,272,909,-216,15
3574387,-566,795,284,905,-222,20
3574405,-543,794,307,919,-199,32
3574436,-529,813,314,941,-204,45
3574454,-532,825,317,937,-204,60
3574470,-523,816,323,950,-196,71
3574487,-532,814,298,930,-218,51
3574503,-518,825,305,930,-195,63
3574520,-497,852,328,947,-174,76
3574537,-482,833,324,940,-176,95
3574554,-457,862,356,966,-159,128
3574572,-480,835,325,943,-176,93
3574588,-472,839,330,951,-153,111
3574604,-477,832,333,959,-161,113
3574621,-450,838,331,959,-156,129
3574637,-475,838,345,985,-161,101
3574654,-453,838,323,975,-160,97
3574671,-465,858,338,931,-150,119
3574688,-473,869,338,947,-145,122
3574705,-445,892,357,957,-112,150
3574721,-481,884,333,937,-127,124
3574738,-462,907,340,954,-108,139
3574754,-486,865,303,905,-149,99
3574771,-496,868,301,917,-140,96
3574788,-496,896,317,934,-124,96
3574804,-504,869,286,907,-155,86
3574822,-480,898,323,932,-138,91
3574838,-496,887,315,928,-161,79
3574855,-513,869,303,898,-180,62
3574872,-508,902,322,905,-161,66
3574888,-500,907,319,905,-149,91
3574918,-506,893,320,911,-124,88
3574936,-505,904,309,914,-120,87
3574953,-489,897,324,922,-128,92
3574969,-501,883,321,922,-120,71
3574986,-503,872,318,915,-129,65
3575003,-535,855,301,800,-129,27
3575020,-525,868,302,712,-129,33
3575036,-511,876,308,730,-117,35
3575053,-541,878,308,740,-126,31
3575070,-499,887,309,741,-121,36
3575086,-511,880,308,724,-119,31
3575102,-509,888,308,720,-120,38
3575119,-501,898,309,639,-116,39
3575136,-504,886,312,629,-117,42
3575153,-510,866,310,639,-153,27
3575169,-515,855,317,649,-152,22
3575186,-491,872,352,688,-102,63
3575203,-513,838,308,656,-142,19
3575220,-515,844,308,661,-109,26
3575236,-509,840,300,679,-116,30
3575252,-504,841,322,682,-91,31
3575269,-535,833,300,659,-117,24
3575286,-504,835,346,697,-89,35
3575303,-494,841,315,681,-86,64
3575319,-509,841,324,686,-52,47
3575336,-485,840,325,689,-67,48
3575353,-506,837,302,677,-67,31
3575384,-510,822,320,679,-70,34
3575400,-502,828,306,656,-60,31
3575418,-510,819,307,657,-77,31
3575435,-510,825,310,653,-63,21
3575451,-499,826,294,654,-66,35
3575468,-518,818,322,658,-78,31
3575501,-531,772,296,635,-100,5
3575518,-533,748,292,636,-88,0
3575535,-534,744,292,651,-92,-3
3575552,-541,761,274,624,-108,-13
3575568,-562,762,267,626,-116,-31
3575585,-528,770,299,662,-84,8
3575602,-549,748,287,648,-106,-16
3575617,-542,709,295,647,-105,-10
3575635,-534,720,309,686,-85,0
3575651,-539,722,284,649,-92,-24
3575668,-528,748,309,659,-91,5
3575685,-547,740,315,665,-104,-14
3575701,-511,775,298,663,-52,35
3575733,-536,775,294,634,-89,4
3575751,-515,783,324,616,-83,30
3575766,-521,782,321,612,-63,30
3575784,-537,779,301,588,-103,-5
3575801,-530,788,309,605,-99,4
3575817,-529,784,316,629,-120,4
3575850,-515,785,320,631,-90,30
3575867,-526,783,313,619,-102,12
3575884,-540,759,294,595,-120,2
3575901,-543,772,282,591,-139,-16
3575917,-530,780,307,599,-121,4
3575934,-531,776,318,622,-117,9
3575966,-536,754,305,630,-126,11
3575983,-512,785,328,566,-87,33
3576000,-530,776,311,518,-125,5
3576017,-505,776,333,536,-109,30
3576034,-497,814,344,547,-107,41
3576050,-505,806,336,536,-112,25
3576066,-499,811,341,536,-126,40
3576083,-533,782,335,523,-157,-7
3576100,-492,830,356,565,-124,46
3576116,-515,807,325,523,-147,25
3576134,-522,803,324,535,-141,28
3576150,-514,803,336,554,-148,24
3576167,-471,842,357,605,-118,65
3576199,-493,818,345,589,-143,43
3576217,-484,809,378,618,-152,52
3576233,-438,820,372,643,-146,94
3576250,-483,808,351,679,-151,53
3576266,-471,810,367,735,-157,60
3576283,-440,834,388,763,-144,78
3576299,-469,809,361,743,-158,63
3576316,-438,840,376,755,-146,68
3576333,-458,827,354,760,-152,60
3576349,-445,836,372,796,-157,59
3576366,-427,830,376,789,-157,74
3576383,-448,818,366,774,-190,61
3576399,-404,846,412,802,-151,94
3576432,-415,815,369,774,-175,88
3576448,-435,805,383,875,-179,53
3576469,-435,805,383,875,-179,68
3576486,-408,811,391,964,-160,88
3576503,-426,788,385,967,-179,63
3576519,-454,775,373,944,-205,58
3576547,-441,751,376,941,-195,64
3576565,-436,754,374,915,-179,56
3576583,-436,754,374,915,-179,56
3576600,-436,754,374,915,-179,56
3576617,-436,754,374,915,-179,56
3576633,-436,754,374,915,-179,56
3576664,-409,780,382,848,-206,62
3576681,-409,778,382,853,-207,61
3576698,-401,780,387,981,-214,73
3576714,-404,774,384,984,-194,62
3576732,-383,790,383,1031,-203,69
3576749,-380,802,406,1077,-185,87
3576780,-360,812,413,1078,-209,98
3576798,-358,825,420,1188,-177,121
3576814,-383,808,386,1516,-217,101
3576832,-383,810,387,1906,-230,122
3576848,-371,816,386,2000,-213,135
3576865,-386,817,384,2081,-214,143
3576897,-375,827,389,2068,-212,144
3576914,-387,833,377,2064,-229,128
3576930,-355,846,415,2118,-210,161
3576948,-357,847,394,2138,-214,156
3576964,-352,854,407,2480,-212,183
3576981,-382,808,376,2102,-240,135
3577014,-341,835,419,1790,-198,149
3577031,-331,847,397,1624,-178,151
3577047,-351,832,383,1501,-211,123
3577064,-353,842,390,1451,-176,123
3577081,-349,844,390,1418,-185,116
3577098,-378,838,378,1342,-225,87
3577115,-363,841,380,1320,-211,92
3577131,-353,865,400,1311,-215,103
3577148,-330,875,413,1297,-182,129
3577165,-353,868,383,1277,-219,97
3577182,-341,872,412,1282,-177,128
3577199,-366,851,383,1248,-216,82
3577216,-340,869,410,1262,-182,108
3577246,-324,870,416,1256,-164,113
3577264,-327,868,419,1252,-169,99
3577280,-312,872,432,1249,-138,124
3577297,-314,875,421,1254,-161,108
3577314,-352,855,401,1231,-170,90
3577331,-332,865,410,1244,-155,90
3577347,-359,851,379,1207,-177,79
3577365,-364,852,378,1187,-191,50
3577381,-332,867,384,1195,-155,89
3577398,-342,871,391,1189,-155,79
3577414,-345,863,380,1185,-191,66
3577431,-345,847,385,1160,-182,61
3577447,-355,836,381,1158,-203,36
3577479,-337,838,405,1164,-162,55
3577497,-356,827,385,1126,-192,26
3577513,-346,819,371,1105,-174,36
3577531,-383,813,370,1106,-175,25
3577546,-374,798,344,1064,-183,11
3577563,-377,790,359,1074,-173,6
3577579,-372,800,370,1078,-182,23
3577596,-352,801,384,1079,-150,31
3577613,-351,798,389,1075,-126,35
3577630,-356,798,381,1051,-162,23
3577646,-365,780,379,1042,-120,27
3577663,-360,793,381,1012,-129,34
3577680,-364,797,391,1038,-121,20
3577711,-376,794,364,1012,-139,23
3577729,-349,820,392,1015,-114,38
3577746,-366,807,375,1005,-130,28
3577763,-369,782,366,992,-155,28
3577779,-376,783,355,985,-160,-3
3577796,-357,776,386,1028,-125,28
3577828,-381,784,353,1001,-144,21
3577845,-382,771,353,990,-141,21
3577862,-379,762,359,1007,-154,26
3577879,-382,755,361,1042,-168,16
3577896,-395,745,359,1063,-186,8
3577914,-377,748,370,1098,-162,20
3577944,-389,744,357,1092,-161,0
3577962,-382,751,376,1184,-146,35
3577979,-380,755,364,1337,-137,29
3577994,-379,766,376,1419,-119,52
3578012,-354,777,382,1392,-115,66
3578029,-392,743,352,1412,-136,40
3578061,-395,742,343,1433,-147,56
3578078,-428,724,323,1441,-164,27
3578095,-419,753,362,1492,-117,44
3578112,-419,729,326,1454,-158,38
3578128,-368,760,374,1489,-106,101
3578145,-401,744,344,1443,-161,62
3578177,-419,713,330,1410,-127,56
3578195,-416,711,326,1404,-130,53
3578211,-392,717,350,1394,-80,94
3578228,-430,691,337,1368,-120,54
3578245,-441,683,330,1357,-112,37
3578261,-419,682,331,1351,-98,64
3578294,-434,666,317,1348,-123,64
3578311,-441,664,305,1341,-129,56
3578328,-438,674,305,1344,-90,58
3578345,-422,665,326,1351,-72,70
3578362,-424,686,309,1349,-90,55
3578378,-401,700,312,1356,-51,69
3578394,-435,665,289,1368,-72,50
3578411,-407,694,317,1345,-53,71
3578427,-416,674,304,1357,-64,58
3578445,-432,669,307,1349,-61,46
3578461,-447,654,283,1253,-71,24
3578478,-436,692,311,1263,-44,31
3578495,-427,678,304,1259,-36,31
3578527,-399,686,322,1201,-30,46
3578544,-409,690,325,1239,-28,62
3578561,-416,688,330,1287,-29,28
3578578,-439,649,326,1300,-29,23
3578594,-437,656,324,1320,-20,25
3578611,-441,624,318,1329,-19,-4
3578642,-452,630,312,1314,-24,-27
3578660,-424,633,311,1344,-27,-29
3578677,-442,624,295,1320,-26,-35
3578694,-444,623,308,1317,-31,-44
3578709,-442,623,306,1306,-30,-38
3578727,-473,594,289,1269,-55,-69
3578759,-467,601,306,1290,-49,-64
3578777,-442,632,321,1320,-23,-55
3578794,-474,620,301,1310,-77,-68
3578810,-465,625,302,1293,-43,-66
3578827,-476,625,304,1263,-60,-83
3578844,-475,630,291,1228,-62,-85
3578875,-510,628,268,1236,-99,-100
3578893,-504,648,269,1256,-61,-88
3578909,-502,655,275,1253,-36,-87
3578926,-504,656,272,1251,-53,-90
3578943,-507,660,267,1263,-40,-85
3578960,-501,663,273,1293,-53,-79
3578992,-532,637,248,1270,-94,-117
3579009,-503,632,270,1287,-68,-86
3579026,-535,592,244,1281,-96,-111
3579042,-524,602,264,1284,-93,-91
3579060,-528,624,263,1295,-54,-89
3579076,-547,592,239,1288,-116,-117
3579108,-529,594,274,1350,-70,-65
3579126,-515,569,270,1358,-89,-69
3579142,-506,591,277,1376,-81,-55
3579158,-500,568,282,1391,-96,-25
3579176,-502,588,286,1396,-105,-23
3579192,-532,557,259,1371,-162,-53
3579225,-515,560,281,1309,-159,-21
3579242,-501,576,305,1284,-139,5
3579259,-511,564,293,1274,-159,1
3579275,-495,570,306,1287,-159,21
3579293,-505,558,286,1247,-188,6
3579309,-499,545,306,1258,-181,33
3579341,-474,537,307,1287,-154,64
3579358,-501,530,290,1250,-216,25
3579376,-466,537,318,1288,-179,71
3579392,-474,536,312,1275,-200,65
3579409,-507,532,304,1252,-230,67
3579425,-477,521,318,1261,-220,66
3579457,-470,498,334,1314,-211,90
3579474,-453,502,340,1322,-219,107
3579491,-449,501,353,1347,-215,118
3579509,-441,481,350,1371,-231,128
3579525,-442,474,368,1413,-220,146
3579542,-417,456,338,1405,-233,150
3579574,-412,474,360,1408,-210,187
3579590,-408,499,375,1401,-243,191
3579608,-375,504,388,1426,-235,213
3579625,-414,489,371,1404,-253,179
3579642,-424,471,369,1420,-250,174
3579658,-373,519,393,1460,-239,216
3579691,-336,559,411,1475,-240,242
3579708,-360,573,381,1439,-249,212
3579725,-342,596,388,1444,-242,240
3579742,-344,588,387,1403,-277,209
3579758,-319,598,417,1425,-249,247
3579775,-322,594,436,1442,-256,229
3579807,-293,593,428,1436,-247,234
3579823,-277,597,441,1439,-263,232
3579841,-290,593,425,1422,-258,210
3579858,-275,621,442,1435,-233,214
3579874,-270,624,434,1431,-230,213
3579891,-251,625,445,1431,-242,210
3579923,-238,654,461,1438,-232,196
3579941,-214,660,477,1442,-238,199
3579957,-205,693,479,1442,-233,187
3579974,-201,687,477,1433,-248,183
3579991,-177,715,481,1453,-213,192
3580007,-206,683,469,1437,-240,164
3580040,-181,724,471,1404,-218,151
3580057,-172,692,474,1410,-206,154
3580073,-173,692,471,1406,-212,123
3580090,-164,684,465,1385,-224,110
3580107,-180,682,448,1371,-254,88
3580124,-143,702,480,1392,-222,108
3580156,-142,657,473,1376,-212,90
3580173,-157,656,464,1358,-220,83
3580190,-131,690,470,1354,-209,86
3580207,-113,689,483,1371,-178,95
3580223,-97,708,487,1372,-165,93
3580240,-100,693,483,1349,-174,96
3580272,-127,715,463,1318,-189,60
3580289,-114,754,477,1326,-177,67
3580306,-125,740,465,1308,-205,37
3580323,-112,769,471,1316,-203,68
3580340,-94,785,479,1324,-189,58
3580356,-119,787,475,1289,-200,35
3580389,-127,795,449,1245,-223,14
3580406,-131,784,440,1247,-235,8
3580423,-117,808,473,1261,-193,35
3580440,-108,816,472,1257,-186,34
3580456,-89,845,480,1223,-147,59
3580473,-96,834,471,1190,-162,52
3580505,-71,839,500,1181,-140,69
3580522,-95,822,464,1132,-158,42
3580538,-98,826,470,1141,-145,46
3580556,-56,848,488,1155,-116,67
3580573,-84,842,479,1134,-124,68
3580589,-79,848,474,1123,-160,61
3580621,-91,847,472,1081,-157,53
3580639,-84,876,486,1066,-145,58
3580656,-88,871,482,1037,-151,57
3580672,-85,875,474,1039,-143,61
3580689,-80,892,457,1019,-124,62
3580706,-99,906,471,1011,-130,42
3580737,-46,958,492,1034,-82,88
3580755,-99,909,431,960,-138,25
3580772,-98,917,438,936,-124,27
3580789,-89,931,448,955,-113,59
3580805,-92,924,442,931,-124,32
3580822,-109,897,443,930,-152,32
3580854,-92,919,443,913,-117,58
3580872,-85,920,447,919,-114,60
3580888,-91,905,441,920,-93,63
3580904,-93,898,443,909,-99,65
3580921,-87,896,445,904,-115,71
3580938,-110,883,418,871,-127,60
3580970,-128,887,405,838,-132,37
3580987,-104,905,435,828,-88,72
3581005,-113,899,421,776,-94,64
3581021,-125,887,421,766,-119,62
3581038,-121,899,412,729,-97,62
3581054,-111,925,426,714,-110,68
3581087,-131,884,408,679,-120,60
3581105,-128,918,396,667,-117,64
3581121,-139,916,411,679,-119,78
3581138,-159,920,382,648,-134,66
3581154,-143,938,409,623,-144,92
3581171,-158,940,395,622,-120,83
3581203,-145,946,414,628,-146,91
3581221,-128,949,408,625,-153,103
3581238,-130,979,419,635,-138,107
3581254,-163,941,400,618,-159,89
3581272,-146,965,409,623,-129,101
3581287,-159,945,393,600,-160,87
3581320,-177,946,378,587,-170,55
3581337,-143,977,412,606,-122,64
3581354,-157,952,397,602,-134,55
3581371,-151,928,413,624,-119,60
3581387,-157,928,391,603,-144,51
3581404,-177,934,383,599,-151,33
3581436,-189,934,372,564,-177,35
3581454,-201,935,379,563,-151,45
3581470,-185,928,359,547,-156,56
3581486,-203,919,361,539,-157,37
3581504,-203,928,342,527,-147,48
3581520,-192,949,367,540,-147,67
3581553,-199,955,361,536,-148,62
3581570,-216,938,354,530,-174,60
3581587,-217,939,365,532,-169,64
3581604,-216,944,365,532,-156,62
3581621,-209,943,374,542,-160,59
3581636,-204,925,363,528,-163,68
3581668,-159,974,403,569,-98,106
3581686,-190,968,375,540,-119,98
3581702,-219,944,359,530,-153,61
3581719,-209,950,378,544,-153,79
3581737,-233,914,362,531,-184,48
3581753,-206,931,367,532,-171,66
3581785,-231,907,364,539,-180,75
3581803,-220,928,369,540,-196,83
3581819,-188,942,393,567,-146,123
3581836,-212,928,378,558,-163,115
3581853,-217,907,365,533,-157,102
3581869,-209,927,378,543,-144,119
3581901,-231,919,369,538,-167,104
3581919,-246,911,367,521,-189,83
3581935,-245,897,363,528,-187,119
3581952,-242,923,378,540,-175,123
3581969,-238,910,379,538,-182,130
3581986,-249,919,361,537,-183,124
3582018,-269,900,346,534,-213,118
3582036,-239,940,362,542,-187,146
3582052,-260,920,353,541,-198,138
3582069,-263,928,352,533,-188,150
3582086,-245,929,365,548,-173,169
3582102,-248,933,374,569,-161,170
3582134,-250,924,362,542,-165,174
3582151,-284,891,345,529,-201,149
3582168,-255,915,369,541,-181,181
3582186,-271,922,359,533,-187,165
3582202,-278,904,371,540,-185,169
3582219,-280,901,370,537,-188,155
3582251,-274,895,380,538,-183,160
3582267,-294,868,371,528,-220,147
3582284,-289,906,376,544,-199,158
3582302,-311,879,348,505,-229,131
3582318,-328,864,343,502,-227,113
3582335,-321,870,347,502,-218,116
3582367,-335,866,349,504,-223,113
3582384,-342,868,346,509,-231,115
3582401,-307,895,371,543,-209,135
3582418,-344,862,358,510,-231,99
3582434,-359,856,347,492,-240,89
3582451,-355,843,344,501,-237,82
3582483,-365,836,331,487,-254,56
3582500,-350,851,342,475,-242,77
3582517,-357,850,336,472,-232,64
3582535,-371,838,320,467,-245,58
3582551,-357,861,358,505,-193,98
3582568,-343,873,351,503,-185,91
3582600,-362,847,327,475,-206,62
3582617,-350,863,338,485,-189,87
3582633,-332,871,369,509,-176,100
3582651,-361,834,346,478,-224,77
3582669,-333,855,364,502,-178,94
3582685,-321,880,368,510,-149,122
3582716,-339,868,368,498,-190,115
3582734,-342,888,357,504,-156,125
3582750,-353,865,349,478,-169,119
3582767,-354,869,353,491,-168,122
3582784,-368,839,347,490,-191,119
3582801,-342,877,369,501,-176,163
3582832,-382,842,334,470,-234,126
3582850,-383,851,352,473,-202,129
3582866,-375,871,345,482,-184,154
3582884,-377,866,344,473,-156,151
3582900,-350,874,352,499,-151,180
3582917,-370,869,346,492,-128,163
3582933,-366,876,358,503,-143,173
3582951,-347,882,367,511,-125,200
3582967,-372,864,352,504,-153,172
3582983,-345,873,388,511,-124,203
3583000,-369,844,371,505,-129,184
3583017,-366,857,367,503,-129,197
3583034,-341,876,386,514,-120,219
3583050,-366,850,372,505,-136,211
3583067,-350,864,386,531,-128,231
3583083,-350,841,357,501,-139,242
3583099,-390,821,351,503,-153,215
3583117,-386,842,354,501,-150,235
3583133,-389,839,349,489,-162,217
3583150,-381,842,357,508,-143,245
3583167,-384,838,356,479,-155,231
3583183,-382,839,372,501,-145,251
3583200,-382,831,354,492,-158,227
3583217,-416,817,340,473,-179,213
3583233,-406,824,349,456,-179,216
3583250,-395,820,352,474,-156,217
3583266,-398,827,364,468,-153,219
3583284,-393,832,359,468,-128,222
3583300,-393,834,358,467,-134,212
3583317,-413,833,337,442,-152,181
3583333,-405,834,335,447,-141,184
3583350,-413,837,338,441,-152,178
3583367,-392,847,359,474,-119,210
3583384,-407,814,353,477,-146,203
3583400,-416,806,350,474,-147,184
3583417,-403,810,362,484,-126,183
3583434,-405,805,364,499,-121,187
3583450,-388,832,366,487,-118,183
3583466,-420,803,353,474,-154,164
3583483,-423,797,353,476,-119,182
3583500,-419,795,351,480,-142,180
3583532,-413,807,353,500,-157,170
3583549,-408,815,368,504,-124,160
3583566,-404,800,357,499,-156,154
3583583,-392,803,365,500,-133,151
3583599,-405,801,359,502,-154,122
3583615,-432,784,337,480,-165,94
3583632,-413,813,355,505,-143,104
3583649,-417,807,364,484,-157,97
3583665,-416,799,368,498,-133,99
3583682,-393,800,392,514,-138,126
3583698,-396,791,390,515,-139,116
3583716,-396,779,378,499,-134,110
3583732,-403,769,374,511,-121,107
3583765,-421,768,362,479,-154,92
3583782,-381,780,394,502,-86,133
3583798,-416,747,370,466,-119,100
3583815,-403,756,372,447,-129,91
3583832,-410,771,383,455,-112,119
3583848,-416,763,387,467,-125,95
3583865,-381,782,401,470,-124,131
3583881,-388,775,391,447,-136,121
3583898,-386,786,382,461,-132,123
3583915,-371,787,406,479,-106,148
3583931,-415,770,366,459,-140,109
3583949,-380,786,401,479,-123,132
3583966,-421,774,369,473,-142,99
3583982,-408,794,384,495,-124,120
3583999,-393,803,389,471,-144,121
3584016,-418,777,371,459,-161,87
3584033,-414,777,375,474,-159,96
3584048,-437,779,348,441,-154,88
3584066,-414,782,375,471,-159,102
3584082,-399,816,386,496,-114,129
3584099,-402,808,360,483,-119,125
3584115,-444,795,354,485,-148,81
3584132,-416,809,380,501,-120,120
3584149,-415,815,370,502,-122,123
3584165,-416,808,354,480,-118,114
3584182,-421,811,352,485,-120,120
3584199,-416,805,360,488,-119,117
3584216,-412,818,381,504,-111,123
3584233,-405,803,357,477,-119,124
3584248,-412,833,370,489,-110,122
3584266,-412,839,372,500,-127,125
3584283,-413,842,367,494,-126,117
3584299,-404,838,362,505,-90,124
3584315,-380,842,378,529,-67,145
3584333,-388,846,388,509,-65,145
3584349,-367,863,386,499,-68,155
3584365,-380,877,395,506,-33,145
3584381,-374,851,377,490,-59,148
3584399,-382,861,385,484,-54,133
3584416,-421,832,366,462,-95,98
3584433,-382,863,390,473,-69,118
3584462,-382,858,385,463,-58,125
3584480,-368,865,399,455,-43,153
3584496,-370,876,399,451,-37,153
3584512,-381,864,393,441,-42,157
3584530,-393,880,383,430,-30,143
3584547,-377,903,381,436,-42,170
3584563,-377,888,403,448,-26,185
3584580,-378,879,402,442,-32,181
3584597,-396,863,383,441,-39,160
3584613,-418,843,368,408,-71,153
3584630,-391,866,375,434,-60,186
3584646,-394,860,380,440,-40,180
3584663,-415,841,375,428,-74,165
3584681,-376,874,387,447,-59,188
3584697,-411,838,356,421,-64,173
3584716,-412,863,381,454,-54,163
3584730,-382,873,379,462,-25,199
3584747,-414,851,363,445,-38,187
3584763,-394,873,358,440,-36,206
3584780,-422,853,374,446,-92,177
3584797,-420,846,349,427,-75,165
3584813,-402,877,378,422,-55,190
3584831,-424,853,362,354,-77,180
3584847,-430,859,352,351,-92,177
3584864,-424,860,354,348,-94,177
3584880,-407,875,367,376,-55,197
3584897,-423,841,345,353,-64,178
3584914,-436,859,352,363,-58,187
3584930,-395,868,367,372,-70,188
3584947,-423,851,353,367,-82,178
3584963,-435,856,342,367,-58,180
3584981,-407,866,370,403,-47,203
3584997,-411,860,371,403,-28,192
3585013,-410,873,395,423,-36,190
3585030,-389,867,384,441,-7,209
3585047,-407,868,383,413,-34,187
3585063,-416,859,357,405,-40,183
3585080,-377,896,396,446,10,223
3585098,-403,874,371,413,-37,185
3585114,-397,876,366,421,-26,186
3585131,-412,885,390,433,-43,176
3585161,-400,891,374,402,-22,184
3585178,-369,926,398,412,32,220
3585195,-393,870,376,399,-27,190
3585211,-355,901,419,441,37,222
3585228,-398,864,377,404,-7,181
3585245,-364,876,409,433,14,200
3585261,-385,869,395,411,-7,185
3585278,-380,875,412,435,-1,194
3585295,-371,873,394,426,-2,195
3585312,-392,843,387,421,1,159
3585329,-388,840,381,431,5,158
3585344,-385,856,400,453,3,166
3585361,-382,853,390,453,-19,153
3585378,-379,856,403,464,-19,157
3585395,-379,856,397,466,-33,156
3585411,-400,836,395,457,-65,143
3585428,-363,866,388,476,-33,174
3585445,-390,859,410,482,-46,153
3585461,-380,863,390,492,-69,164
3585478,-383,866,397,483,-61,176
3585494,-362,870,398,504,-30,183
3585511,-376,876,397,498,-51,181
3585528,-358,889,392,503,-27,188
3585544,-385,874,389,488,-69,180
3585561,-378,872,368,464,-70,160
3585578,-385,876,408,508,-51,165
3585594,-375,875,380,481,-64,178
3585612,-364,861,394,502,-56,184
3585627,-366,853,393,503,-52,190
3585644,-364,860,391,490,-64,186
3585661,-365,867,405,490,-56,198
3585677,-379,846,359,474,-83,173
3585695,-411,843,371,464,-82,151
3585711,-371,843,370,473,-84,164
3585728,-368,836,388,488,-51,157
3585744,-366,819,386,484,-66,160
3585761,-389,804,360,467,-97,130
3585778,-366,819,394,484,-43,165
3585795,-388,833,372,468,-89,143
3585811,-377,816,377,483,-88,151
3585828,-390,824,386,494,-89,139
3585859,-379,840,395,506,-98,135
3585876,-372,827,385,500,-102,121
3585892,-376,836,388,505,-98,123
3585910,-358,842,399,514,-74,127
3585927,-384,834,394,519,-97,118
3585943,-376,831,403,512,-90,112
3585960,-400,817,390,497,-142,77
3585977,-397,803,381,470,-101,85
3585993,-399,795,371,471,-118,78
3586009,-384,815,382,474,-85,95
3586027,-396,776,366,465,-92,91
3586043,-380,787,368,514,-91,97
3586060,-383,789,379,506,-74,108
3586077,-363,799,387,534,-58,126
3586093,-374,792,375,502,-57,123
3586110,-370,779,378,509,-60,123
3586126,-366,776,377,505,-86,118
3586144,-363,778,381,508,-83,123
3586161,-368,762,378,488,-66,98
3586177,-361,773,388,473,-52,125
3586194,-351,779,383,477,-43,123
3586211,-368,752,376,464,-58,125
3586227,-386,746,357,431,-70,90
3586244,-394,752,354,402,-68,78
3586260,-400,735,359,393,-84,76
3586277,-417,717,340,381,-88,64
3586294,-396,728,358,405,-60,84
3586310,-409,717,352,406,-103,66
3586327,-398,718,363,413,-67,91
3586343,-388,722,380,419,-65,94
3586360,-383,744,378,412,-62,93
3586377,-366,737,381,399,-38,115
3586394,-382,746,373,380,-70,95
3586411,-382,737,368,385,-59,101
3586427,-396,721,358,374,-60,91
3586444,-381,726,359,385,-47,96
3586460,-413,695,352,366,-61,86
3586477,-382,704,374,360,-34,104
3586494,-364,710,381,359,-31,120
3586510,-363,693,387,362,-36,120
3586527,-385,689,362,320,-33,113
3586543,-362,697,368,334,-29,119
3586561,-372,695,365,338,-32,108
3586577,-372,691,355,339,-34,105
3586594,-381,662,348,354,-39,79
3586610,-362,702,367,375,-26,131
3586627,-390,686,348,370,-70,86
3586644,-367,693,360,380,-56,122
3586673,-386,692,352,410,-65,91
3586690,-380,691,369,429,-67,113
3586708,-370,694,367,436,-61,110
3586724,-384,700,364,437,-76,106
3586741,-380,699,362,433,-57,97
3586758,-417,682,332,408,-97,71
3586790,-412,718,355,446,-36,92
3586806,-386,699,362,450,-20,116
3586823,-390,686,357,449,-66,122
3586840,-416,671,346,435,-73,88
3586858,-376,668,360,446,-66,125
3586875,-402,647,367,474,-91,113
3586906,-378,661,354,449,-8,147
3586924,-382,674,372,475,-40,144
3586940,-391,683,366,464,-37,144
3586957,-357,685,390,503,2,166
3586974,-396,647,365,445,-48,124
3586990,-372,663,368,469,-26,157
3587022,-348,699,406,486,4,191
3587040,-362,691,388,478,3,174
3587056,-362,718,389,479,-6,182
3587073,-363,699,389,470,-13,176
3587091,-402,692,355,440,-37,135
3587107,-384,697,371,450,-5,166
3587124,-359,725,389,474,-3,183
3587141,-371,716,378,474,4,169
3587157,-372,723,382,473,0,186
3587173,-363,739,390,491,13,181
3587191,-350,726,378,468,-1,193
3587208,-361,720,378,473,0,185
3587225,-347,732,383,481,9,190
3587256,-379,721,362,441,-2,167
3587273,-370,726,369,440,-6,172
3587290,-368,724,367,434,-28,169
3587307,-390,713,368,416,-25,153
3587323,-330,754,399,477,45,215
3587340,-334,748,384,450,32,206
3587358,-358,748,364,438,19,182
3587373,-324,762,389,469,65,227
3587390,-327,767,383,455,52,218
3587407,-324,756,391,474,63,224
3587423,-335,778,387,470,40,218
3587440,-309,792,399,481,53,246
3587456,-317,788,386,474,46,233
3587473,-297,800,409,502,30,246
3587491,-307,809,403,500,59,250
3587507,-300,810,405,504,25,242
3587523,-309,785,400,504,43,242
3587540,-310,806,380,470,42,244
3587557,-325,812,383,471,34,221
3587574,-321,816,381,473,60,228
3587604,-320,813,383,477,69,228
3587621,-333,809,368,471,58,216
3587638,-323,811,386,479,30,218
3587655,-326,815,385,476,34,218
3587672,-323,826,401,477,41,235
3587689,-298,843,414,474,69,263
3587721,-313,819,390,429,60,233
3587739,-352,805,367,400,30,204
3587755,-355,794,348,391,13,190
3587772,-343,791,371,396,23,202
3587789,-328,811,386,420,25,218
3587806,-339,797,377,404,-5,192
3587838,-350,796,385,418,2,197
3587855,-361,776,356,396,-4,177
3587872,-361,784,367,415,-25,184
3587889,-378,780,350,379,-33,156
3587905,-368,780,353,386,-33,162
3587922,-361,790,358,398,-29,161
3587955,-367,786,336,395,-2,175
3587972,-359,818,353,413,-7,184
3587988,-376,792,331,402,-12,165
3588004,-374,797,338,413,-33,182
3588022,-389,796,332,401,-25,171
3588039,-374,815,339,412,-25,184
3588071,-408,788,317,387,-37,155
3588088,-408,789,324,410,-40,167
3588105,-412,789,322,413,-30,166
3588121,-415,773,318,397,-69,157
3588138,-406,788,332,416,-51,189
3588155,-383,812,349,420,-53,191
3588171,-392,811,352,435,-31,199
3588188,-399,810,334,416,-49,198
3588205,-397,807,331,417,-54,197
3588221,-417,786,317,432,-59,183
3588238,-409,788,331,436,-39,204
3588255,-426,791,306,410,-77,174
3588271,-407,794,327,442,-53,194
3588303,-433,782,315,437,-90,169
3588320,-429,775,322,436,-93,160
3588337,-414,805,320,453,-89,189
3588353,-429,774,304,440,-96,178
3588371,-409,794,322,465,-60,187
3588388,-445,776,294,440,-68,170
3588404,-439,755,293,439,-72,156
3588422,-446,760,290,445,-90,154
3588439,-446,773,295,440,-90,153
3588454,-422,775,301,446,-55,168
3588471,-446,759,289,426,-57,152
3588487,-445,755,285,443,-58,151
3588505,-443,776,292,441,-66,157
3588536,-441,777,290,438,-63,153
3588553,-443,778,290,437,-75,145
3588569,-447,760,290,434,-64,143
3588587,-446,779,298,448,-57,148
3588604,-440,774,305,446,-60,154
3588620,-440,773,296,427,-68,160
3588652,-431,777,300,419,-51,168
3588669,-416,788,303,423,-43,185
3588687,-427,786,304,414,-36,183
3588704,-415,800,298,409,-37,180
3588720,-433,791,287,390,-34,182
3588736,-423,774,313,419,-36,181
3588769,-403,790,328,421,-3,204
3588786,-422,772,302,406,-39,180
3588803,-387,781,336,440,7,218
3588820,-404,785,326,426,-2,207
3588837,-449,740,283,380,-32,175
3588853,-436,754,293,385,-28,185
3588885,-426,754,304,405,-24,192
3588902,-417,751,302,397,-33,185
3588919,-445,722,297,385,-38,187
3588936,-405,757,319,426,7,217
3588953,-413,744,319,410,-7,215
3588969,-419,729,302,418,1,215
3589001,-441,715,297,416,-28,204
3589018,-429,713,313,440,-5,216
3589035,-399,719,327,468,1,238
3589051,-415,716,320,457,10,218
3589069,-447,694,287,438,-7,197
3589085,-429,693,306,474,9,216
3589118,-443,686,294,475,15,200
3589136,-442,689,289,464,-27,181
3589151,-451,695,291,468,-33,183
3589168,-456,686,293,480,-30,182
3589185,-437,695,309,481,-22,199
3589202,-442,679,293,450,-31,177
3589234,-421,691,314,398,1,193
3589252,-423,694,303,398,-18,197
3589267,-442,685,306,377,-41,184
3589285,-431,694,316,386,3,192
3589302,-440,698,296,376,-19,180
3589317,-428,715,311,390,-28,204
3589335,-416,719,305,402,-5,210
3589352,-414,730,319,415,-3,216
3589369,-418,722,297,397,-17,200
3589385,-437,733,314,412,-24,208
3589402,-410,741,323,407,-11,210
3589418,-404,723,328,409,1,217
3589436,-409,724,329,394,-16,206
3589467,-440,710,303,321,-52,138
3589484,-422,710,327,337,-18,154
3589502,-418,717,306,317,-26,151
3589517,-441,690,304,326,-28,125
3589535,-440,691,312,346,-33,124
3589551,-434,693,308,356,-59,124
3589583,-430,705,316,378,-37,128
3589601,-436,706,304,381,-31,117
3589618,-434,703,316,410,-29,127
3589635,-431,708,292,393,-44,115
3589651,-447,693,305,419,-35,117
3589668,-473,700,286,405,-36,89
3589699,-478,716,290,440,-37,120
3589717,-469,712,283,441,-39,98
3589734,-440,734,300,472,-26,131
3589752,-465,716,281,461,-39,99
3589768,-417,755,328,506,-14,149
3589784,-427,750,300,493,-8,139
3589816,-432,735,294,489,-26,145
3589834,-450,728,308,487,-37,117
3589849,-433,754,308,515,-8,146
3589866,-453,741,288,496,-9,119
3589884,-434,760,301,506,9,133
3589901,-454,742,294,465,-31,111
3589933,-445,755,308,476,4,128
3589950,-442,755,303,471,-6,147
3589967,-443,753,300,458,-30,128
3589984,-453,741,301,469,-32,123
3590000,-483,710,271,446,-41,87
3590017,-445,740,309,479,-19,132
3590049,-440,743,294,487,-3,146
3590066,-449,741,304,489,6,152
3590083,-463,742,298,472,-19,134
3590100,-431,771,310,481,7,172
3590116,-453,748,296,466,-11,143
3590133,-437,758,313,483,4,160
3590165,-447,755,310,473,-14,152
3590183,-452,753,304,472,-26,157
3590200,-453,757,308,474,-19,156
3590216,-440,785,319,484,5,179
3590233,-447,777,309,479,6,178
3590250,-437,783,315,499,19,185
3590282,-455,751,301,470,-2,163
3590299,-441,763,322,476,-3,181
3590317,-447,764,312,474,-30,166
3590332,-450,757,312,471,-5,162
3590350,-457,750,310,464,-21,151
3590366,-463,745,303,459,-39,143
3590398,-444,754,310,471,-1,159
3590415,-446,749,306,445,-1,157
3590433,-446,754,322,469,5,175
3590449,-442,756,317,472,0,174
3590466,-438,786,339,482,7,187
3590482,-430,777,329,473,-4,169
3590514,-447,757,321,479,1,169
3590531,-461,744,317,471,-4,154
3590549,-461,753,312,471,1,157
3590565,-439,749,325,475,13,182
3590582,-443,752,323,482,40,181
3590599,-432,776,339,489,31,188
3590631,-444,771,332,474,4,163
3590648,-468,742,308,444,-26,130
3590665,-468,756,314,440,-11,150
3590681,-459,767,322,470,26,150
3590698,-462,773,321,474,33,154
3590715,-456,780,340,478,30,151
3590748,-456,777,324,470,9,126
3590765,-458,779,332,474,28,124
3590782,-447,801,320,466,31,135
3590798,-447,809,324,464,25,133
3590816,-465,806,317,448,-3,116
3590832,-462,786,319,461,2,112
3590863,-448,810,333,466,14,119
3590880,-433,815,348,477,21,132
3590897,-435,824,334,464,4,125
3590915,-435,823,336,474,1,124
3590931,-427,812,336,474,-7,118
3590948,-438,813,332,472,-36,116
3590979,-417,840,351,504,-3,126
3590996,-414,843,342,501,-22,124
3591013,-446,842,334,493,-20,111
3591031,-443,843,334,490,-19,117
3591048,-446,839,350,501,-6,102
3591064,-447,836,344,498,-30,93
3591096,-445,819,348,505,-4,113
3591114,-443,808,337,476,-27,86
3591131,-482,810,320,466,-51,51
3591147,-472,815,331,479,-37,69
3591164,-476,806,322,462,-42,57
3591181,-444,830,342,507,6,97
3591213,-444,817,347,482,-26,76
3591230,-439,844,351,508,2,91
3591247,-425,839,344,482,-3,97
3591264,-466,811,319,470,-37,57
3591280,-466,817,324,468,-30,53
3591297,-466,818,339,477,-27,64
3591329,-507,806,292,435,-72,2
3591347,-473,810,320,441,-25,28
3591363,-461,835,323,468,-23,42
3591380,-453,827,327,470,-28,48
3591396,-445,825,329,467,-24,29
3591414,-444,830,334,472,-20,34
3591446,-452,814,323,448,-37,26
3591463,-445,837,336,473,-4,40
3591480,-448,814,315,451,-15,27
3591497,-473,805,302,445,-20,32
3591513,-455,840,324,451,-30,54
3591530,-450,819,317,446,-26,52
3591563,-442,835,335,452,-37,66
3591580,-453,826,327,449,-65,50
3591597,-408,853,358,485,-23,108
3591614,-436,825,334,470,-57,70
3591630,-422,831,336,475,-24,100
3591647,-415,819,337,470,-29,94
3591678,-443,828,319,449,-35,85
3591695,-429,828,318,452,-35,94
3591713,-413,840,323,477,-24,109
3591729,-419,838,318,458,-43,107
3591746,-433,838,304,452,-36,91
3591763,-432,861,307,473,-39,103
3591795,-430,841,302,469,-53,94
3591815,-445,838,302,435,-74,82
3591829,-416,873,323,464,-69,102
3591846,-391,880,347,486,-38,133
3591862,-413,870,322,462,-68,107
3591879,-410,873,322,455,-49,110
3591911,-410,860,304,445,-49,115
3591929,-414,841,308,463,-59,118
3591944,-418,831,303,450,-70,92
3591962,-418,823,307,473,-73,106
3591978,-404,830,326,493,-56,122
3591996,-395,813,321,483,-55,123
3592028,-397,811,316,476,-59,126
3592045,-418,809,298,463,-97,88
3592061,-404,840,323,481,-68,111
3592079,-406,838,303,482,-56,113
3592095,-411,828,308,487,-53,111
3592112,-421,813,292,474,-64,95
3592144,-397,835,312,477,-62,119
3592162,-395,822,305,485,-67,120
3592178,-388,843,345,517,-37,128
3592195,-399,838,318,499,-42,113
3592212,-421,825,304,482,-53,101
3592228,-415,841,307,484,-66,94
3592260,-396,869,328,507,-55,107
3592278,-416,856,307,488,-65,92
3592294,-419,856,309,480,-80,87
3592311,-394,877,321,505,-60,103
3592328,-387,889,326,502,-63,97
3592345,-384,898,335,509,-62,95
3592376,-430,871,299,471,-100,49
3592393,-416,874,309,492,-85,62
3592410,-427,873,291,464,-94,41
3592428,-410,893,327,510,-55,63
3592445,-398,885,303,501,-56,65
3592461,-408,892,299,493,-60,63
3592493,-422,883,286,469,-95,26
3592510,-393,911,325,506,-70,55
3592526,-423,879,295,468,-102,16
3592543,-416,893,310,481,-83,29
3592560,-406,888,324,510,-90,24
3592577,-398,882,326,509,-72,28
3592610,-394,894,324,503,-65,31
3592627,-409,892,315,505,-65,13
3592644,-431,873,291,475,-91,-10
3592661,-436,858,297,481,-87,-9
3592677,-417,867,309,505,-56,5
3592694,-406,872,304,484,-63,9
3592726,-397,872,306,478,-41,19
3592743,-417,862,294,478,-38,9
3592760,-395,875,307,497,-29,23
3592777,-394,889,308,489,-33,26
3592794,-387,875,304,483,-6,33
3592810,-404,870,297,473,-42,29
3592842,-386,889,316,490,-35,40
3592858,-397,866,294,470,-42,26
3592876,-403,856,290,472,-51,29
3592893,-418,840,273,460,-57,25
3592910,-416,842,276,452,-63,30
3592927,-406,837,305,484,-66,42
3592958,-394,840,296,474,-24,82
3592976,-401,840,289,475,-27,90
3592992,-410,826,286,468,-28,94
3593009,-382,868,307,495,-15,121
3593026,-396,835,301,498,-14,121
3593043,-410,827,295,471,-22,92
3593075,-391,823,311,485,9,129
3593093,-422,805,285,456,-33,95
3593109,-413,809,274,464,-24,105
3593126,-417,825,289,469,-24,110
3593143,-409,824,292,471,-26,112
3593160,-416,809,277,446,-27,107
3593191,-434,796,277,439,-2,91
3593208,-429,779,272,439,-36,90
3593228,-413,784,273,434,-5,108
3593242,-400,810,297,463,2,123
3593259,-416,785,288,445,-10,112
3593275,-371,832,327,494,63,170
3593308,-357,828,333,508,71,190
3593326,-318,845,370,545,100,204
3593342,-332,839,344,522,82,205
3593358,-342,820,351,513,71,196
3593375,-355,814,327,500,42,159
3593391,-359,827,343,502,60,174
3593424,-376,788,327,503,46,159
3593441,-358,791,355,505,53,160
3593459,-365,798,348,500,69,162
3593475,-362,772,361,528,74,168
3593491,-352,796,362,510,86,181
3593509,-362,777,349,508,73,166
3593541,-352,785,351,508,93,171
3593558,-368,753,349,494,64,152
3593575,-331,790,362,516,130,188
3593592,-351,768,361,507,79,162
3593608,-361,758,348,495,77,153
3593624,-352,776,358,508,103,164
3593656,-361,752,350,505,89,141
3593674,-362,765,353,502,102,148
3593691,-350,766,369,513,94,134
3593708,-367,781,360,505,94,129
3593725,-361,757,358,505,93,132
3593741,-350,777,356,500,109,130
3593775,-378,722,353,488,78,92
3593791,-411,697,337,475,60,74
3593808,-375,717,370,510,105,99
3593824,-398,689,341,473,66,68
3593841,-426,679,332,461,50,35
3593858,-400,695,353,478,88,51
3593874,-408,712,369,495,92,50
3593891,-381,694,371,502,100,64
3593909,-379,686,372,505,114,62
3593924,-379,703,359,491,91,50
3593941,-444,688,317,425,8,-22
3593958,-423,710,330,441,-4,-10
3593975,-414,724,348,465,20,-6
3593991,-412,722,348,446,10,3
3594008,-406,721,348,447,20,0
3594025,-399,724,354,456,30,4
3594041,-408,719,339,441,5,-2
3594058,-434,688,318,423,-5,-30
3594075,-427,717,327,439,15,0
3594091,-409,722,334,450,29,1
3594108,-417,714,335,462,6,16
3594125,-397,722,343,460,10,26
3594141,-384,722,355,486,32,42
3594158,-386,715,365,499,11,43
3594176,-391,720,362,500,12,52
3594191,-404,715,346,468,-38,24
3594208,-387,723,361,505,3,55
3594224,-387,725,350,478,-10,54
3594242,-383,716,365,504,-19,64
3594258,-387,698,349,478,-26,60
3594276,-372,719,382,512,-29,82
3594292,-388,682,357,482,-34,57
3594309,-393,678,355,480,-35,65
3594325,-381,693,356,494,-28,65
3594341,-424,684,334,466,-56,45
3594358,-407,689,342,464,-55,61
3594374,-423,697,357,471,-37,43
3594392,-399,700,346,474,-36,70
3594408,-372,713,363,488,-13,85
3594425,-369,714,367,502,-1,88
3594442,-362,722,369,485,-28,95
3594472,-337,722,388,499,-2,101
3594489,-377,679,351,461,-35,64
3594506,-348,703,365,469,-17,97
3594523,-356,715,379,482,-27,90
3594539,-360,701,365,470,-30,86
3594556,-361,705,364,463,-38,77
3594572,-380,711,347,444,-51,61
3594589,-371,715,350,504,-33,67
3594606,-377,716,349,589,-37,62
3594623,-362,726,348,492,-29,85
3594640,-355,724,361,496,-23,92
3594655,-354,718,353,499,-24,95
3594673,-355,719,352,497,-4,95
3594690,-350,727,348,502,2,101
3594706,-350,741,352,507,30,122
3594722,-334,752,353,527,30,122
3594739,-341,752,357,526,14,102
3594756,-360,745,346,506,-11,92
3594773,-343,730,354,510,-2,101
3594789,-360,717,353,507,-6,89
3594807,-371,712,353,499,-10,87
3594822,-355,720,354,500,0,92
3594839,-352,720,363,504,2,91
3594855,-349,724,365,504,-9,92
3594872,-337,722,369,508,27,92
3594889,-351,723,358,502,-2,90
3594906,-355,726,357,500,-2,62
3594937,-367,730,350,504,-30,62
3594954,-361,716,349,505,-59,67
3594971,-375,724,340,504,-53,56
3594988,-362,724,353,532,-26,63
3595005,-365,725,357,529,-43,62
3595021,-370,719,354,536,-44,59
3595039,-375,739,351,497,-74,37
3595055,-371,747,379,506,-42,40
3595071,-363,746,344,465,-60,21
3595088,-350,762,367,488,-15,45
3595105,-356,758,360,493,-1,35
3595121,-375,745,353,480,-27,10
3595138,-364,752,355,502,-17,9
3595155,-370,763,353,500,-34,-2
3595171,-368,752,352,501,-33,-16
3595189,-351,775,359,516,-10,-13
3595204,-365,758,338,499,-36,-38
3595221,-398,739,328,491,-72,-74
3595238,-373,749,338,508,-55,-54
3595255,-385,742,335,500,-66,-69
3595272,-371,751,340,504,-64,-59
3595288,-391,729,336,506,-82,-87
3595305,-370,752,336,508,-67,-53
3595322,-383,758,338,500,-56,-56
3595338,-376,757,322,503,-61,-61
3595355,-377,752,329,503,-64,-57
3595372,-388,752,316,489,-73,-93
3595389,-383,760,322,502,-65,-85
3595405,-365,785,332,509,-27,-58
3595422,-385,775,321,503,-61,-92
3595438,-385,783,329,507,-33,-97
3595455,-368,795,324,506,-37,-94
3595472,-357,799,343,532,4,-79
3595489,-378,784,325,515,-22,-100
3595519,-388,776,317,504,-37,-118
3595537,-357,799,348,528,-18,-92
3595552,-372,804,322,511,-32,-96
3595569,-383,789,320,515,-29,-117
3595587,-363,804,338,533,-23,-91
3595603,-372,783,319,502,-53,-113
3595620,-368,785,334,517,-49,-88
3595637,-383,781,316,513,-59,-92
3595653,-390,796,314,508,-76,-98
3595670,-379,810,320,520,-62,-61
3595687,-376,811,318,523,-37,-51
3595703,-376,810,316,516,-31,-45
3595720,-379,811,326,542,-35,-38
3595737,-390,779,307,528,-52,-35
3595754,-394,782,305,507,-79,-59
3595771,-418,772,288,498,-103,-67
3595788,-381,804,328,543,-55,-25
3595804,-401,777,304,532,-70,-36
3595821,-388,786,301,535,-74,-29
3595838,-389,803,324,559,-56,-25
3595854,-393,780,305,547,-94,-34
3595872,-402,777,297,541,-93,-63
3595889,-392,782,301,539,-95,-54
3595904,-400,782,294,544,-100,-59
3595921,-374,788,323,577,-91,-21
3595937,-411,767,305,564,-106,-62
3595955,-378,745,303,570,-97,-41
3595970,-395,765,300,567,-83,-34
3595988,-409,747,287,559,-97,-65
3596004,-418,749,266,529,-94,-65
3596021,-411,756,276,562,-90,-59
3596038,-413,752,279,562,-85,-57
3596055,-413,770,301,558,-54,-65
3596073,-388,772,283,531,-62,-40
3596101,-407,767,293,532,-70,-67
3596119,-378,782,311,566,-49,-34
3596135,-372,791,312,571,-23,-28
3596153,-366,785,319,564,-40,-37
3596169,-354,787,319,569,-23,-32
3596186,-369,791,317,562,-35,-43
3596203,-353,804,327,586,2,-29
3596219,-373,782,316,564,-42,-63
3596235,-363,791,306,561,-8,-51
3596252,-388,774,304,533,-50,-79
3596269,-373,790,312,551,-27,-59
3596285,-367,785,319,545,-52,-46
3596302,-359,806,335,587,-28,-19
3596318,-392,770,303,555,-75,-53
3596335,-363,807,334,578,-59,-23
3596352,-352,795,335,586,-40,-13
3596369,-356,811,334,595,-36,-1
3596385,-356,810,334,595,-30,1
3596401,-372,806,323,579,-37,-7
3596418,-364,804,325,592,-35,-7
3596435,-361,797,331,589,-23,-6
3596451,-364,782,327,588,-27,-19
3596468,-352,805,351,596,-5,1
3596485,-356,802,348,622,-18,1
3596502,-365,778,333,593,-35,-36
3596518,-383,768,329,597,-35,-35
3596535,-374,777,338,603,-35,-30
3596552,-348,809,357,572,6,-24
3596569,-353,809,341,552,-1,-29
3596586,-362,814,333,533,-15,-26
3596603,-382,787,309,531,12,-25
3596619,-393,800,304,527,-14,-35
3596635,-410,798,310,532,-23,-28
3596652,-394,811,324,534,-23,-26
3596669,-392,815,312,536,-39,-17
3596685,-384,818,324,538,-33,-25
3596702,-385,824,320,552,-6,3
3596719,-382,828,336,563,-6,2
3596736,-386,818,303,523,-25,5
3596753,-397,831,330,548,-7,-18
3596770,-357,843,351,568,46,44
3596799,-294,905,345,564,55,104
3596816,-218,954,384,601,136,218
3596833,-225,946,377,586,94,196
3596851,-207,943,384,605,158,247
3596866,-246,914,378,596,100,205
3596883,-266,878,362,586,99,188
3596901,-297,842,337,562,62,162
3596917,-323,850,332,553,27,125
3596934,-332,832,331,537,37,130
3596951,-337,825,325,543,26,135
3596967,-301,851,354,570,70,161
3596984,-305,823,337,565,98,167
3597000,-319,809,337,558,116,155
3597032,-300,781,353,575,129,177
3597050,-311,797,359,591,119,165
3597067,-311,789,358,596,122,153
3597083,-329,778,346,566,92,123
3597100,-334,773,350,571,90,119
3597116,-320,799,356,580,85,110
3597133,-346,769,333,584,86,82
3597150,-331,775,352,581,84,91
3597166,-361,760,341,575,59,48
3597183,-328,784,372,597,93,59
3597200,-330,805,359,589,106,52
3597216,-357,785,332,557,84,10
3597233,-329,821,352,576,112,25
3597250,-318,839,349,573,95,9
3597266,-297,872,355,583,123,31
3597283,-223,976,393,617,189,84
3597300,-179,1046,417,632,238,154
3597317,-94,1105,430,649,275,190
3597333,-35,1141,465,669,329,250
3597349,-19,1145,472,663,333,260
3597366,3,1155,473,678,361,275
3597383,2,1164,473,674,368,277
3597399,-1,1158,475,682,347,273
3597416,3,1166,459,659,356,276
3597433,-9,1170,476,691,379,298
3597450,22,1198,482,686,354,297
3597467,35,1198,486,698,373,321
3597483,-2,1201,469,656,348,287
3597501,-2,1199,450,683,341,289
3597517,5,1224,446,658,354,307
3597533,8,1256,476,686,381,314
3597549,32,1236,470,685,374,337
3597567,3,1224,470,665,351,330
3597583,5,1226,473,679,348,346
3597614,7,1216,477,680,352,358
3597632,3,1219,469,672,371,368
3597647,-6,1206,471,657,353,348
3597665,-23,1194,459,655,345,350
3597682,3,1192,464,651,352,372
3597698,-26,1195,454,658,371,387
3597715,-38,1166,441,625,333,355
3597732,-23,1173,446,636,337,370
3597748,-39,1154,438,624,318,355
3597765,-41,1159,436,626,316,357
3597781,-40,1125,446,631,314,367
3597799,-67,1119,435,636,298,355
3597815,-74,1075,404,607,267,356
3597832,-81,1073,443,641,289,339
3597849,-119,1066,422,629,245,312
3597865,-153,1041,413,627,210,271
3597882,-177,1005,386,605,198,248
3597898,-173,1007,417,631,184,247
3597915,-226,950,374,590,145,189
3597931,-251,916,378,598,137,171
3597963,-310,867,350,586,85,106
3597981,-302,893,349,590,90,131
3597997,-254,938,367,599,142,187
3598013,-170,1021,408,635,204,267
3598031,-139,1046,414,648,248,289
3598047,-141,1046,406,631,215,279
3598064,-143,1010,419,661,201,267
3598081,-191,928,361,599,187,249
3598097,-287,851,346,586,101,125
3598114,-373,780,324,561,39,53
3598131,-401,748,310,558,37,44
3598147,-471,682,280,511,-9,-36
3598164,-472,676,281,503,-1,-25
3598181,-480,661,248,505,-20,-53
3598198,-522,588,267,501,-93,-90
3598214,-501,640,265,492,-61,-61
3598231,-513,606,269,509,-60,-66
3598248,-510,594,278,509,-84,-67
3598264,-536,565,265,490,-113,-93
3598281,-561,526,238,472,-149,-126
3598298,-525,578,264,504,-92,-82
3598314,-550,560,274,504,-112,-92
3598331,-499,584,265,503,-83,-52
3598348,-531,590,278,513,-57,-27
3598364,-524,577,261,497,-88,-43
3598381,-529,576,261,503,-94,-49
3598398,-528,537,266,504,-89,-38
3598429,-535,581,258,492,-95,-39
3598446,-504,604,274,514,-64,-5
3598463,-506,602,274,534,-62,7
3598480,-495,561,268,509,-67,16
3598496,-540,566,259,507,-80,-16
3598513,-532,538,254,497,-92,-23
3598530,-489,611,291,540,-49,19
3598546,-507,586,264,507,-68,-8
3598563,-499,605,280,533,-63,8
3598580,-516,587,256,491,-105,-26
3598597,-480,652,289,534,-58,40
3598613,-500,647,275,532,-52,28
3598630,-489,626,280,530,-58,31
3598646,-480,662,286,528,-59,31
3598664,-475,683,291,527,-60,28
3598681,-480,671,282,521,-61,20
3598697,-440,714,302,537,-53,58
3598714,-446,714,293,531,-35,55
3598731,-445,710,291,531,-63,48
3598747,-418,746,321,554,-9,87
3598778,-384,797,326,570,32,122
3598795,-396,804,316,546,-36,81
3598813,-334,888,353,576,30,155
3598829,-240,999,392,619,73,238
3598846,-171,1089,413,629,129,311
3598863,-154,1130,401,623,118,320
3598894,-131,1200,405,623,158,340
3598912,-90,1224,419,629,151,370
3598928,-126,1219,412,622,122,358
3598944,-122,1194,414,624,125,345
3598962,-156,1194,376,595,100,326
3598979,-165,1167,384,597,97,320
3599011,-203,1105,368,591,72,285
3599027,-252,1083,372,575,28,214
3599045,-364,1002,320,532,-68,116
3599062,-417,949,296,498,-114,54
3599077,-484,889,265,469,-163,4
3599095,-506,871,261,475,-190,-20
3599127,-542,841,243,474,-185,-33
3599144,-529,849,240,467,-183,-30
3599162,-562,814,246,457,-220,-60
3599179,-578,798,226,449,-255,-73
3599195,-572,796,230,452,-219,-62
3599212,-603,769,208,437,-244,-75
3599228,-589,780,230,452,-209,-57
3599245,-594,780,227,455,-211,-48
3599262,-596,789,230,453,-229,-63
3599278,-583,802,238,451,-206,-55
3599295,-575,802,242,461,-207,-46
3599311,-565,808,244,463,-202,-61
3599328,-592,779,218,435,-217,-78
3599344,-556,811,253,488,-171,-50
3599362,-575,775,221,461,-195,-72
3599378,-568,809,214,446,-181,-67
3599395,-574,780,236,478,-190,-91
3599411,-564,799,230,464,-166,-56
3599428,-572,775,231,462,-187,-94
3599445,-573,773,220,442,-195,-95
3599462,-562,787,246,481,-165,-59
3599479,-565,783,243,475,-154,-64
3599495,-558,803,249,478,-154,-57
3599512,-558,792,248,485,-157,-36
3599528,-545,815,246,477,-154,-25
3599546,-536,832,243,478,-144,-15
3599563,-565,810,224,454,-158,-24
3599593,-544,812,237,470,-164,-1
3599611,-538,825,246,477,-160,24
3599626,-534,841,259,481,-161,31
3599643,-513,841,271,499,-151,39
3599660,-531,824,241,470,-186,26
3599677,-533,809,250,474,-189,31
3599693,-535,810,243,472,-182,30
3599710,-537,814,246,476,-186,32
3599727,-538,816,246,484,-183,31
3599744,-538,809,243,487,-204,31
3599760,-532,810,244,483,-189,35
3599777,-527,807,263,495,-200,37
3599794,-541,780,264,488,-237,22
3599811,-524,801,262,481,-245,32
