TIME,AF3,F7,F3,F4,F8,AF4
1604235,-684,139,-33,747,-662,-1388
1604252,-747,90,-67,727,-698,-1452
1604268,-704,121,-32,729,-671,-1439
1604285,-628,180,-5,734,-604,-1358
1604301,-696,113,-37,720,-667,-1399
1604318,-685,122,1,716,-690,-1455
1604335,-614,184,-24,710,-656,-1321
1604351,-624,188,-24,708,-675,-1358
1604368,-629,237,-26,728,-663,-1352
1604386,-590,270,40,802,-645,-1328
1604416,-474,525,-742,-1058,-351,-1109
1604434,-565,442,-636,66,-416,-1204
1604450,-645,329,12,629,-584,-1297
1604467,-728,259,69,769,-709,-1295
1604483,-705,313,36,744,-653,-1259
1604501,-687,368,38,752,-732,-1216
1604516,-773,376,-4,750,-800,-1351
1604534,-708,408,21,712,-689,-1251
1604551,-754,361,3,726,-805,-1360
1604567,-769,352,-7,736,-772,-1395
1604584,-751,324,12,761,-735,-1310
1604601,-756,194,2,749,-731,-1388
1604617,-766,283,-4,734,-729,-1305
1604633,-784,555,-21,733,-722,-1346
1604650,-770,2221,17,724,-680,-1318
1604667,-769,1378,-6,718,-659,-1282
1604684,-821,3811,8,708,-649,-1284
1604700,-716,2471,26,701,-550,-1169
1604716,-803,2373,-6,709,-639,-1273
1604734,-792,1774,-21,702,-649,-1238
1604750,-808,1558,-23,706,-628,-1247
1604768,-748,1431,6,705,-614,-1214
1604784,-720,1310,5,701,-588,-1219
1604800,-757,1170,-22,703,-630,-1263
1604818,-666,1147,12,705,-567,-1246
1604833,-697,1114,-11,705,-569,-1280
1604851,-702,1034,-22,698,-562,-1326
1604881,-765,999,-5,697,-596,-1377
1604899,-708,959,-3,697,-563,-1478
1604915,-753,906,-17,697,-477,-1432
1604932,-715,869,-7,690,-432,-1456
1604950,-720,857,-3,701,-406,-1483
1604966,-752,806,-29,703,-393,-1481
1604984,-764,822,-27,709,-370,-1551
1605001,-759,807,-57,713,-393,-1559
1605017,-687,861,-11,711,-257,-1477
1605033,-733,799,-36,715,-308,-1554
1605051,-706,870,-51,701,-239,-1498
1605067,-752,866,-67,704,-232,-1552
1605084,-712,860,-91,701,-214,-1512
1605115,-721,901,-94,701,-164,-1493
1605132,-719,902,-101,701,-157,-1444
1605149,-717,900,-100,701,-126,-1437
1605166,-667,904,-112,702,-103,-1401
1605182,-697,871,-121,701,-122,-1410
1605199,-712,889,-131,700,-146,-1410
1605231,-659,859,-103,702,-145,-1361
1605248,-651,860,-113,702,-137,-1313
1605265,-640,811,-120,700,-177,-1280
1605281,-609,840,-82,704,-150,-1258
1605298,-582,840,-117,704,-207,-1260
1605315,-630,821,-118,700,-198,-1221
1605347,-624,783,-153,701,-182,-1189
1605364,-592,786,-255,704,-219,-1210
1605381,-605,802,-252,697,-174,-1123
1605398,-590,787,-256,702,-153,-1137
1605415,-608,752,-253,699,-237,-1151
1605431,-526,791,-206,707,-79,-1036
1605449,-584,739,-229,698,-148,-1105
1605465,-574,696,-247,700,-132,-1030
1605481,-635,680,-217,698,-178,-1116
1605498,-544,730,-216,699,-84,-1006
1605515,-569,693,-216,692,-127,-995
1605532,-565,676,-213,698,-133,-1021
1605548,-573,690,-230,698,-127,-976
1605580,-553,695,-175,709,-122,-981
1605597,-488,686,-182,704,-149,-920
1605613,-585,647,-219,698,-176,-1018
1605630,-531,686,-205,702,-160,-938
1605648,-537,678,-180,701,-122,-924
1605665,-538,670,-183,701,-159,-951
1605696,-523,676,-158,705,-126,-928
1605714,-501,655,-178,702,-132,-933
1605731,-517,667,-179,703,-154,-908
1605747,-494,658,-151,702,-163,-928
1605763,-518,621,-184,701,-187,-973
1605781,-526,601,-208,701,-234,-991
1605812,-430,687,-148,701,-166,-962
1605829,-452,677,-156,705,-181,-932
1605846,-480,628,-157,661,-206,-996
1605864,-482,642,-147,653,-185,-961
1605880,-431,679,-118,653,-131,-939
1605897,-382,753,-84,659,-106,-877
1605914,-421,709,-110,651,-98,-938
1605930,-430,683,-101,657,-94,-900
1605947,-431,688,-118,649,-144,-900
1605963,-449,684,-97,646,-79,-921
1605981,-412,716,-93,653,-86,-867
1605997,-399,703,-72,640,-72,-895
1606014,-420,660,-102,645,-95,-888
1606047,-476,624,-127,642,-144,-963
1606064,-452,639,-99,639,-141,-983
1606080,-473,608,-127,638,-199,-961
1606096,-494,613,-115,642,-215,-1029
1606114,-450,644,-92,639,-167,-964
1606130,-523,586,-123,638,-228,-1033
1606163,-508,594,-120,639,-216,-1040
1606180,-461,610,-90,638,-174,-988
1606197,-480,611,-125,636,-207,-1010
1606213,-520,600,-124,633,-216,-1050
1606229,-527,566,-122,635,-224,-1021
1606246,-480,625,-85,639,-199,-997
1606263,-540,565,-139,637,-241,-1026
1606279,-536,568,-115,632,-235,-1059
1606297,-532,535,-123,631,-233,-983
1606313,-529,560,-147,626,-236,-1019
1606330,-577,509,-155,625,-290,-1078
1606346,-545,550,-121,630,-227,-942
1606363,-501,532,-117,628,-252,-975
1606381,-495,542,-127,632,-229,-937
1606396,-534,527,-118,629,-279,-979
1606414,-545,516,-129,628,-301,-1004
1606430,-524,540,-115,626,-274,-926
1606446,-528,508,-138,626,-258,-932
1606463,-549,506,-123,627,-351,-1027
1606480,-526,530,-126,626,-309,-923
1606511,-552,512,-121,635,-270,-917
1606529,-538,555,-84,628,-276,-885
1606545,-527,575,-104,635,-290,-895
1606562,-575,559,-121,634,-341,-959
1606580,-577,556,-113,635,-325,-937
1606595,-522,605,-83,637,-266,-846
1606612,-508,587,-80,638,-310,-893
1606629,-499,631,-58,636,-268,-852
1606645,-424,639,-48,639,-251,-825
1606662,-519,576,-72,641,-287,-898
1606679,-523,589,-87,639,-278,-866
1606696,-469,612,-40,639,-310,-893
1606713,-467,592,-55,636,-285,-861
1606745,-508,612,-56,633,-294,-887
1606762,-469,593,-59,628,-287,-894
1606779,-476,563,-64,635,-360,-961
1606795,-503,559,-93,626,-338,-940
1606812,-470,593,-55,626,-296,-921
1606828,-481,593,-65,625,-325,-934
1606860,-503,568,-57,626,-315,-966
1606878,-521,563,-69,628,-359,-995
1606895,-514,536,-66,624,-334,-958
1606911,-486,562,-55,627,-319,-925
1606928,-491,575,-62,626,-309,-970
1606945,-491,565,-53,628,-311,-924
1606978,-539,528,-66,628,-347,-971
1606995,-486,568,-55,623,-352,-977
1607010,-489,548,-58,626,-352,-1016
1607028,-483,568,-58,626,-357,-956
1607044,-494,558,-50,617,-354,-978
1607061,-449,559,-33,626,-367,-964
1607093,-499,533,-35,623,-402,-965
1607111,-518,526,-89,612,-412,-984
1607128,-476,568,-59,627,-348,-955
1607143,-470,565,-69,621,-408,-968
1607161,-490,529,-67,617,-388,-926
1607177,-470,539,-58,624,-364,-952
1607209,-440,555,-91,623,-385,-912
1607226,-444,566,-58,624,-358,-893
1607244,-455,525,-45,630,-343,-880
1607260,-465,565,-48,607,-357,-878
1607277,-411,565,-40,620,-350,-908
1607293,-454,530,-63,618,-415,-931
1607311,-453,494,-61,614,-399,-894
1607327,-479,528,-67,621,-409,-912
1607345,-463,530,-59,619,-393,-916
1607362,-403,572,-20,609,-353,-877
1607377,-434,536,-53,618,-377,-868
1607395,-440,530,-96,611,-427,-891
1607412,-452,566,-350,612,-381,-894
1607442,-483,536,-315,609,-439,-913
1607460,-441,540,-271,607,-415,-877
1607476,-428,547,-267,604,-429,-882
1607493,-523,498,-278,603,-449,-927
1607510,-470,518,-258,607,-475,-886
1607526,-521,498,-260,606,-452,-970
1607543,-531,479,-267,605,-494,-950
1607560,-563,482,-267,608,-497,-990
1607577,-508,521,-226,609,-435,-910
1607593,-500,506,-229,607,-434,-918
1607610,-527,506,-212,607,-462,-908
1607627,-514,504,-238,600,-470,-932
1607643,-518,508,-209,610,-463,-922
1607675,-524,511,-198,597,-487,-927
1607692,-495,540,-214,604,-492,-963
1607709,-526,494,-195,599,-460,-897
1607726,-498,520,-185,599,-474,-898
1607743,-479,539,-174,595,-429,-834
1607759,-541,496,-200,596,-478,-914
1607791,-583,481,-186,596,-533,-923
1607809,-491,521,-155,597,-430,-845
1607826,-566,487,-178,595,-520,-873
1607843,-571,438,-186,596,-546,-992
1607859,-566,450,-199,593,-565,-927
1607876,-571,457,-178,593,-522,-952
1607893,-547,492,-152,597,-519,-888
1607909,-515,481,-167,596,-540,-922
1607926,-566,421,-180,596,-498,-919
1607943,-568,472,-152,595,-542,-969
1607959,-557,457,-159,594,-540,-959
1607976,-528,450,-154,593,-563,-928
1607992,-566,457,-129,594,-536,-986
1608009,-520,475,-140,594,-517,-955
1608026,-564,468,-146,596,-566,-954
1608042,-520,478,-121,588,-544,-949
1608059,-533,441,-130,588,-562,-963
1608075,-534,471,-124,593,-521,-931
1608092,-522,477,-117,593,-553,-935
1608109,-485,484,-113,599,-523,-904
1608126,-494,491,-93,596,-481,-849
1608142,-492,485,-94,593,-510,-897
1608159,-498,451,-95,593,-512,-859
1608176,-495,480,-63,597,-516,-916
1608192,-503,469,-95,591,-541,-860
1608210,-554,483,-66,588,-500,-880
1608226,-549,451,-101,583,-581,-937
1608257,-556,491,-68,584,-526,-896
1608275,-530,514,-61,575,-508,-863
1608290,-531,534,-54,576,-467,-836
1608307,-560,490,-66,575,-537,-876
1608324,-578,518,-62,568,-530,-857
1608341,-659,503,-67,571,-541,-930
1608358,-669,508,-81,567,-540,-878
1608376,-725,481,-82,568,-567,-942
1608392,-663,513,-57,567,-534,-878
1608409,-691,510,-48,565,-573,-935
1608425,-645,543,-26,565,-529,-911
1608442,-680,526,-52,565,-562,-928
1608458,-637,539,-34,567,-551,-870
1608476,-624,522,-22,563,-542,-850
1608493,-596,533,-26,562,-573,-875
1608510,-617,508,-6,583,-522,-887
1608525,-612,536,-23,591,-542,-847
1608542,-562,514,-1,609,-582,-862
1608558,-601,498,-4,611,-562,-872
1608575,-631,470,3,619,-546,-847
1608592,-627,479,-5,612,-573,-862
1608608,-638,467,-12,608,-577,-901
1608625,-626,473,-8,604,-578,-892
1608642,-552,483,13,600,-534,-803
1608659,-601,457,3,595,-536,-830
1608675,-627,443,-28,595,-590,-890
1608692,-634,471,-36,581,-569,-896
1608709,-608,467,-30,577,-521,-837
1608726,-627,477,-34,577,-521,-855
1608742,-562,486,-1,574,-505,-776
1608759,-585,491,-38,582,-506,-855
1608775,-594,459,1,592,-541,-762
1608792,-564,470,-5,599,-549,-801
1608808,-566,463,1,601,-543,-802
1608839,-474,564,71,625,-442,-687
1608857,-452,540,64,626,-406,-653
1608873,-468,511,59,625,-454,-714
1608890,-475,554,70,625,-453,-683
1608907,-386,568,106,614,-385,-656
1608923,-428,575,85,611,-409,-670
1608940,-432,588,88,604,-413,-684
1608957,-376,611,120,608,-357,-618
1608973,-354,640,122,602,-335,-588
1608989,-393,582,122,598,-357,-628
1609006,-402,561,98,595,-405,-656
1609023,-421,557,60,591,-450,-687
1609040,-395,572,98,587,-429,-695
1609057,-341,604,144,581,-333,-647
1609073,-312,592,144,585,-368,-605
1609090,-333,572,126,577,-356,-628
1609106,-336,554,123,578,-392,-661
1609123,-315,592,118,581,-358,-649
1609140,-346,569,131,580,-382,-651
1609156,-347,564,113,571,-413,-665
1609173,-317,568,154,577,-370,-656
1609190,-319,556,144,573,-390,-635
1609206,-299,567,125,573,-379,-622
1609223,-341,566,158,578,-330,-613
1609239,-284,580,151,571,-335,-572
1609256,-270,557,151,573,-331,-587
1609273,-312,552,118,575,-386,-638
1609290,-283,565,166,573,-340,-562
1609306,-279,544,168,576,-380,-621
1609323,-266,556,153,579,-314,-556
1609340,-261,548,179,586,-372,-584
1609357,-272,540,186,583,-348,-586
1609374,-225,535,182,576,-377,-567
1609390,-235,527,183,581,-355,-585
1609407,-223,535,186,576,-344,-563
1609423,-203,562,195,579,-381,-562
1609440,-227,544,212,580,-333,-522
1609456,-154,534,223,578,-387,-596
1609473,-156,530,237,581,-381,-497
1609491,-177,518,212,575,-368,-524
1609507,-174,493,228,585,-379,-535
1609524,-165,507,246,580,-375,-505
1609541,-169,454,243,586,-404,-548
1609557,-162,467,268,589,-421,-517
1609574,-245,397,227,580,-464,-594
1609590,-182,374,248,576,-454,-535
1609607,-229,343,251,580,-474,-573
1609624,-214,317,251,578,-531,-598
1609654,-278,244,239,573,-569,-583
1609671,-240,251,260,579,-582,-620
1609688,-252,198,256,576,-608,-635
1609705,-267,174,268,579,-629,-605
1609722,-286,147,293,577,-622,-608
1609738,-306,120,238,569,-660,-635
1609770,-354,63,252,568,-744,-722
1609788,-330,26,264,568,-716,-664
1609804,-353,8,248,569,-750,-729
1609820,-369,-23,255,564,-777,-739
1609838,-380,-40,237,568,-809,-772
1609855,-371,-39,249,565,-776,-736
1609871,-452,-114,226,563,-845,-844
1609887,-396,-92,281,562,-805,-807
1609905,-397,-133,257,563,-860,-837
1609921,-459,-163,260,565,-874,-844
1609938,-410,-161,269,560,-877,-866
1609954,-445,-151,281,565,-874,-826
1609971,-469,-185,264,566,-920,-904
1609988,-474,-200,279,560,-935,-929
1610005,-480,-183,286,563,-923,-941
1610021,-465,-213,288,566,-960,-949
1610037,-498,-245,286,562,-981,-984
1610055,-506,-247,281,568,-991,-994
1610071,-470,-210,312,563,-968,-968
1610087,-499,-248,309,568,-1008,-988
1610119,-468,-217,328,575,-1034,-1062
1610137,-501,-245,322,571,-987,-1037
1610153,-436,-223,350,577,-987,-1038
1610170,-465,-220,335,575,-1015,-1119
1610187,-493,-254,323,576,-1026,-1134
1610204,-476,-213,337,570,-1001,-1143
1610220,-457,-221,351,583,-991,-1092
1610237,-479,-226,344,578,-1019,-1134
1610254,-489,-207,343,580,-1025,-1184
1610270,-476,-220,369,573,-1057,-1206
1610287,-531,-257,337,565,-1099,-1245
1610304,-501,-239,358,579,-1041,-1296
1610320,-531,-253,321,566,-1099,-1291
1610337,-574,-264,326,569,-1073,-1344
1610353,-575,-289,298,565,-1092,-1324
1610370,-599,-266,305,564,-1099,-1355
1610387,-564,-301,338,565,-1099,-1368
1610404,-588,-305,293,563,-1114,-1365
1610420,-668,-318,293,560,-1141,-1458
1610436,-629,-281,289,564,-1113,-1419
1610453,-644,-299,292,553,-1130,-1430
1610470,-677,-290,270,561,-1111,-1482
1610486,-671,-290,272,556,-1130,-1468
1610503,-662,-322,285,551,-1147,-1506
1610520,-652,-269,282,564,-1068,-1411
1610537,-655,-268,291,565,-1079,-1465
1610553,-647,-253,286,563,-1100,-1490
1610570,-658,-252,317,572,-1056,-1493
1610587,-635,-257,293,567,-1075,-1459
1610604,-629,-267,324,566,-1073,-1526
1610621,-662,-235,310,571,-1077,-1504
1610637,-662,-261,288,561,-1055,-1500
1610654,-674,-248,309,566,-1045,-1536
1610670,-645,-247,306,565,-1078,-1557
1610688,-660,-263,300,563,-1074,-1550
1610704,-679,-239,306,566,-1059,-1557
1610720,-654,-228,311,560,-1046,-1561
1610737,-663,-225,298,568,-1032,-1540
1610753,-669,-221,309,567,-1029,-1593
1610770,-675,-253,281,563,-1062,-1600
1610787,-699,-211,302,568,-1059,-1625
1610804,-644,-209,316,566,-1003,-1554
1610820,-682,-178,303,563,-1033,-1607
1610837,-684,-187,305,561,-983,-1587
1610854,-657,-172,319,565,-983,-1593
1610870,-684,-154,301,567,-957,-1572
1610887,-698,-169,296,556,-991,-1615
1610903,-646,-141,314,560,-930,-1573
1610920,-716,-184,278,552,-923,-1581
1610936,-687,-120,313,553,-939,-1617
1610953,-627,-129,322,552,-870,-1527
1610970,-670,-121,321,548,-906,-1580
1610988,-618,-103,330,549,-854,-1538
1611004,-621,-74,356,548,-885,-1544
1611020,-579,-52,316,538,-808,-1491
1611050,-576,-56,353,530,-858,-1533
1611068,-568,10,379,517,-738,-1400
1611084,-510,58,401,525,-705,-1399
1611101,-438,98,422,512,-661,-1365
1611118,-469,50,380,514,-636,-1403
1611135,-455,96,418,515,-620,-1345
1611167,-429,136,431,523,-594,-1352
1611184,-366,175,467,536,-559,-1331
1611201,-360,183,463,545,-497,-1296
1611218,-365,165,441,554,-556,-1349
1611235,-420,146,449,547,-550,-1399
1611251,-370,191,476,557,-522,-1304
1611268,-332,213,490,548,-463,-1294
1611284,-354,213,495,560,-501,-1328
1611301,-410,207,473,546,-501,-1347
1611317,-382,206,463,546,-503,-1340
1611334,-388,234,471,547,-492,-1325
1611351,-327,278,490,548,-461,-1294
1611367,-388,231,465,544,-503,-1294
1611385,-409,214,447,543,-496,-1315
1611401,-452,179,445,540,-554,-1362
1611418,-408,229,448,539,-514,-1372
1611434,-421,234,469,538,-450,-1265
1611451,-369,275,455,549,-435,-1284
1611468,-415,248,449,544,-469,-1324
1611485,-406,264,473,545,-472,-1333
1611516,-410,279,438,538,-453,-1344
1611534,-399,304,451,544,-433,-1301
1611550,-411,302,439,538,-468,-1319
1611567,-385,308,399,462,-427,-1313
1611584,-365,354,346,406,-378,-1236
1611601,-382,306,440,554,-427,-1295
1611617,-364,330,439,567,-423,-1251
1611634,-396,332,445,569,-411,-1259
1611651,-405,337,440,568,-407,-1312
1611667,-437,323,413,565,-455,-1314
1611683,-349,387,456,569,-350,-1251
1611701,-368,362,445,562,-362,-1256
1611717,-384,381,465,565,-350,-1244
1611735,-378,370,446,560,-391,-1278
1611750,-395,348,433,566,-413,-1307
1611767,-382,354,442,562,-367,-1237
1611784,-391,392,441,567,-385,-1282
1611801,-392,365,441,547,-357,-1243
1611817,-417,301,408,556,-401,-1291
1611834,-448,290,409,557,-394,-1291
1611866,-427,308,429,581,-392,-1267
1611882,-448,300,510,780,-400,-1334
1611899,-439,277,526,754,-443,-1311
1611917,-405,296,488,660,-375,-1244
1611933,-407,323,447,584,-382,-1267
1611949,-432,299,424,565,-381,-1263
1611967,-405,296,409,555,-389,-1205
1611983,-457,276,406,565,-394,-1284
1611999,-397,291,419,567,-355,-1233
1612016,-442,282,384,562,-388,-1270
1612034,-416,276,387,564,-375,-1284
1612050,-413,294,402,566,-375,-1261
1612066,-410,286,397,566,-373,-1219
1612098,-382,301,384,551,-360,-1202
1612115,-359,328,413,558,-319,-1197
1612133,-370,301,384,562,-361,-1204
1612149,-375,324,388,565,-389,-1230
1612165,-393,317,408,563,-327,-1168
1612182,-365,321,412,566,-389,-1193
1612199,-347,329,430,569,-329,-1145
1612216,-282,372,446,571,-318,-1105
1612233,-286,381,445,565,-317,-1074
1612249,-329,325,427,568,-359,-1087
1612265,-310,374,462,569,-292,-1053
1612282,-242,380,469,572,-253,-1000
1612298,-189,431,511,572,-198,-946
1612330,-157,512,507,577,-153,-890
1612347,-152,495,497,571,-149,-882
1612366,-143,510,515,576,-163,-932
1612382,-108,549,512,574,-116,-868
1612398,-72,560,532,570,-122,-835
1612415,-79,561,524,571,-160,-877
1612432,-73,566,534,576,-104,-828
1612448,-62,568,533,575,-142,-826
1612465,-56,568,517,578,-120,-855
1612482,-61,568,529,587,-179,-872
1612498,-33,577,539,580,-122,-824
1612514,-28,594,511,576,-154,-862
1612531,-119,564,497,581,-157,-872
1612548,-92,539,504,579,-152,-876
1612566,-116,570,502,579,-167,-893
1612583,-94,609,513,579,-109,-853
1612598,-144,584,477,587,-128,-885
1612616,-146,550,473,578,-193,-911
1612632,-188,533,470,575,-192,-934
1612650,-195,562,476,574,-178,-929
1612665,-204,561,474,573,-165,-922
1612697,-233,517,465,577,-194,-948
1612714,-209,537,474,578,-146,-928
1612732,-246,534,448,579,-174,-971
1612748,-234,493,427,576,-194,-992
1612765,-254,534,453,593,-160,-955
1612781,-235,532,445,586,-159,-991
1612813,-256,536,445,589,-130,-949
1612831,-246,536,434,584,-164,-959
1612846,-218,544,427,580,-174,-970
1612863,-267,536,433,579,-191,-951
1612881,-250,532,426,580,-168,-984
1612897,-220,540,420,578,-195,-967
1612929,-217,534,415,575,-169,-953
1612946,-231,543,415,590,-140,-961
1612964,-224,529,419,582,-141,-975
1612980,-208,536,415,582,-154,-967
1612997,-248,523,398,587,-177,-975
1613014,-226,534,435,586,-188,-978
1613046,-180,537,441,587,-177,-931
1613062,-178,594,437,578,-177,-938
1613080,-152,594,455,583,-148,-910
1613096,-148,599,449,584,-178,-920
1613113,-174,598,430,589,-148,-937
1613129,-172,592,429,583,-155,-937
1613147,-168,602,423,580,-146,-935
1613165,-187,588,412,579,-184,-935
1613181,-189,569,408,568,-150,-913
1613197,-163,599,416,579,-157,-885
1613215,-187,565,408,569,-182,-899
1613231,-175,604,411,574,-168,-897
1613247,-150,592,415,579,-130,-869
1613264,-160,599,412,574,-162,-855
1613281,-153,604,413,573,-150,-827
1613297,-155,635,422,574,-121,-805
1613314,-148,630,425,585,-116,-794
1613332,-149,620,419,576,-128,-831
1613348,-144,592,417,577,-121,-784
1613364,-122,601,417,578,-119,-819
1613381,-136,594,421,574,-88,-744
1613398,-158,603,434,577,-90,-805
1613414,-140,599,421,580,-92,-772
1613431,-159,596,431,579,-131,-813
1613448,-154,583,434,578,-95,-802
1613464,-150,598,458,576,-72,-762
1613482,-74,657,479,583,-24,-712
1613511,-88,661,503,576,-24,-685
1613529,-90,676,476,580,-39,-710
1613545,-89,686,488,582,2,-697
1613563,-90,686,487,585,-5,-695
1613579,-88,681,478,581,-27,-679
1613596,-84,689,447,582,-20,-674
1613612,-85,685,471,577,-38,-711
1613629,-85,690,466,587,-13,-677
1613646,-30,684,478,579,-5,-660
1613662,-60,724,470,589,10,-656
1613679,-60,692,470,578,-5,-631
1613696,-39,699,471,581,-2,-671
1613712,-85,691,464,581,10,-625
1613745,-66,764,455,576,-68,-665
1613762,-59,743,451,572,-115,-693
1613779,-68,753,445,578,-99,-692
1613795,-52,767,447,570,-121,-680
1613813,-64,778,439,573,-113,-669
1613829,-84,769,449,572,-85,-668
1613845,-57,784,452,570,-90,-669
1613863,-53,779,456,566,-87,-651
1613879,-65,772,447,570,-88,-664
1613895,-64,769,445,565,-92,-664
1613912,-49,772,449,570,-61,-610
1613929,-61,780,453,566,-61,-626
1613946,-89,763,443,564,-83,-637
1613976,-47,784,455,565,-52,-587
1613994,-28,792,452,562,-59,-567
1614010,-61,776,441,567,-58,-572
1614027,-61,737,442,565,-59,-567
1614044,-70,644,436,569,-61,-541
1614060,-21,693,448,564,-59,-515
1614078,-30,684,452,564,-64,-484
1614095,-52,652,444,565,-63,-507
1614112,-57,652,445,565,-30,-457
1614128,-38,658,444,566,-36,-446
1614146,-38,665,443,559,-53,-464
1614161,-74,660,434,561,-58,-473
1614179,-86,668,405,562,-77,-501
1614210,-86,648,412,559,-78,-483
1614228,-96,619,411,554,-44,-492
1614244,-97,632,420,559,-6,-459
1614261,-93,619,418,550,-62,-471
1614277,-107,634,415,556,-56,-488
1614295,-94,636,410,553,-64,-479
1614326,-120,657,380,554,-53,-488
1614344,-112,675,388,553,-28,-472
1614360,-87,693,390,555,-34,-462
1614377,-115,699,381,550,-38,-492
1614394,-89,713,412,569,-19,-459
1614410,-43,724,413,561,-12,-434
1614427,-65,716,409,561,-22,-453
1614444,-55,750,414,563,4,-411
1614461,-32,758,416,564,-17,-412
1614478,-72,750,421,562,-30,-415
1614494,-45,710,410,565,-32,-433
1614510,-69,756,415,562,-23,-426
1614526,-91,717,399,569,-53,-437
1614544,-95,722,404,562,-34,-435
1614560,-54,727,409,565,34,-379
1614578,-31,726,407,566,12,-396
1614593,-24,753,416,564,45,-365
1614611,-55,723,410,568,37,-380
1614628,-52,720,406,565,26,-383
1614643,-25,548,421,567,32,-402
1614675,-23,1978,423,565,53,-398
1614692,-67,5846,413,565,0,-384
1614709,-60,6981,406,564,-3,-391
1614726,-30,6784,416,564,33,-359
1614742,-8,6775,414,566,29,-331
1614759,-58,6912,413,563,47,-345
1614791,-37,6956,408,564,59,-355
1614808,-65,6956,392,567,54,-390
1614826,-82,6955,389,564,44,-389
1614842,-81,6954,385,565,7,-442
1614859,-89,6954,376,564,8,-445
1614876,-127,6954,375,564,-9,-439
1614909,-88,6954,378,565,36,-423
1614926,-102,6955,382,558,11,-427
1614942,-105,6951,376,563,8,-465
1614959,-74,6952,406,562,28,-422
1614975,-94,6927,389,566,34,-412
1614992,-122,6892,384,565,-5,-445
1615025,-127,6827,376,560,-23,-402
1615041,-123,6742,379,563,12,-380
1615058,-115,6700,387,566,14,-415
1615074,-99,6666,411,564,11,-381
1615092,-99,6615,403,564,0,-383
1615108,-94,6574,402,565,33,-384
1615142,-71,6397,381,563,-7,-376
1615159,-98,6296,396,566,9,-408
1615175,-96,6209,387,562,-3,-440
1615192,-84,6125,391,568,2,-425
1615208,-68,6035,407,566,-5,-410
1615225,8,6017,420,567,12,-390
1615242,-32,5933,396,570,-70,-411
1615259,48,5914,405,566,-116,-470
1615275,-38,5812,378,568,-192,-528
1615291,-32,5702,386,567,-168,-508
1615308,-30,5633,393,567,-182,-547
1615326,-86,5558,377,568,-205,-574
1615341,-56,5509,397,570,-163,-529
1615359,-102,5429,377,565,-184,-575
1615375,-98,5357,383,566,-192,-594
1615392,-97,5267,381,567,-160,-604
1615408,-89,5247,378,563,-145,-596
1615425,-93,5109,356,565,-164,-571
1615442,-95,5071,351,561,-123,-590
1615458,-118,5019,365,562,-145,-591
1615490,-123,4892,369,568,-167,-580
1615510,-105,4819,381,569,-157,-604
1615523,-80,4755,386,568,-146,-575
1615541,-108,4708,359,566,-158,-607
1615558,-91,4654,363,566,-152,-606
1615574,-47,4582,373,564,-127,-561
1615622,-123,4383,347,576,-163,-605
1615640,-83,4360,367,569,-135,-565
1615657,-101,4279,362,564,-119,-602
1615674,-112,4206,367,569,-133,-561
1615690,-134,4121,362,566,-155,-627
1615707,-161,4065,357,568,-165,-611
1615740,-162,4039,352,565,-107,-587
1615757,-162,4039,352,565,-107,-587
1615773,-162,4039,352,565,-107,-587
1615790,-162,4039,352,565,-107,-587
1615807,-162,4039,352,565,-107,-587
1615823,-162,4039,352,565,-107,-587
1615840,-162,4039,352,565,-107,-587
1615857,-152,3971,380,565,-101,-619
1615873,-152,3971,380,565,-101,-619
1615890,-152,3971,380,565,-101,-619
1615907,-27,3705,385,569,6,-391
1615923,-89,3430,371,574,-46,-469
1615940,-100,3376,374,569,-23,-484
1615972,-85,3270,389,565,-24,-501
1615990,-134,3234,368,563,-80,-516
1616007,-105,3194,361,571,-56,-523
1616023,-136,3149,357,569,-96,-526
1616040,-128,3108,361,569,-61,-570
1616057,-126,3055,360,563,-87,-553
1616088,-118,3000,372,573,-79,-576
1616106,-115,2956,365,575,-51,-527
1616122,-102,2948,375,578,-61,-572
1616139,-91,2908,384,586,-57,-563
1616156,-144,2877,366,579,-67,-556
1616173,-110,2861,377,576,-62,-593
1616205,-103,2807,368,581,-25,-567
1616221,-96,2765,358,577,-23,-539
1616239,-101,2738,360,579,-76,-567
1616256,-94,2710,359,573,-31,-529
1616272,-123,2646,351,568,-70,-571
1616289,-101,2559,350,566,-37,-553
1616322,-88,2393,346,565,-49,-564
1616339,-114,2291,339,564,-36,-572
1616355,-78,2134,341,567,-27,-574
1616372,-134,1854,317,562,-55,-594
1616389,-158,1245,320,570,-84,-630
1616405,-163,2374,302,560,-84,-603
1616438,-154,2299,298,567,-118,-641
1616455,-173,2301,320,597,-117,-612
1616472,-179,2280,325,599,-94,-571
1616488,-206,2226,293,595,-117,-577
1616505,-164,1993,322,597,-71,-530
1616522,-185,1142,298,590,-120,-521
1616554,-195,628,305,597,-61,-456
1616572,-166,342,310,596,-54,-399
1616588,-221,-65,310,606,-164,-482
1616604,-254,-215,307,628,-127,-451
1616621,-220,-346,331,620,-89,-411
1616639,-182,-442,351,623,-52,-358
1616670,-250,-670,337,649,-145,-397
1616687,-256,-755,355,720,-159,-357
1616704,-216,-776,364,694,-108,-278
1616722,-200,-840,342,653,-93,-212
1616737,-159,-857,339,611,-88,-56
1616755,-58,-875,356,590,-57,32
1616787,-112,-998,351,655,-141,38
1616805,-167,-1078,339,659,-209,0
1616822,-154,-1114,364,660,-150,61
1616838,-153,-1167,294,608,-167,33
1616855,-192,-1191,165,590,-155,68
1616872,-203,-1247,148,557,-150,33
1616903,-204,-1299,110,492,-156,45
1616921,-218,-1322,164,588,-169,61
1616937,-210,-1319,175,580,-132,105
1616954,-209,-1343,189,588,-119,128
1616970,-213,-1343,182,591,-134,134
1616987,-180,-1354,188,579,-125,171
1617019,-214,-1369,168,570,-153,154
1617036,-191,-1371,157,563,-105,190
1617054,-211,-1374,154,554,-146,181
1617070,-219,-1379,158,549,-134,178
1617087,-210,-1386,155,553,-126,199
1617104,-234,-1416,159,545,-123,201
1617135,-180,-1367,154,548,-64,247
1617153,-191,-1378,150,551,-65,239
1617169,-203,-1381,155,549,-31,235
1617187,-215,-1381,156,559,-34,206
1617203,-208,-1373,163,574,13,265
1617220,-218,-1376,172,605,2,244
1617254,-218,-1411,171,593,-51,248
1617270,-216,-1423,173,574,-55,268
1617287,-234,-1411,177,609,-90,240
1617303,-244,-1462,204,646,-130,226
1617320,-264,-1452,201,639,-120,257
1617337,-257,-1453,190,619,-117,273
1617368,-246,-1439,134,510,-93,294
1617386,-248,-1411,114,460,-66,339
1617403,-247,-1427,154,531,-66,319
1617418,-245,-1409,184,548,-70,354
1617436,-214,-1413,160,546,-111,326
1617452,-174,-1396,194,546,-78,353
1617485,-183,-1373,186,543,-107,342
1617502,-192,-1375,173,545,-115,325
1617519,-202,-1355,180,561,-108,327
1617536,-194,-1328,199,572,-87,372
1617553,-193,-1321,190,574,-97,368
1617569,-171,-1294,197,583,-127,362
1617602,-156,-1294,201,587,-147,337
1617619,-128,-1280,216,578,-149,324
1617636,-164,-1286,217,586,-149,303
1617653,-125,-1257,216,580,-122,299
1617669,-147,-1244,216,574,-124,313
1617686,-112,-1230,214,575,-82,320
1617718,-89,-1197,245,575,-72,305
1617736,-143,-1230,193,567,-121,255
1617752,-125,-1183,212,568,-91,301
1617768,-101,-1156,238,568,-37,336
1617786,-148,-1161,190,564,-108,284
1617802,-165,-1157,206,570,-80,296
1617834,-134,-1106,228,572,-48,363
1617852,-183,-1147,196,555,-96,300
1617868,-214,-1163,182,565,-116,236
1617884,-197,-1133,194,568,-123,266
1617904,-125,-1105,208,576,-102,322
1617920,-165,-1091,211,565,-74,332
1617984,-230,-1067,211,569,-83,243
1618001,-222,-1040,216,568,-49,305
1618020,-213,-1007,203,535,-35,298
1618035,-240,-1010,190,533,-53,305
1618067,-178,-969,256,577,16,344
1618085,-193,-987,264,610,33,366
1618100,-194,-980,281,681,17,321
1618118,-209,-983,276,667,-30,295
1618134,-190,-958,260,606,-6,331
1618152,-212,-949,217,499,-11,323
1618183,-272,-949,215,553,-49,323
1618201,-263,-930,191,546,-74,292
1618250,-278,-919,180,537,-71,277
1618283,-213,-837,176,480,-3,350
1618316,-256,-814,183,484,-15,324
1618333,-233,-755,206,522,-32,319
1618350,-195,-715,202,495,-32,361
1618367,-186,-665,179,480,-123,321
1618416,-93,-578,215,509,-156,332
1618449,-154,-585,205,503,-120,312
1618483,-170,-608,192,504,-94,300
1618500,-175,-588,209,492,-88,339
1618517,-210,-610,167,488,-134,302
1618549,-164,-548,202,462,-137,404
1618583,-235,-503,183,485,-140,444
1618600,-186,-498,215,482,-114,518
1618633,-180,-464,259,534,-87,549
1618666,-266,-463,303,614,-113,547
1618699,-274,-509,251,532,-105,475
1618716,-258,-506,259,505,-74,501
1618733,-257,-447,248,468,-59,532
1618750,-238,-369,220,423,-81,561
1618767,-211,-299,222,400,-42,650
1618784,-207,-302,182,349,-23,671
1618815,-279,-430,172,347,-70,598
1618832,-300,-431,234,411,-76,561
1618850,-288,-459,214,406,-57,531
1618866,-297,-426,205,407,-25,529
1618883,-309,-394,199,408,-34,525
1618899,-321,-389,187,400,-23,526
1618931,-306,-343,213,443,0,586
1618949,-322,-299,229,463,-27,606
1618966,-335,-290,228,444,-21,582
1618983,-332,-225,212,427,-34,630
1618999,-339,-214,209,436,-26,630
1619016,-312,-182,241,448,-4,640
1619048,-263,-139,260,491,-12,612
1619065,-195,-116,284,505,5,680
1619083,-116,-90,311,532,29,765
1619099,-92,-50,330,542,40,787
1619115,-103,-37,332,557,43,789
1619132,-193,-49,321,565,4,717
1619164,-206,-11,328,570,8,692
1619182,-220,-21,314,570,-38,648
1619199,-234,-31,317,570,-35,611
1619215,-235,-35,311,568,-15,587
1619232,-271,-36,290,549,-6,494
1619248,-248,-37,294,530,1,458
1619281,-240,-65,307,537,19,497
1619298,-289,-99,283,541,-43,455
1619315,-237,-53,310,544,7,514
1619332,-248,-61,298,536,72,583
1619349,-239,-62,275,525,117,604
1619365,-294,-69,307,513,46,609
1619397,-221,-2,296,501,91,703
1619415,-248,1,280,506,87,721
1619430,-254,-13,270,510,79,658
1619447,-275,-28,275,512,60,630
1619465,-242,-2,298,513,93,616
1619481,-234,-12,295,507,65,588
1619513,-254,-7,240,492,56,460
1619530,-278,0,242,483,23,431
1619548,-274,17,234,480,66,413
1619565,-232,43,253,483,64,449
1619581,-303,4,211,478,45,379
1619598,-288,26,245,471,41,387
1619630,-273,11,244,477,108,412
1619647,-278,-5,237,491,67,373
1619664,-281,2,252,507,61,389
1619681,-289,-19,243,504,49,405
1619696,-237,10,278,503,101,454
1619714,-245,-4,252,499,49,422
1619747,-229,-29,261,506,58,474
1619764,-244,-27,264,508,64,478
1619781,-202,-27,282,518,77,445
1619798,-181,-26,279,528,58,443
1619814,-300,-37,288,537,87,414
1619831,-349,-45,314,538,59,381
1619863,-319,0,309,544,6,329
1619880,-318,19,317,551,-55,268
1619897,-311,60,304,553,-134,245
1619913,-320,60,304,556,-121,222
1619930,-309,76,321,567,-128,254
1619948,-266,102,328,564,-51,332
1619979,-283,129,324,566,-111,229
1619997,-363,82,303,562,-202,157
1620013,-262,148,333,563,-71,253
1620030,-287,144,335,566,-101,210
1620047,-273,163,328,562,-75,211
1620064,-284,137,319,546,-97,164
1620095,-254,158,325,536,-57,181
1620113,-284,118,299,529,-109,107
1620129,-236,137,324,543,-78,141
1620146,-232,151,313,549,-93,98
1620162,-273,149,281,550,-114,110
1620180,-283,189,301,545,-106,81
1620212,-226,232,326,558,-76,139
1620230,-207,230,334,563,-57,177
1620246,-196,232,346,564,-50,177
1620263,-174,253,356,564,-74,178
1620279,-148,252,346,565,-96,164
1620296,-114,293,360,565,-56,231
1620313,-171,244,343,552,-67,213
1620330,-113,263,338,566,-17,234
1620346,-161,245,323,561,-68,189
1620363,-143,256,349,563,-25,245
1620381,-127,275,351,555,-23,224
1620397,-121,289,351,556,-1,233
1620414,-121,256,354,555,-27,222
1620430,-129,236,349,553,5,226
1620446,-111,268,348,548,-5,192
1620464,-50,297,370,548,69,267
1620479,-157,236,333,556,-45,163
1620497,-108,239,342,556,1,160
1620513,-139,234,359,556,-36,136
1620530,-126,180,327,554,-41,129
1620546,-150,223,364,548,5,130
1620563,-157,198,319,550,-35,44
1620580,-178,197,334,562,-26,28
1620596,-212,182,314,566,-68,5
1620613,-189,194,323,566,-29,-6
1620630,-173,213,328,566,-16,7
1620646,-213,199,322,564,-32,-44
1620663,-182,213,322,559,-15,-28
1620680,-178,222,322,558,-34,-38
1620696,-186,235,325,565,-3,-55
1620713,-189,218,320,563,-17,-59
1620730,-171,218,323,564,-9,-63
1620747,-227,184,314,566,-77,-103
1620763,-216,209,301,567,-32,-122
1620780,-199,216,330,563,-23,-119
1620796,-198,213,299,571,-14,-133
1620813,-210,223,336,571,-36,-145
1620830,-216,215,314,574,-32,-145
1620847,-171,231,324,565,-26,-132
1620864,-152,266,332,560,10,-102
1620880,-192,241,320,558,40,-80
1620910,-159,267,334,551,-3,-36
1620928,-154,239,324,544,-6,-60
1620944,-103,277,343,546,30,-9
1620961,-95,270,350,557,58,19
1620978,-60,306,369,548,109,67
1620995,-83,267,334,542,64,7
1621011,-88,277,347,541,86,13
1621028,-65,293,333,542,64,3
1621045,-81,276,351,542,66,-30
1621061,-63,290,362,541,78,-4
1621079,-71,291,345,546,66,-57
1621095,-66,313,379,546,115,-33
1621112,-51,328,373,548,120,-50
1621129,-98,309,371,550,102,-92
1621145,-60,309,359,555,90,-93
1621162,-89,292,358,558,59,-104
1621178,-84,281,359,549,41,-185
1621196,-120,285,359,559,29,-186
1621213,-112,289,334,545,33,-216
1621229,-84,303,355,555,5,-260
1621259,-152,269,323,554,-39,-327
1621276,-128,290,310,556,-36,-332
1621294,-115,338,336,550,13,-305
1621310,-127,338,337,553,-6,-326
1621327,-121,334,300,548,13,-343
1621344,-168,311,303,547,-4,-398
1621361,-115,329,318,552,-33,-391
1621378,-163,340,299,549,11,-406
1621396,-114,332,309,544,-2,-409
1621412,-178,343,292,548,-4,-424
1621428,-160,342,295,547,-7,-445
1621445,-149,351,291,548,2,-440
1621461,-166,360,296,546,5,-432
1621478,-164,354,283,561,24,-412
1621495,-184,332,292,561,-46,-458
1621512,-161,380,293,561,32,-382
1621528,-136,386,304,560,25,-397
1621546,-147,383,301,553,35,-400
1621562,-148,406,306,550,63,-378
1621578,-148,402,307,551,29,-402
1621608,-188,384,297,556,36,-445
1621625,-179,373,288,557,45,-436
1621642,-141,378,301,550,69,-445
1621659,-181,355,286,561,23,-461
1621676,-188,353,291,556,33,-455
1621693,-221,312,286,552,21,-481
1621710,-203,327,294,552,-6,-475
1621726,-196,325,302,565,19,-434
1621744,-213,300,290,563,41,-484
1621759,-233,266,279,565,-32,-523
1621776,-204,284,295,563,59,-482
1621792,-195,282,303,565,57,-482
1621809,-232,256,288,565,30,-518
1621841,-241,225,274,567,-15,-563
1621858,-268,240,297,565,35,-531
1621876,-212,273,306,566,70,-515
1621891,-249,275,296,567,79,-513
1621909,-231,275,290,564,56,-533
1621926,-218,290,306,566,98,-523
1621958,-195,293,312,566,86,-513
1621976,-176,323,300,567,102,-500
1621993,-203,304,289,565,75,-513
1622010,-198,292,302,567,43,-505
1622027,-186,310,294,562,48,-486
1622043,-187,308,293,562,62,-472
1622074,-217,311,283,557,32,-478
1622092,-185,329,292,563,68,-396
1622107,-214,337,298,550,29,-410
1622125,-182,339,302,557,38,-430
1622143,-176,352,305,564,65,-383
1622159,-193,332,294,556,17,-429
1622191,-194,334,284,558,42,-468
1622208,-184,336,307,563,25,-460
1622225,-178,349,305,564,61,-468
1622242,-204,343,290,557,60,-492
1622258,-231,325,288,561,37,-529
1622275,-177,330,317,562,38,-531
1622291,-252,293,282,558,-6,-567
1622308,-231,292,292,562,4,-561
1622325,-242,304,300,556,2,-536
1622342,-224,314,305,562,13,-528
1622358,-210,325,309,566,0,-533
1622407,-230,311,298,563,-7,-517
1622439,-243,300,288,559,-32,-543
1622457,-245,302,284,566,2,-525
1622474,-239,306,284,559,-39,-572
1622491,-251,312,267,566,-29,-563
1622508,-240,336,289,566,-20,-543
1622524,-237,328,270,567,-21,-544
1622542,-246,327,263,564,-27,-547
1622558,-257,312,272,565,-30,-558
1622574,-230,336,285,568,-6,-525
1622590,-272,325,266,564,-37,-541
1622608,-240,327,265,570,-23,-540
1622624,-243,343,264,568,-50,-542
1622640,-222,318,273,571,-20,-524
1622672,-239,327,275,567,-27,-529
1622690,-227,348,283,565,-26,-510
1622707,-212,355,289,565,-15,-516
1622723,-242,357,275,565,-64,-551
1622740,-215,361,283,564,-39,-562
1622757,-206,370,292,568,-49,-531
1622790,-244,333,247,566,-126,-592
1622809,-242,357,244,564,-101,-603
1622826,-244,366,252,563,-129,-598
1622842,-245,374,254,566,-90,-562
1622859,-202,369,263,568,-116,-558
1622875,-211,394,264,563,-89,-589
1622892,-192,367,264,569,-99,-547
1622909,-146,386,288,566,-71,-515
1622926,-180,366,275,565,-85,-567
1622942,-154,384,280,564,-48,-532
1622959,-163,373,273,567,-98,-531
1622975,-180,355,259,561,-86,-558
1622992,-219,344,233,565,-123,-563
1623022,-146,360,274,567,-76,-493
1623040,-206,354,255,563,-128,-589
1623056,-173,365,245,560,-114,-552
1623073,-183,356,251,565,-124,-553
1623090,-186,376,264,562,-159,-561
1623107,-149,382,274,565,-147,-543
1623123,-164,361,257,560,-151,-544
1623141,-212,350,259,564,-188,-575
1623157,-180,368,273,566,-171,-564
1623173,-165,361,257,565,-152,-564
1623190,-201,358,258,563,-171,-574
1623206,-202,354,245,564,-170,-561
1623223,-205,352,247,563,-190,-605
1623240,-205,349,240,564,-189,-601
1623257,-220,338,233,566,-189,-630
1623273,-223,344,232,564,-200,-627
1623290,-208,354,245,565,-156,-606
1623306,-180,352,239,567,-183,-643
1623324,-213,358,241,563,-161,-629
1623340,-184,366,247,564,-188,-624
1623357,-223,351,229,561,-178,-631
1623373,-169,369,256,559,-179,-620
1623390,-196,372,219,558,-162,-626
1623407,-216,349,229,564,-190,-625
1623423,-199,371,235,559,-186,-608
1623440,-204,389,230,555,-197,-629
1623457,-184,381,242,557,-193,-635
1623488,-179,381,243,565,-186,-625
1623505,-193,386,245,562,-175,-597
1623522,-174,381,248,564,-155,-595
1623538,-189,379,221,563,-154,-607
1623555,-187,363,237,560,-180,-621
1623572,-200,367,225,563,-178,-599
1623604,-179,413,244,556,-184,-593
1623621,-188,392,243,564,-188,-601
1623637,-194,414,239,553,-179,-602
1623655,-161,412,247,561,-180,-567
1623671,-188,430,232,561,-150,-570
1623688,-176,439,255,561,-163,-567
1623721,-164,443,250,561,-151,-563
1623738,-151,442,259,561,-116,-546
1623754,-169,442,234,563,-173,-578
1623771,-195,412,215,560,-184,-596
1623788,-181,410,239,563,-178,-586
1623805,-197,430,218,554,-145,-570
1623836,-208,415,221,563,-208,-605
1623853,-204,452,235,562,-174,-592
1623870,-215,417,224,567,-190,-592
1623888,-218,415,216,556,-177,-565
1623904,-237,409,212,569,-193,-594
1623921,-181,429,226,555,-178,-548
1623953,-207,419,204,555,-197,-538
1623971,-253,365,190,552,-259,-624
1623988,-250,378,215,559,-261,-624
1624005,-239,382,201,564,-246,-619
1624021,-260,376,217,563,-235,-614
1624037,-258,377,198,555,-277,-624
1624053,-269,362,205,550,-273,-624
1624070,-259,365,205,552,-281,-648
1624087,-235,375,215,559,-243,-590
1624104,-295,379,196,561,-261,-629
1624120,-257,381,217,550,-249,-620
1624137,-294,376,209,550,-239,-602
1624153,-298,366,187,549,-283,-637
1624185,-286,376,204,552,-248,-620
1624202,-263,387,217,556,-239,-595
1624220,-268,365,207,551,-277,-616
1624238,-280,392,213,552,-261,-621
1624253,-248,395,212,549,-268,-599
1624269,-226,413,235,551,-235,-566
1624302,-55,436,252,554,-224,-417
1624320,-18,478,261,555,-170,-351
1624335,-54,434,248,548,-192,-437
1624352,-108,438,232,550,-194,-463
1624369,-116,440,244,550,-172,-471
1624386,-147,440,235,556,-159,-531
1624403,-139,472,255,561,-153,-542
1624419,-184,433,227,554,-185,-577
1624437,-246,404,190,555,-242,-656
1624453,-260,382,194,555,-254,-669
1624470,-241,386,197,559,-223,-650
1624486,-278,379,185,553,-213,-658
1624503,-254,375,184,552,-246,-692
1624534,-286,357,183,557,-237,-703
1624552,-271,366,188,555,-232,-688
1624568,-261,360,193,545,-219,-692
1624586,-265,363,191,558,-273,-720
1624603,-273,372,185,550,-230,-683
1624619,-293,350,196,547,-246,-706
1624651,-280,376,199,557,-237,-687
1624669,-277,357,188,545,-265,-691
1624685,-280,374,184,549,-241,-716
1624702,-261,386,181,543,-236,-717
1624719,-266,384,183,544,-218,-651
1624737,-321,351,181,545,-267,-710
1624767,-282,380,187,546,-251,-679
1624784,-332,360,174,550,-270,-701
1624801,-326,356,184,546,-272,-705
1624818,-335,345,163,548,-316,-738
1624835,-312,381,189,551,-291,-713
1624853,-340,360,174,558,-276,-747
1624885,-341,379,187,560,-277,-724
1624901,-290,380,191,565,-248,-680
1624918,-310,388,198,564,-225,-658
1624935,-276,381,195,556,-247,-659
1624951,-309,382,158,552,-256,-679
1624968,-285,383,52,555,-249,-666
1625000,-276,371,87,546,-245,-664
1625017,-280,352,83,547,-266,-692
1625035,-286,367,90,547,-238,-676
1625051,-272,380,91,550,-249,-670
1625069,-257,382,94,547,-242,-649
1625085,-285,370,96,546,-287,-688
1625116,-243,370,99,544,-213,-632
1625134,-282,355,88,548,-217,-661
1625151,-253,361,96,547,-246,-644
1625168,-277,349,92,550,-264,-690
1625184,-280,352,97,540,-246,-694
1625201,-260,363,95,549,-219,-666
1625233,-258,346,92,548,-223,-648
1625250,-252,352,95,550,-204,-668
1625268,-252,365,91,573,-182,-653
1625283,-273,353,90,602,-245,-691
1625301,-240,389,120,609,-176,-658
1625317,-212,436,122,624,-184,-664
1625334,-217,441,123,627,-188,-683
1625366,-224,456,121,659,-224,-655
1625384,-202,492,120,669,-183,-579
1625399,-145,507,142,682,-181,-511
1625417,-85,548,158,702,-149,-403
1625434,-85,536,173,704,-153,-371
1625450,-52,535,190,722,-152,-362
1625482,-188,500,163,720,-199,-467
1625499,-106,575,217,725,-163,-417
1625517,-196,524,157,730,-198,-493
1625533,-194,554,162,733,-198,-459
1625550,-271,511,173,732,-220,-445
1625567,-254,484,170,734,-229,-446
1625599,-244,474,180,734,-247,-478
1625617,-224,484,185,728,-270,-464
1625633,-253,496,177,722,-256,-499
1625650,-240,497,179,696,-249,-501
1625666,-268,434,155,710,-281,-536
1625684,-213,484,241,735,-227,-470
1625715,-239,520,251,758,-259,-504
1625733,-220,575,258,763,-271,-527
1625749,-225,622,250,791,-260,-544
1625766,-227,656,260,789,-248,-536
1625783,-208,737,260,765,-218,-517
1625800,-244,801,240,735,-272,-577
1625831,-221,898,265,748,-227,-495
1625848,-251,952,251,740,-214,-495
1625866,-257,929,252,753,-221,-481
1625882,-244,920,263,752,-200,-462
1625898,-274,929,228,756,-215,-498
1625915,-274,862,242,749,-229,-480
1625948,-254,950,264,757,-164,-332
1625966,-252,839,237,748,-184,-338
1625983,-239,798,250,748,-228,-345
1625999,-230,814,260,749,-137,-296
1626016,-195,794,252,749,-172,-285
1626033,-263,778,222,737,-203,-285
1626064,-189,913,267,733,-159,-191
1626081,-227,853,253,730,-165,-221
1626099,-160,842,262,729,-150,-152
1626115,-176,821,244,730,-169,-110
1626132,-118,839,267,739,-149,-13
1626149,-58,892,274,730,-124,98
1626181,-38,979,288,733,-128,199
1626197,-19,1008,290,731,-89,201
1626214,-97,930,265,735,-196,126
1626231,-92,884,286,733,-174,175
1626248,-74,886,296,729,-158,227
1626266,-93,854,292,724,-207,220
1626282,-77,860,285,712,-169,334
1626298,-129,835,276,718,-249,313
1626315,-92,839,272,718,-139,413
1626332,-183,779,242,721,-221,314
1626348,-195,830,278,716,-154,343
1626366,-160,805,273,718,-176,397
1626383,-187,816,266,717,-170,406
1626414,-248,734,267,718,-225,380
1626432,-171,802,272,721,-150,533
1626447,-183,771,262,721,-160,538
1626465,-204,768,263,700,-186,509
1626481,-205,743,250,701,-195,510
1626498,-178,762,260,706,-166,510
1626530,-210,752,249,707,-195,484
1626547,-215,713,264,705,-233,406
1626563,-217,710,245,706,-201,446
1626581,-225,702,258,706,-250,382
1626598,-159,713,257,703,-213,441
1626615,-171,724,271,701,-203,372
1626647,-186,676,245,694,-209,376
1626664,-187,671,263,690,-245,340
1626680,-144,718,277,696,-228,370
1626697,-189,683,251,697,-247,406
1626715,-184,660,272,693,-265,393
1626731,-233,633,229,693,-288,359
1626762,-222,594,235,695,-229,427
1626781,-211,588,237,687,-254,411
1626797,-183,629,276,699,-168,480
1626814,-149,601,244,700,-267,504
1626831,-222,532,243,692,-267,427
1626847,-185,536,248,699,-267,355
1626879,-142,503,245,699,-250,441
1626897,-138,523,273,693,-191,436
1626913,-113,557,281,697,-179,481
1626930,-164,492,247,692,-252,349
1626947,-128,553,296,688,-179,430
1626964,-119,501,273,676,-230,329
1626995,-103,567,298,678,-190,360
1627014,-118,562,250,668,-176,440
1627029,-85,593,287,684,-148,437
1627047,-100,595,273,685,-174,366
1627062,-146,571,259,689,-179,356
1627080,-90,600,280,688,-111,367
1627112,-77,608,293,682,-162,305
1627129,-57,595,305,684,-155,327
1627146,-18,561,299,673,-188,303
1627164,79,593,330,678,-127,380
1627180,30,521,320,672,-180,257
1627201,34,564,324,672,-128,236
1627228,-58,544,331,690,-144,91
1627246,-93,517,297,691,-165,18
1627263,-90,487,282,674,-215,-73
1627279,-158,473,294,678,-162,-57
1627297,-80,507,327,689,-123,-32
1627312,-132,499,304,679,-130,-97
1627329,-119,501,301,689,-154,-80
1627362,-162,520,296,672,-160,-147
1627379,-122,571,326,675,-111,-122
1627396,-115,548,303,673,-111,-151
1627412,-160,521,309,668,-190,-246
1627429,-115,547,336,671,-107,-138
1627446,-172,512,308,688,-172,-293
1627479,-122,594,350,695,-134,-318
1627495,-82,604,365,698,-89,-287
1627511,-120,590,364,702,-90,-300
1627528,-118,600,376,714,-117,-317
1627545,-119,587,377,721,-130,-276
1627562,-107,619,372,698,-119,-304
1627594,-134,608,385,745,-156,-311
1627612,-141,603,374,757,-156,-324
1627629,-112,592,387,750,-145,-303
1627646,-128,637,388,751,-131,-285
1627662,-132,612,374,743,-157,-307
1627678,-109,641,387,737,-158,-292
1627695,-43,681,411,745,-118,-190
1627712,3,723,413,737,-120,-171
1627730,10,754,404,739,-124,-147
1627746,-17,776,381,754,-124,-171
1627762,-76,830,384,741,-181,-242
1627779,-94,908,386,741,-161,-266
1627795,-121,924,373,736,-198,-287
1627828,-151,989,366,731,-175,-330
1627844,-105,1017,383,737,-138,-263
1627862,-115,1005,382,739,-95,-184
1627878,-141,957,381,741,-147,-253
1627895,-164,916,359,741,-163,-284
1627911,-153,939,380,734,-148,-230
1627943,-155,1046,378,741,-120,-207
1627961,-156,1039,374,729,-93,-224
1627977,-147,1038,357,732,-139,-248
1627994,-197,1009,347,721,-147,-272
1628010,-184,995,333,723,-160,-281
1628028,-176,974,340,700,-142,-250
1628060,-199,931,335,706,-158,-260
1628077,-180,909,342,707,-159,-176
1628094,-149,895,352,700,-115,-177
1628110,-170,923,345,703,-152,-194
1628127,-228,831,286,685,-196,-227
1628143,-95,947,363,706,-92,-164
1628176,-200,957,324,688,-121,-223
1628194,-213,922,316,683,-165,-260
1628210,-194,924,322,675,-116,-269
1628227,-189,836,316,686,-137,-267
1628244,-128,845,344,685,-118,-296
1628261,-138,817,327,694,-117,-235
1628293,-178,808,319,677,-114,-229
1628310,-146,829,323,653,-105,-236
1628327,-167,770,288,633,-135,-308
1628343,-156,806,312,656,-100,-288
1628360,-158,765,300,649,-104,-315
1628377,-120,824,326,653,-44,-229
1628409,-141,773,319,674,-88,-313
1628426,-155,783,304,688,-84,-289
1628444,-155,749,303,690,-105,-328
1628460,-174,752,289,669,-82,-349
1628476,-150,755,308,685,-124,-387
1628493,-119,773,322,681,-57,-303
1628525,-190,743,314,694,-105,-399
1628542,-157,745,339,709,-111,-399
1628559,-171,763,397,706,-130,-410
1628576,-168,817,496,689,-124,-424
1628592,-129,926,548,685,-61,-334
1628609,-119,904,542,683,-100,-407
1628642,-126,904,582,685,-123,-444
1628658,-89,925,588,688,-63,-406
1628676,-97,936,698,685,-64,-393
1628692,-97,918,709,685,-29,-364
1628709,-90,921,700,689,-52,-380
1628726,-82,950,697,679,5,-313
1628758,-61,971,717,657,-1,-307
1628776,-55,954,685,659,-14,-319
1628793,-76,964,690,640,-26,-328
1628809,-66,937,679,613,-18,-266
1628825,-77,919,678,622,-36,-336
1628842,-64,954,692,601,44,-225
1628875,-107,885,658,561,-47,-314
1628892,-100,889,648,550,-25,-285
1628909,-94,873,658,534,-32,-326
1628926,-78,850,661,526,-59,-310
1628943,-83,814,650,517,-61,-340
1628959,-92,838,659,527,-63,-357
1628990,-26,831,672,535,-26,-362
1629007,-38,798,648,537,-38,-394
1629024,-22,817,658,540,-21,-362
1629041,-17,779,653,535,-22,-389
1629059,17,812,654,542,-29,-404
1629075,10,782,636,536,-34,-371
1629108,8,749,654,532,-53,-376
1629125,52,769,638,529,-74,-369
1629142,130,786,663,540,-30,-310
1629158,126,750,655,537,-99,-318
1629175,176,773,656,546,-46,-281
1629192,131,729,658,539,-62,-292
1629223,98,699,632,545,-93,-381
1629241,39,685,635,562,-58,-354
1629257,45,683,621,557,-60,-396
1629275,-6,629,622,557,-117,-410
1629290,1,644,621,554,-91,-424
1629307,24,659,625,549,-64,-328
1629324,-6,656,618,536,-112,-410
1629342,-11,655,604,533,-92,-412
1629358,-41,638,604,531,-126,-480
1629374,-12,667,628,540,-83,-382
1629391,-58,652,607,536,-105,-452
1629407,-24,663,625,539,-65,-441
1629424,-31,655,587,535,-100,-454
1629456,6,683,597,539,-61,-520
1629474,-8,688,588,545,-38,-500
1629491,-24,632,561,563,-38,-546
1629507,-13,632,590,563,-31,-531
1629524,-11,628,588,582,-32,-551
1629541,-2,594,590,564,-21,-562
1629573,4,588,591,581,-54,-570
1629590,30,639,590,577,-31,-568
1629608,-48,564,555,559,-94,-616
1629624,-35,574,560,559,-71,-595
1629640,-50,588,571,549,-58,-541
1629657,-5,588,569,547,-31,-522
1629689,-44,566,551,541,-101,-570
1629707,2,584,585,541,-49,-523
1629723,-8,572,560,542,-50,-547
1629741,-14,567,543,538,-74,-527
1629756,-10,537,570,546,-89,-541
1629774,-41,514,548,537,-83,-556
1629806,10,543,559,531,-75,-560
1629823,-54,528,549,529,-95,-572
1629840,15,547,563,528,-52,-563
1629856,26,546,568,531,-63,-524
1629873,41,528,570,540,-77,-555
1629890,73,547,588,544,-53,-568
1629922,69,517,541,541,-109,-600
1629939,6,494,533,542,-116,-693
1629955,36,503,545,528,-87,-673
1629973,20,502,534,519,-116,-718
1629990,-10,485,529,510,-118,-691
1630006,-1,500,552,513,-130,-717
1630039,30,506,539,510,-147,-753
1630056,17,512,530,510,-95,-747
1630073,45,534,543,517,-94,-722
1630090,55,540,542,509,-49,-705
1630106,47,536,537,518,-98,-719
1630123,26,530,536,509,-88,-731
1630155,31,540,510,504,-81,-692
1630173,3,531,507,519,-105,-712
1630189,32,514,509,511,-111,-750
1630206,54,546,518,509,-80,-673
1630222,8,514,505,516,-112,-725
1630239,21,518,495,523,-127,-750
1630271,0,541,510,518,-132,-730
1630289,28,538,509,505,-117,-711
1630305,25,542,514,510,-129,-713
1630322,42,534,506,504,-95,-667
1630339,-7,553,513,518,-109,-691
1630356,4,588,538,517,-117,-683
1630388,-43,546,507,511,-99,-680
1630406,96,659,576,523,19,-603
1630422,54,665,566,512,32,-594
1630439,65,667,556,523,30,-626
1630455,62,664,564,509,7,-611
1630472,18,662,557,519,46,-609
1630504,26,664,544,520,27,-615
1630520,26,690,565,516,32,-616
1630537,-23,668,531,505,-21,-659
1630555,-2,750,559,491,5,-660
1630571,5,751,536,483,-29,-647
1630588,-6,759,541,483,-40,-655
1630620,-7,740,535,489,-38,-684
1630638,-21,780,536,496,-36,-708
1630655,-29,775,532,473,-45,-726
1630671,-3,774,526,466,-27,-733
1630688,-64,712,501,469,-57,-810
1630705,-49,669,510,473,-67,-882
1630736,-61,660,506,460,-37,-884
1630753,-45,664,509,443,-35,-919
1630770,-37,659,505,426,-34,-862
1630788,-87,646,483,417,-70,-918
1630805,-61,656,486,408,-38,-898
1630820,-63,659,482,411,-31,-904
1630853,-96,663,470,423,-45,-857
1630871,-94,656,467,422,-70,-880
1630888,-87,682,477,432,-31,-771
1630904,-68,690,477,434,-28,-788
1630922,-129,682,469,445,-56,-807
1630937,-118,722,470,454,-39,-773
1630970,-102,736,476,456,-26,-719
1630987,-99,741,469,452,-37,-769
1631004,-77,731,476,458,-30,-700
1631021,-101,721,472,470,-43,-773
1631037,-88,725,465,475,-23,-731
1631054,-84,731,475,493,-28,-747
1631086,-89,727,450,501,-37,-774
1631103,-105,752,478,521,4,-697
1631119,-67,767,472,520,-27,-719
1631136,-90,724,454,526,-55,-746
1631154,-111,719,445,532,-86,-758
1631170,-118,725,453,539,-47,-748
1631202,-96,732,462,567,-40,-705
1631219,-101,720,470,556,-97,-797
1631237,-96,727,472,535,-89,-746
1631255,-87,722,466,535,-72,-742
1631270,-87,722,466,535,-72,-742
1631287,-125,696,439,543,-108,-810
1631303,-88,735,472,540,-25,-734
1631320,-125,709,440,533,-65,-782
1631336,-121,699,435,528,-89,-796
1631353,-131,706,440,503,-97,-803
1631370,-86,723,433,496,-80,-767
1631387,-133,687,417,476,-107,-837
1631403,-166,676,397,476,-139,-885
1631419,-146,690,399,468,-127,-843
1631436,-181,681,377,466,-128,-886
1631453,-159,717,384,452,-122,-873
1631471,-152,711,384,449,-122,-856
1631487,-134,725,398,457,-147,-917
1631504,-78,739,427,454,-90,-844
1631523,-105,736,407,465,-90,-854
1631552,-105,785,418,449,-92,-824
1631568,-111,802,412,445,-109,-834
1631585,-113,759,404,449,-108,-856
1631602,-95,751,405,445,-54,-828
1631620,-174,721,379,440,-135,-906
1631636,-116,778,408,449,-88,-829
1631652,-95,800,418,453,-91,-824
1631669,-142,743,399,446,-114,-886
1631686,-117,820,426,435,-91,-869
1631703,-147,810,422,427,-111,-906
1631720,-132,918,437,424,-70,-873
1631736,-114,937,415,428,-104,-924
1631753,-128,939,416,442,-143,-927
1631770,-135,919,427,453,-122,-950
1631786,-87,916,449,471,-115,-917
1631802,-149,869,429,458,-174,-928
1631820,-119,924,427,460,-208,-900
1631837,-85,1033,469,468,-111,-812
1631852,-29,1047,453,469,-77,-785
1631869,-112,1067,437,457,-147,-844
1631885,-123,1076,404,460,-197,-877
1631903,-149,1078,409,452,-157,-875
1631919,-142,1042,395,453,-179,-903
1631936,-153,944,408,452,-151,-902
1631953,-140,915,379,450,-178,-957
1631970,-151,850,81,463,-183,-1033
1631986,-163,865,130,469,-146,-1035
1632017,-160,807,142,457,-159,-1047
1632033,-141,814,154,459,-151,-1050
1632051,-148,842,154,467,-189,-1047
1632067,-142,851,165,472,-141,-926
1632085,-122,847,171,476,-140,-857
1632102,-99,891,203,473,-119,-740
1632118,-51,905,201,454,-101,-651
1632135,-88,907,189,458,-106,-593
1632152,-128,880,178,460,-132,-608
1632169,-122,907,193,454,-87,-590
1632184,-128,884,190,469,-138,-678
1632201,-141,873,197,464,-160,-719
1632218,-205,858,177,451,-120,-689
1632249,-159,900,204,461,-67,-628
1632267,-185,882,191,459,-96,-670
1632284,-184,881,187,457,-93,-660
1632301,-206,917,202,454,-63,-661
1632317,-179,1008,184,452,-87,-652
1632334,-217,1004,182,444,-130,-680
1632351,-226,1041,182,444,-125,-673
1632368,-187,1104,201,445,-79,-652
1632385,-186,1175,197,449,-94,-639
1632401,-218,1334,206,450,-92,-619
1632417,-205,1440,194,459,-127,-596
1632435,-188,1343,216,463,-120,-540
1632451,-153,1317,218,465,-121,-538
1632468,-160,1295,213,458,-112,-528
1632485,-164,1284,215,452,-114,-534
1632501,-206,1251,178,451,-148,-539
1632518,-162,1300,196,456,-101,-507
1632535,-112,1379,211,458,-110,-461
1632551,-108,1380,210,453,-83,-427
1632568,-123,1377,192,453,-127,-434
1632584,-130,1363,203,452,-153,-429
1632601,-98,1410,211,455,-94,-347
1632618,-111,1379,223,452,-119,-346
1632634,-68,1437,204,445,-113,-269
1632651,-130,1456,215,448,-113,-238
1632667,-146,1362,189,443,-169,-202
1632684,-107,1339,212,446,-149,-89
1632701,-168,1237,204,447,-191,-161
1632718,-123,1257,217,444,-182,-124
1632734,-151,1202,208,430,-187,-167
1632751,-180,1142,184,415,-206,-198
1632768,-247,1100,176,420,-223,-281
1632784,-168,1099,191,423,-227,-276
1632800,-188,1138,192,428,-210,-267
1632818,-246,1086,187,423,-258,-311
1632834,-287,1108,149,413,-270,-334
1632851,-197,1189,206,415,-222,-244
1632868,-219,1161,184,414,-257,-278
1632884,-220,1221,185,408,-247,-219
1632901,-228,1219,185,403,-266,-236
1632918,-251,1219,155,399,-255,-235
1632949,-211,1223,175,420,-247,-276
1632966,-272,1183,192,444,-284,-309
1632982,-234,1168,214,447,-267,-277
1632999,-260,1185,205,444,-262,-295
1633015,-196,1216,217,433,-262,-253
1633033,-267,1135,194,444,-270,-254
1633050,-214,1083,218,433,-237,-219
1633067,-278,986,201,443,-252,-225
1633082,-244,901,178,431,-256,-205
1633099,-248,825,206,433,-200,-189
1633116,-223,869,193,438,-210,-206
1633132,-280,826,192,443,-218,-279
1633149,-234,791,213,440,-218,-270
1633166,-274,783,207,432,-231,-247
1633182,-148,850,255,438,-145,-134
1633200,-14,866,265,444,-131,46
1633216,57,870,278,435,-74,161
1633233,111,895,298,436,-69,222
1633249,74,873,272,428,-51,267
1633266,58,901,284,428,-52,216
1633298,-21,905,271,434,-48,133
1633315,-98,857,245,429,-110,64
1633332,-141,809,215,414,-143,-66
1633348,-137,800,228,418,-113,-89
1633365,-151,777,240,429,-108,-135
1633382,-152,762,226,429,-121,-182
1633398,-132,758,234,425,-131,-265
1633415,-208,673,207,422,-188,-349
1633432,-159,643,252,434,-132,-347
1633449,-161,582,221,433,-146,-423
1633465,-172,561,224,436,-177,-440
1633481,-232,491,173,437,-252,-573
1633499,-155,565,241,441,-157,-474
1633515,-223,523,212,448,-235,-592
1633533,-234,503,213,437,-302,-630
1633549,-217,568,228,442,-214,-535
1633565,-207,571,233,443,-206,-533
1633582,-214,592,253,443,-211,-446
1633599,-247,538,231,444,-263,-518
1633615,-181,602,273,427,-179,-389
1633632,-252,567,205,410,-182,-439
1633649,-205,586,231,413,-185,-424
1633666,-215,588,219,409,-206,-410
1633682,-250,594,216,408,-217,-426
1633699,-254,656,218,417,-220,-405
1633715,-269,696,215,402,-227,-384
1633732,-226,728,227,410,-196,-390
1633748,-218,825,254,414,-125,-297
1633765,-217,785,216,412,-230,-380
1633782,-220,875,231,415,-153,-340
1633798,-268,914,219,413,-243,-420
1633815,-243,1002,214,416,-208,-404
1633832,-229,1082,248,417,-218,-427
1633849,-209,1112,235,417,-195,-363
1633866,-227,1151,245,410,-154,-387
1633883,-221,1110,214,417,-203,-433
1633899,-250,1024,236,410,-211,-456
1633915,-248,1047,201,411,-253,-520
1633932,-264,1190,208,408,-255,-519
1633949,-214,1228,214,402,-245,-453
1633965,-186,1249,232,409,-200,-421
1633996,-199,1205,207,400,-212,-446
1634013,-256,1168,185,399,-286,-539
1634030,-187,1207,208,395,-226,-424
1634047,-285,1180,177,395,-252,-503
1634063,-261,1130,174,398,-286,-546
1634080,-309,1048,191,397,-230,-520
1634097,-229,976,180,402,-197,-511
1634113,-309,876,187,403,-219,-578
1634130,-259,879,192,401,-181,-502
1634146,-339,836,166,392,-234,-541
1634163,-254,787,200,395,-189,-431
1634180,-293,782,175,399,-220,-505
1634196,-286,805,187,391,-164,-394
1634214,-254,782,175,388,-224,-504
1634229,-297,869,184,387,-154,-333
1634246,-277,814,171,398,-202,-413
1634263,-279,836,146,400,-147,-330
1634280,-262,817,155,412,-188,-398
1634296,-306,770,108,404,-171,-350
1634313,-299,772,126,413,-162,-395
1634345,-339,699,87,392,-184,-434
1634362,-271,741,113,397,-175,-412
1634379,-297,779,117,397,-152,-377
1634396,-292,802,99,397,-195,-427
1634413,-356,790,85,388,-163,-361
1634429,-327,801,109,404,-213,-423
1634461,-286,928,145,401,-149,-339
1634479,-328,916,87,388,-158,-329
1634495,-267,928,151,389,-125,-301
1634512,-253,886,159,382,-126,-296
1634529,-261,835,157,384,-165,-282
1634546,-245,825,192,393,-116,-273
1634562,-241,833,160,394,-152,-298
1634579,-251,837,154,398,-167,-254
1634595,-280,806,153,390,-153,-320
1634612,-254,815,157,397,-150,-262
1634629,-254,778,160,403,-177,-330
1634645,-263,743,136,394,-191,-342
1634663,-275,756,149,381,-191,-361
1634679,-257,786,157,388,-133,-297
1634695,-228,786,137,380,-162,-323
1634712,-223,801,161,374,-135,-283
1634728,-299,738,116,380,-204,-405
1634746,-264,764,122,381,-209,-415
1634762,-225,796,159,384,-138,-331
1634780,-222,819,162,393,-165,-408
1634810,-219,781,160,401,-179,-413
1634828,-247,742,150,403,-268,-432
1634845,-239,753,182,413,-205,-427
1634860,-206,719,155,415,-242,-399
1634878,-299,712,159,410,-254,-412
1634894,-203,761,164,416,-140,-322
1634912,-173,770,189,417,-129,-241
1634928,-136,783,203,419,-154,-282
1634945,-30,758,205,419,-128,-172
1634962,-59,785,226,419,-82,-195
1634980,-82,743,201,417,-145,-207
1634995,-152,684,179,409,-168,-317
1635012,-145,733,196,408,-100,-250
1635043,-251,723,210,413,-102,-429
1635061,-213,677,165,397,-170,-367
1635078,-266,654,152,390,-172,-451
1635094,-280,662,157,389,-216,-466
1635111,-310,675,154,386,-233,-547
1635127,-228,712,178,388,-195,-487
1635160,-271,660,171,387,-212,-571
1635177,-303,615,145,376,-245,-618
1635194,-321,570,149,381,-278,-756
1635210,-269,563,167,377,-305,-729
1635227,-308,527,146,383,-302,-797
1635244,-238,590,190,385,-242,-754
1635276,-290,612,190,388,-282,-834
1635293,-277,604,185,389,-303,-824
1635309,-267,639,186,386,-352,-829
1635327,-245,644,191,394,-292,-787
1635344,-233,665,203,389,-308,-835
1635360,-267,618,172,391,-286,-847
1635377,-270,582,162,388,-318,-831
1635393,-292,517,171,394,-313,-849
1635410,-254,428,193,392,-280,-783
1635427,-270,351,178,395,-304,-776
1635443,-283,392,184,392,-302,-773
1635460,-238,390,185,390,-219,-703
1635477,-257,382,158,386,-266,-768
1635508,-197,444,178,383,-218,-694
1635526,-212,398,183,384,-236,-695
1635542,-229,380,152,380,-295,-797
1635560,-200,372,149,378,-294,-745
1635575,-212,397,157,381,-293,-845
1635593,-212,417,171,376,-276,-803
1635609,-183,382,162,388,-321,-854
1635626,-218,398,181,378,-235,-800
1635643,-187,408,185,383,-263,-810
1635660,-206,405,186,372,-281,-800
1635676,-210,430,188,370,-262,-790
1635693,-209,476,172,356,-310,-815
1635709,-153,567,204,368,-286,-731
1635727,-157,561,190,383,-287,-743
1635744,-59,546,230,387,-285,-650
1635760,-59,595,237,388,-208,-612
1635778,-161,582,227,386,-160,-679
1635793,-94,577,206,386,-163,-548
1635810,-203,577,214,385,-154,-658
1635826,-193,528,179,384,-149,-677
1635844,-217,545,205,386,-202,-655
1635860,-289,474,155,382,-214,-752
1635877,-287,488,175,388,-180,-648
1635893,-239,476,152,383,-169,-670
1635910,-259,473,162,378,-178,-673
1635927,-300,503,165,378,-190,-650
1635943,-297,548,149,377,-266,-706
1635974,-281,617,172,386,-210,-612
1635991,-261,629,194,382,-174,-553
1636008,-238,623,201,377,-146,-502
1636025,-243,611,187,373,-175,-510
1636042,-277,588,183,369,-177,-566
1636058,-176,618,209,364,-156,-522
1636090,-257,567,185,361,-201,-556
1636108,-234,565,203,361,-183,-536
1636124,-279,539,193,359,-218,-640
1636141,-237,595,205,365,-204,-579
1636158,-307,614,196,364,-226,-619
1636175,-254,670,217,368,-202,-552
1636207,-244,759,223,372,-189,-547
1636225,-292,785,198,354,-224,-602
1636241,-305,811,227,376,-204,-582
1636258,-269,890,213,370,-200,-561
1636274,-294,926,217,367,-202,-564
1636291,-239,1041,227,372,-183,-555
1636324,-230,1210,248,376,-143,-490
1636341,-230,1166,226,384,-177,-477
1636358,-200,1144,262,386,-173,-439
1636374,-239,1100,230,374,-166,-424
1636391,-253,1086,205,370,-196,-478
1636408,-239,1080,185,352,-142,-415
1636424,-261,1008,182,371,-198,-448
1636441,-268,940,179,371,-182,-451
1636458,-267,933,207,360,-253,-371
1636474,-268,890,201,366,-224,-475
1636492,-184,912,222,370,-163,-309
1636507,-235,847,195,372,-183,-372
1636525,-266,812,198,359,-235,-450
1636556,-241,755,218,375,-229,-425
1636574,-280,706,182,370,-237,-416
1636591,-227,730,189,359,-223,-359
1636607,-309,670,187,371,-269,-491
1636624,-259,712,186,378,-226,-405
1636640,-285,663,184,381,-295,-445
1636657,-249,695,180,376,-210,-405
1636674,-248,723,212,377,-202,-432
1636690,-289,680,171,377,-261,-473
1636707,-289,686,186,370,-248,-473
1636724,-267,692,208,361,-219,-484
1636741,-256,692,198,360,-188,-454
1636757,-266,657,194,355,-239,-501
1636773,-287,623,177,354,-233,-540
1636790,-294,594,187,369,-229,-562
1636807,-218,656,243,369,-239,-487
1636824,-245,647,245,387,-216,-495
1636841,-153,782,-474,-1090,-115,-329
1636857,-152,847,-1,96,-34,-331
1636873,-222,839,162,182,-117,-500
1636905,-240,777,238,383,-194,-498
1636922,-269,736,207,368,-268,-625
1636939,-194,780,259,386,-208,-454
1636957,-249,820,234,385,-247,-548
1636973,-251,817,268,366,-272,-528
1636990,-228,892,244,361,-219,-344
1637022,-232,836,241,365,-216,-466
1637039,-196,835,241,366,-210,-550
1637056,-211,841,230,365,-163,-528
1637073,-243,778,202,363,-239,-657
1637090,-212,781,210,353,-169,-615
1637106,-276,680,187,360,-239,-758
1637138,-192,639,228,388,-212,-674
1637155,-190,499,161,376,-378,-795
1637172,-157,628,241,389,-193,-674
1637188,-100,603,234,343,-190,-686
1637206,-180,574,209,260,-231,-742
1637222,-168,565,244,201,-222,-782
1637256,-180,475,194,113,-237,-811
1637272,-218,425,197,154,-299,-907
1637289,-91,484,252,199,-148,-783
1637306,-162,435,210,268,-263,-875
1637322,-117,440,240,297,-226,-912
1637339,-143,466,237,318,-245,-828
1637371,-81,484,263,296,-192,-851
1637388,-160,422,227,292,-239,-883
1637405,-93,441,252,316,-244,-940
1637422,-147,428,242,352,-211,-935
1637438,-153,410,242,356,-215,-1007
1637455,-144,386,259,351,-244,-1084
1637472,-181,397,246,342,-212,-987
1637489,-157,379,239,363,-224,-1081
1637505,-193,386,240,340,-195,-1086
1637521,-181,377,259,314,-171,-1072
1637538,-186,332,234,285,-205,-1068
1637555,-209,330,224,306,-216,-1109
1637572,-203,317,245,307,-203,-1107
1637589,-184,328,230,313,-250,-1088
1637606,-219,301,245,338,-221,-1095
1637623,-206,288,221,354,-227,-1044
1637640,-243,302,235,346,-218,-1121
1637656,-212,315,257,351,-172,-1086
1637673,-256,249,214,347,-251,-1153
1637689,-179,336,244,353,-231,-1032
1637720,-220,314,226,371,-261,-1017
1637737,-191,316,215,384,-296,-1061
1637754,-179,376,242,376,-237,-969
1637772,-183,311,208,377,-261,-1023
1637787,-172,348,249,386,-208,-924
1637804,-189,322,226,378,-186,-894
1637836,-141,361,232,366,-179,-882
1637854,-165,345,227,373,-219,-897
1637870,-156,338,232,372,-185,-877
1637888,-161,345,231,377,-199,-889
1637904,-154,350,231,361,-199,-819
1637921,-156,368,225,354,-179,-775
1637953,-129,387,255,349,-123,-723
1637970,-106,363,212,326,-96,-710
1637987,-17,390,233,335,-58,-773
1638003,-138,366,241,317,-69,-745
1638022,-115,356,261,337,-142,-854
1638038,-84,384,246,310,-112,-824
1638069,-110,325,231,349,-219,-899
1638087,-99,366,259,382,-161,-786
1638104,-141,324,244,407,-251,-860
1638120,-183,340,245,397,-192,-824
1638137,-155,351,247,394,-185,-768
1638154,-180,328,304,477,-214,-752
1638186,-164,346,251,410,-172,-751
1638203,-206,362,248,375,-171,-806
1638221,-198,357,228,362,-146,-831
1638237,-217,330,230,348,-120,-874
1638253,-204,362,246,337,-69,-847
1638269,-215,352,218,342,-63,-815
1638304,-223,334,243,361,-66,-762
1638320,-165,355,240,293,-88,-799
1638337,-194,335,240,350,-134,-813
1638353,-150,358,263,343,-155,-786
1638370,-119,370,265,322,-144,-736
1638386,-111,390,268,353,-144,-721
1638418,-63,486,313,353,-68,-576
1638435,-116,449,290,359,-147,-558
1638452,-162,425,262,374,-233,-591
1638470,-131,484,293,384,-162,-463
1638486,-121,508,269,380,-195,-444
1638503,-141,542,268,375,-217,-440
1638535,-109,549,271,358,-150,-341
1638552,-82,542,247,353,-198,-363
1638570,-54,650,290,377,-109,-276
1638586,-44,619,262,378,-169,-338
1638603,-63,595,249,376,-230,-423
1638619,-77,598,226,377,-183,-328
1638637,-10,693,308,360,-90,-293
1638652,-76,630,246,363,-190,-396
1638670,5,699,316,357,-124,-301
1638686,-71,665,283,344,-147,-449
1638702,-90,583,263,313,-223,-553
1638719,-64,565,282,351,-161,1211
1638735,-108,562,265,332,-23,5168
1638768,-39,571,281,339,188,6885
1638787,-97,542,275,326,96,6295
1638803,-57,539,278,328,33,5399
1638819,-135,529,271,341,-6,4569
1638835,-38,629,332,346,83,4146
1638852,-68,556,283,341,-2,3649
1638884,29,602,317,338,-30,3208
1638902,37,602,319,344,-28,2978
1638917,-17,553,285,346,-139,2678
1638934,-29,578,298,345,-74,2590
1638951,-35,524,273,339,-150,2345
1638969,-67,542,282,339,-160,2190
1639001,-59,526,276,351,-122,1848
1639018,-87,501,260,356,-161,1663
1639035,-90,455,236,350,-163,1502
1639051,-31,493,275,359,-134,1390
1639068,-89,453,253,357,-171,1263
1639085,-59,438,283,355,-154,1158
1639117,-52,423,307,372,-183,959
1639134,-34,431,292,379,-193,827
1639150,-36,410,312,380,-153,749
1639168,-34,425,302,371,-161,659
1639184,-60,414,287,358,-182,604
1639201,18,464,324,365,-84,585
1639234,-32,413,309,357,-153,469
1639251,-26,429,280,366,-122,396
1639268,-33,415,285,366,-145,307
1639285,-30,442,288,365,-123,280
1639301,-22,442,311,359,-112,237
1639318,-65,406,288,355,-167,173
1639350,-39,407,297,375,-160,149
1639367,-16,414,302,381,-128,96
1639384,-52,376,277,362,-173,26
1639400,-57,394,268,362,-169,12
1639418,-30,416,293,366,-114,-8
1639434,-8,427,299,372,-127,-14
1639466,-28,421,278,374,-157,-124
1639484,-34,404,286,363,-167,-176
1639500,37,458,295,362,-123,-150
1639518,86,478,324,361,-106,-135
1639534,100,452,299,362,-107,-141
1639550,131,478,321,359,-75,-123
1639582,103,461,327,363,-86,-203
1639600,77,439,308,363,-135,-242
1639616,78,452,305,360,-109,-278
1639633,37,436,288,351,-117,-374
1639650,54,485,311,347,-86,-362
1639666,39,482,296,347,-119,-440
1639699,3,485,311,358,-123,-496
1639717,-2,463,303,348,-120,-527
1639733,0,472,295,349,-123,-539
1639749,-30,451,291,347,-136,-598
1639766,-26,487,314,356,-122,-596
1639784,-20,472,302,355,-77,-591
1639815,-42,488,308,352,-95,-626
1639833,-32,500,306,357,-116,-654
1639850,-76,487,296,355,-96,-634
1639866,-123,444,273,358,-190,-749
1639882,-85,476,291,356,-168,-711
1639899,-107,475,281,355,-163,-708
1639931,-92,509,293,376,-166,-720
1639949,-83,488,293,376,-153,-721
1639966,-155,457,258,369,-203,-800
1639983,-91,515,300,377,-159,-758
1639998,-127,495,263,369,-174,-755
1640016,-87,534,286,370,-135,-744
1640048,-115,496,250,355,-190,-775
1640066,-94,540,303,356,-83,-755
1640083,-118,530,272,348,-153,-768
1640099,-70,555,281,351,-101,-782
1640116,-166,556,248,352,-150,-783
1640132,-141,533,268,361,-133,-819
1640164,-117,557,272,351,-136,-780
1640182,-169,526,110,351,-153,-819
1640199,-91,589,155,358,-99,-741
1640215,-114,591,148,363,-129,-726
1640231,-70,566,156,369,-123,-754
1640249,30,624,189,369,-125,-571
1640280,75,666,192,363,-64,-548
1640298,-18,601,151,352,-93,-593
1640315,-49,582,151,365,-206,-725
1640331,-127,552,150,362,-105,-694
1640348,-145,522,122,367,-201,-790
1640365,-193,539,120,361,-181,-807
1640397,-204,531,121,357,-221,-865
1640414,-212,535,124,360,-216,-904
1640431,-257,508,99,365,-244,-884
1640448,-197,555,140,365,-196,-880
1640465,-221,565,123,358,-219,-919
1640481,-227,539,121,364,-219,-913
1640513,-263,507,108,359,-265,-971
1640531,-220,572,131,351,-182,-908
1640548,-237,577,140,350,-164,-882
1640565,-205,520,117,352,-286,-1005
1640581,-209,564,143,348,-163,-871
1640597,-245,523,124,351,-278,-965
1640646,-264,526,114,348,-259,-950
1640664,-194,540,151,355,-206,-939
1640680,-223,568,147,354,-177,-864
1640697,-231,516,151,355,-228,-943
1640713,-229,513,149,364,-208,-903
1640731,-215,506,154,362,-217,-978
1640762,-257,482,136,361,-225,-975
1640780,-211,472,151,356,-200,-948
1640798,-212,521,161,367,-160,-920
1640814,-186,506,162,354,-201,-926
1640830,-219,498,166,356,-217,-942
1640846,-174,505,159,355,-172,-902
1640879,-184,538,156,298,-162,-846
1640896,-191,523,123,276,-195,-969
1640913,-171,558,156,313,-127,-842
1640930,-214,514,152,344,-219,-982
1640947,-175,542,158,350,-177,-876
1640963,-156,567,197,355,-148,-854
1640995,-156,562,196,347,-166,-901
1641012,-221,533,176,349,-173,-854
1641029,-175,531,165,348,-238,-985
1641047,-167,563,183,353,-144,-810
1641064,-172,556,192,355,-171,-857
1641080,-176,542,181,356,-200,-895
1641112,-180,553,189,352,-178,-865
1641130,-181,557,175,347,-175,-880
1641146,-179,558,183,351,-158,-882
1641163,-156,573,191,357,-141,-842
1641180,-180,562,182,343,-185,-910
1641197,-160,573,185,350,-138,-873
1641229,-145,570,205,349,-136,-826
1641246,-158,568,207,348,-136,-876
1641263,-158,599,215,350,-105,-869
1641279,-132,599,225,358,-95,-833
1641296,-171,567,215,352,-128,-905
1641313,-190,565,190,350,-137,-851
1641344,-216,542,193,348,-182,-940
1641361,-183,535,217,354,-189,-856
1641378,-216,537,204,355,-210,-950
1641396,-186,534,218,359,-195,-892
1641413,-218,527,199,352,-187,-928
1641429,-186,533,221,352,-209,-911
1641461,-183,543,209,342,-168,-903
1641479,-216,541,203,343,-147,-901
1641496,-171,577,217,348,-133,-875
1641512,-178,573,216,353,-113,-876
1641529,-198,562,218,358,-157,-900
1641545,-184,597,218,355,-164,-924
1641577,-155,595,219,355,-149,-899
1641595,-157,639,232,376,-84,-815
1641612,-210,584,205,380,-209,-948
1641629,-153,606,228,386,-153,-889
1641645,-151,672,255,399,-117,-846
1641662,-204,646,229,404,-185,-931
1641697,-205,670,241,438,-191,-939
1641712,-221,696,271,458,-209,-931
1641728,-177,667,293,477,-167,-839
1641744,-246,576,298,525,-150,-839
1641762,-173,484,330,562,-137,-791
1641778,-218,425,322,586,-223,-789
1641810,-152,393,325,552,-142,-731
1641827,-221,365,285,516,-205,-825
1641844,-185,387,305,521,-144,-746
1641862,-141,382,293,502,-133,-728
1641878,-200,386,260,374,-143,-769
1641895,-158,411,213,278,-96,-719
1641927,-159,417,103,56,-60,-730
1641945,-78,442,49,-74,-22,-696
1641961,-164,437,-44,-237,-70,-777
1641977,-84,489,-50,-262,21,-663
1641995,-159,425,-85,-272,-55,-746
1642011,-110,469,-22,-181,-14,-722
1642043,-88,475,12,-82,-51,-699
1642061,41,558,166,118,43,-520
1642078,42,464,189,210,-65,-574
1642094,70,481,241,286,-95,-522
1642111,29,465,286,365,-71,-559
1642128,-11,450,244,355,-108,-505
1642160,-57,414,272,389,-133,-581
1642177,-125,410,276,417,-128,-621
1642194,-137,383,279,424,-170,-666
1642211,-158,365,294,423,-138,-689
1642227,-132,391,266,390,-138,-614
1642244,-140,390,245,322,-119,-664
1642275,-191,406,241,326,-151,-683
1642293,-174,395,217,337,-128,-633
1642310,-181,395,196,328,-129,-677
1642326,-191,374,204,335,-213,-749
1642344,-205,352,214,355,-175,-714
1642360,-216,364,207,359,-196,-723
1642392,-238,334,226,375,-207,-728
1642410,-128,407,258,380,-94,-638
1642425,-199,338,241,393,-180,-680
1642444,-189,374,270,411,-119,-667
1642460,-216,374,288,449,-171,-719
1642477,-211,337,357,542,-169,-728
1642508,-239,311,555,804,-166,-781
1642525,-204,338,509,707,-120,-705
1642542,-209,364,622,853,-118,-697
1642559,-243,329,681,936,-134,-737
1642575,-181,345,631,841,-128,-722
1642593,-194,374,530,692,-92,-708
1642625,-222,389,408,574,-116,-688
1642643,-187,378,413,545,-99,-698
1642659,-142,425,334,475,-52,-647
1642676,-112,418,341,513,-63,-539
1642692,-57,453,349,501,-30,-539
1642710,-76,519,289,382,5,-457
1642742,-119,520,183,75,22,-589
1642759,-207,493,126,-132,-52,-609
1642775,-235,474,120,-98,7,-745
1642793,-312,459,160,114,-3,-736
1642810,-314,449,218,307,25,-776
1642826,-322,413,226,338,1,-796
1642858,-360,385,250,480,-8,-804
1642876,-374,403,287,556,-10,-819
1642892,-377,388,271,582,-48,-837
1642909,-412,356,256,603,-80,-863
1642926,-359,423,267,620,-36,-796
1642942,-384,412,243,647,-55,-767
1642974,-394,413,231,617,-72,-810
1642991,-414,418,210,612,-59,-820
1643008,-397,472,211,551,-101,-805
1643025,-426,479,184,463,-95,-867
1643041,-369,513,190,435,-109,-840
1643059,-399,556,178,417,-66,-806
1643090,-394,531,179,494,-110,-810
1643107,-410,533,184,495,-139,-783
1643124,-385,577,196,482,-104,-773
1643142,-397,561,192,473,-106,-836
1643158,-380,574,209,476,-145,-784
1643175,-382,560,223,457,-135,-750
1643207,-402,507,223,375,-26,-649
1643225,-381,456,195,479,-42,-662
1643241,-424,438,209,639,-83,-706
1643258,-467,421,247,839,-122,-723
1643275,-364,462,276,932,-58,-656
1643291,-386,513,206,325,-31,-630
1643324,-391,532,197,336,-70,-663
1643341,-338,558,191,219,30,-568
1643357,-319,572,210,191,-4,-602
1643375,-319,570,200,222,6,-601
1643391,-314,567,218,229,8,-650
1643408,-327,546,188,159,-2,-582
1643440,-356,561,134,-243,-31,-636
1643458,-324,581,153,104,-33,-650
1643474,-349,589,200,84,-41,-679
1643491,-310,621,207,268,-36,-671
1643507,-301,608,239,373,-59,-627
1643524,-326,602,214,319,-66,-704
1643556,-357,592,214,394,-108,-687
1643574,-319,600,210,401,-61,-622
1643590,-308,601,235,363,-16,-627
1643607,-296,623,239,452,-66,-592
1643623,-347,560,235,603,-148,-645
1643641,-352,569,297,1103,-83,-599
1643673,-431,509,263,879,-26,-595
1643689,-403,508,239,705,-27,-616
1643707,-373,498,219,588,-11,-592
1643724,-429,538,225,462,1,-588
1643740,-349,563,219,356,-23,-550
1643757,-340,529,208,315,-72,-656
1643789,-307,581,224,308,-104,-634
1643806,-305,599,239,299,-155,-585
1643824,-200,654,254,320,-121,-536
1643839,-272,590,259,317,-225,-657
1643857,-222,630,245,331,-158,-498
1643874,-246,636,258,346,-174,-619
1643905,-285,633,257,352,-176,-602
1643922,-272,622,232,317,-211,-691
1643940,-234,669,239,288,-128,-595
1643956,-152,653,235,265,-131,-576
1643973,-126,664,230,208,-120,-483
1643989,-111,659,231,189,-109,-562
1644021,-127,663,239,244,-120,-580
1644039,-162,622,229,265,-179,-624
1644056,-196,615,229,297,-151,-574
1644073,-172,587,182,324,-190,-706
1644088,-198,626,224,340,-167,-579
1644106,-137,622,233,359,-204,-637
1644138,-170,610,222,344,-256,-667
1644156,-137,632,244,351,-198,-632
1644172,-142,621,248,352,-209,-631
1644189,-167,598,222,361,-230,-663
1644206,-166,592,242,372,-231,-630
1644222,-143,640,237,364,-184,-628
1644255,-181,589,224,364,-186,-686
1644272,-175,600,243,358,-160,-632
1644289,-167,604,223,356,-187,-642
1644305,-150,619,225,351,-174,-646
1644322,-157,609,227,343,-190,-658
1644339,-183,603,211,344,-204,-702
1644371,-189,576,226,353,-143,-657
1644388,-220,503,220,366,-115,-667
1644405,-201,514,221,374,-9,-565
1644422,-255,438,213,368,-57,-697
1644439,-241,476,240,380,-54,-611
1644455,-208,460,237,369,-52,-641
1644472,-242,472,225,358,-45,-574
1644489,-206,472,235,342,-63,-656
1644505,-222,449,164,312,-84,-622
1644522,-273,410,156,313,-137,-710
1644539,-242,429,174,303,-104,-684
1644555,-263,431,186,312,-158,-701
1644573,-195,452,212,313,-48,-582
1644589,-253,417,197,333,-117,-706
1644605,-247,407,210,345,-114,-641
1644622,-232,399,219,350,-92,-629
1644639,-254,367,206,348,-136,-671
1644656,-265,381,217,361,-69,-640
1644673,-298,329,199,359,-127,-652
1644689,-292,343,225,394,-73,-653
1644705,-288,308,247,441,-124,-665
1644722,-268,303,253,490,-104,-666
1644739,-320,307,315,620,-154,-677
1644756,-294,270,402,813,-160,-677
1644772,-298,264,411,745,-197,-692
1644788,-288,282,351,670,-145,-625
1644805,-291,247,342,648,-188,-669
1644822,-318,224,308,577,-184,-684
1644839,-299,215,275,512,-208,-661
1644855,-314,246,259,465,-178,-647
1644872,-322,182,213,415,-222,-698
1644888,-309,187,198,387,-200,-631
1644905,-347,153,203,377,-240,-695
1644923,-293,150,186,369,-186,-633
1644953,-227,128,220,337,-182,-576
1644970,-211,152,208,329,-213,-546
1644987,-273,109,188,306,-282,-659
1645004,-248,126,169,272,-261,-615
1645021,-279,108,158,234,-324,-720
1645038,-270,105,135,172,-286,-689
1645069,-330,51,85,120,-349,-737
1645087,-286,64,68,32,-365,-807
1645103,-314,56,198,365,-394,-771
1645120,-294,40,180,285,-347,-763
1645136,-306,41,199,329,-373,-784
1645153,-299,37,198,324,-387,-804
1645170,-311,32,210,331,-374,-784
1645187,-275,29,216,333,-355,-787
1645204,-332,-3,204,333,-410,-818
1645220,-288,11,223,342,-404,-795
1645237,-296,9,222,346,-378,-768
1645254,-302,7,211,334,-397,-797
1645270,-335,-28,225,344,-427,-799
1645288,-296,-37,228,345,-476,-812
1645304,-348,-32,225,343,-442,-821
1645321,-326,-50,238,345,-445,-807
1645337,-358,-46,219,347,-443,-829
1645353,-332,-47,227,349,-438,-858
1645371,-386,-86,219,343,-449,-876
1645388,-373,-86,236,346,-432,-848
1645404,-352,-60,241,346,-450,-893
1645421,-370,-66,263,355,-448,-831
1645437,-342,-64,254,349,-444,-877
1645454,-356,-64,237,354,-440,-819
1645471,-364,-30,235,357,-438,-877
1645488,-331,-45,251,345,-434,-859
1645504,-373,-43,226,339,-437,-851
1645521,-337,-94,242,321,-393,-816
1645537,-289,-35,289,322,-375,-709
1645554,-180,-19,288,317,-388,-658
1645571,-229,0,275,314,-449,-729
1645587,-237,-4,263,311,-457,-800
1645604,-288,-14,269,303,-483,-780
1645620,-254,-35,253,295,-486,-884
1645637,-289,-2,261,291,-462,-799
1645654,-332,-26,256,298,-535,-957
1645670,-285,-24,266,304,-538,-904
1645687,-320,-28,267,317,-532,-897
1645704,-337,-40,234,312,-573,-931
1645721,-356,-15,251,310,-569,-956
1645737,-308,-14,241,302,-547,-888
1645754,-336,6,248,312,-518,-918
1645771,-314,10,249,313,-524,-880
1645787,-304,35,246,318,-535,-937
1645804,-334,-7,241,321,-565,-957
1645820,-315,19,258,343,-517,-909
1645837,-329,3,245,346,-503,-914
1645854,-325,6,251,341,-510,-875
1645884,-339,0,252,338,-529,-907
1645901,-337,14,250,342,-540,-941
1645918,-316,18,265,330,-524,-917
1645934,-339,-2,241,341,-536,-890
1645952,-354,2,259,361,-526,-985
1645968,-347,14,246,347,-528,-900
1645986,-345,18,265,362,-502,-902
1646003,-378,16,257,360,-518,-935
1646020,-351,40,260,359,-465,-910
1646036,-372,22,266,359,-547,-939
1646053,-407,-11,249,365,-506,-917
1646072,-377,3,271,372,-462,-880
1646085,-370,-1,260,364,-484,-915
1646117,-408,0,261,358,-495,-914
1646134,-398,15,264,348,-460,-921
1646151,-368,-2,265,350,-455,-876
1646168,-348,-26,279,354,-436,-840
1646185,-279,12,305,354,-398,-724
1646201,-238,27,317,354,-374,-686
1646234,-370,56,264,368,-431,-827
1646251,-293,105,294,376,-381,-798
1646268,-356,103,281,374,-409,-855
1646284,-405,70,261,360,-473,-929
1646301,-411,78,241,360,-472,-915
1646317,-394,92,271,360,-456,-913
1646350,-440,67,253,347,-510,-948
1646367,-410,117,251,359,-522,-982
1646384,-408,126,239,354,-484,-951
1646401,-422,146,246,358,-469,-960
1646417,-390,130,266,362,-437,-870
1646434,-323,204,281,360,-430,-857
1646466,-150,290,312,358,-513,-753
1646483,-162,295,265,349,-549,-725
1646500,-234,312,299,343,-562,-892
1646517,-294,254,265,351,-569,-822
1646534,-294,262,258,339,-575,-921
1646550,-312,293,276,349,-562,-904
1646582,-322,306,262,342,-583,-923
1646600,-301,316,263,341,-562,-968
1646616,-349,326,253,339,-579,-926
1646633,-349,323,250,329,-542,-959
1646650,-316,333,246,336,-534,-951
1646667,-326,342,252,331,-512,-935
1646683,-304,345,249,335,-496,-900
1646700,-322,378,257,325,-526,-959
1646717,-267,383,276,326,-461,-886
1646733,-299,414,270,334,-461,-958
1646751,-272,402,271,337,-507,-907
1646767,-330,389,245,329,-508,-947
1646783,-345,385,252,336,-536,-989
1646801,-282,431,271,326,-486,-881
1646817,-321,391,253,333,-513,-953
1646834,-344,419,252,334,-472,-899
1646850,-283,417,271,330,-478,-909
1646867,-340,396,232,328,-480,-923
1646883,-379,381,252,328,-429,-903
1646900,-385,384,247,333,-438,-964
1646932,-446,381,237,328,-389,-1004
1646948,-453,381,228,329,-399,-979
1646966,-482,359,220,328,-399,-1002
1646983,-474,319,238,337,-420,-993
1646999,-470,309,222,337,-409,-958
1647016,-506,301,218,332,-444,-1033
1647047,-478,299,219,335,-453,-1039
1647065,-433,340,243,340,-371,-934
1647082,-448,332,220,331,-359,-953
1647099,-439,327,237,334,-381,-950
1647115,-442,318,238,340,-355,-916
1647132,-423,335,250,336,-383,-918
1647165,-399,345,222,331,-341,-884
1647182,-401,356,239,325,-335,-859
1647199,-339,371,271,337,-309,-834
1647215,-230,423,291,336,-239,-618
1647232,-223,377,295,341,-207,-615
1647249,-243,412,270,342,-192,-597
1647280,-343,372,262,346,-195,-671
1647298,-323,388,260,350,-181,-737
1647314,-407,355,244,343,-217,-816
1647331,-370,385,261,352,-177,-736
1647348,-411,352,217,339,-256,-851
1647364,-380,420,274,350,-192,-747
1647398,-404,385,261,348,-244,-807
1647416,-430,342,211,348,-336,-912
1647432,-419,373,236,347,-274,-845
1647448,-389,417,257,350,-244,-805
1647465,-412,373,216,341,-290,-818
1647481,-436,399,240,347,-254,-847
1647514,-414,379,230,344,-263,-830
1647531,-451,394,235,343,-236,-780
1647548,-401,374,246,333,-232,-794
1647564,-430,392,234,335,-252,-815
1647581,-441,384,222,327,-240,-815
1647598,-432,395,218,317,-264,-813
1647630,-428,405,218,330,-228,-795
1647648,-414,432,213,339,-300,-825
1647664,-415,446,223,319,-248,-786
1647681,-397,445,225,290,-226,-774
1647697,-406,435,230,261,-255,-783
1647714,-372,484,241,238,-198,-722
1647731,-384,428,216,161,-243,-742
1647748,-281,485,237,117,-130,-604
1647765,-196,448,253,172,-116,-542
1647781,-239,441,255,243,-114,-485
1647798,-201,446,287,306,-122,-535
1647814,-170,449,319,355,-82,-486
1647831,-205,446,293,340,-162,-587
1647848,-208,439,295,353,-141,-530
1647865,-265,415,301,372,-198,-622
1647882,-257,417,299,385,-195,-585
1647898,-270,428,273,377,-216,-617
1647915,-261,455,275,370,-188,-682
1647931,-269,468,257,353,-214,-672
1647948,-281,450,258,326,-164,-617
1647979,-213,502,306,392,-113,-515
1647997,-152,513,322,380,-64,-436
1648012,-104,532,310,389,-118,-413
1648030,-83,574,313,457,-152,-377
1648046,-59,604,342,475,-168,-399
1648062,-115,602,316,498,-221,-440
1648080,-180,594,327,623,-204,-517
1648097,-283,529,302,671,-265,-586
1648113,-194,592,321,517,-122,-491
1648130,-248,557,287,396,-115,-539
1648148,-260,554,278,380,-120,-567
1648164,-259,564,268,386,-128,-606
1648180,-272,562,287,374,-134,-567
1648211,-244,602,307,400,-94,-552
1648229,-247,588,288,399,-129,-579
1648245,-261,596,276,397,-122,-603
1648263,-281,602,268,391,-129,-572
1648280,-248,615,283,373,-118,-589
1648296,-210,659,289,368,-106,-528
1648328,-189,631,324,406,-92,-520
1648346,-217,599,311,338,-92,-473
1648361,-174,595,267,272,-117,-498
1648379,-196,629,273,218,-87,-465
1648396,-180,622,256,178,-113,-487
1648413,-181,636,272,201,-107,-490
1648445,-206,637,253,184,-91,-505
1648462,-182,624,238,127,-118,-537
1648479,-201,635,250,333,-178,-551
1648495,-189,664,270,433,-90,-487
1648513,-200,623,251,355,-153,-553
1648529,-237,616,287,414,-157,-568
1648561,-246,592,268,502,-215,-549
1648578,-244,635,278,574,-177,-590
1648595,-232,617,269,592,-210,-585
1648611,-219,590,299,591,-157,-518
1648629,-212,604,297,527,-129,-525
1648645,-245,550,274,529,-142,-566
1648677,-243,541,279,609,-170,-572
1648694,-211,557,294,720,-174,-585
1648712,-248,552,293,676,-207,-593
1648728,-225,578,255,528,-133,-567
1648745,-250,563,227,454,-179,-614
1648761,-223,593,212,444,-157,-544
1648778,-217,597,214,382,-149,-584
1648795,-203,629,241,599,-101,-525
1648812,-225,597,230,492,-153,-577
1648828,-204,627,191,410,-119,-556
1648845,-256,628,207,427,-131,-591
1648861,-213,605,222,467,-147,-560
1648878,-228,626,218,502,-140,-557
1648910,-240,637,209,425,-167,-567
1648928,-210,633,217,407,-149,-569
1648945,-226,595,207,388,-155,-573
1648961,-225,621,187,346,-215,-628
1648978,-235,650,207,336,-144,-545
1648994,-218,655,209,346,-120,-562
1649011,-185,684,227,339,-151,-559
1649028,-215,685,185,342,-169,-590
1649044,-179,698,223,349,-155,-564
1649061,-210,684,203,352,-186,-575
1649077,-212,697,189,350,-182,-572
1649095,-175,676,204,356,-188,-592
1649111,-187,724,213,371,-145,-553
1649143,-204,711,203,377,-170,-602
1649160,-180,713,202,366,-180,-575
1649177,-172,720,210,356,-167,-561
1649193,-159,735,216,346,-140,-548
1649210,-208,700,200,333,-212,-610
1649226,-166,723,226,327,-163,-561
1649259,-191,709,217,327,-193,-604
1649277,-145,761,242,316,-141,-560
1649293,-215,711,215,355,-178,-609
1649310,-179,681,233,383,-210,-600
1649327,-224,725,247,404,-173,-586
1649344,-204,653,256,396,-208,-634
1649375,-162,654,262,347,-159,-585
1649393,-184,668,243,301,-195,-600
1649410,-159,695,266,280,-167,-604
1649426,-197,622,223,266,-210,-625
1649443,-139,716,269,258,-125,-562
1649460,-183,572,267,250,-178,-628
1649492,-171,672,256,253,-183,-618
1649510,-205,646,290,324,-190,-635
1649526,-218,659,288,417,-233,-698
1649543,-200,724,321,496,-145,-603
1649560,-192,721,322,482,-194,-634
1649576,-213,704,276,372,-165,-650
1649608,-198,730,252,306,-124,-581
1649626,-134,710,263,314,-99,-550
1649642,-177,628,254,340,-138,-578
1649659,-210,764,230,353,-89,-552
1649676,-173,566,282,369,-110,-605
1649692,-216,648,251,374,-123,-602
1649709,-194,635,251,372,-102,-566
1649726,-245,607,246,384,-167,-637
1649743,-226,706,251,386,-118,-566
1649760,-212,655,235,382,-159,-583
1649776,-267,612,222,375,-205,-665
1649793,-193,657,246,370,-121,-539
1649810,-235,674,232,357,-164,-589
1649841,-287,692,204,416,-183,-611
1649859,-218,656,252,409,-154,-619
1649875,-219,678,239,391,-161,-593
1649892,-228,613,267,397,-176,-593
1649908,-234,724,238,404,-157,-608
1649925,-218,663,248,385,-149,-563
1649942,-210,660,239,408,-195,-639
1649959,-228,652,230,400,-185,-593
1649976,-258,684,236,402,-189,-626
1649994,-232,697,237,398,-187,-582
1650010,-246,686,241,390,-218,-658
1650026,-236,642,198,374,-251,-650
1650043,-203,584,277,356,-218,-616
1650090,-266,643,246,320,-200,-616
1650108,-287,650,264,312,-195,-632
1650124,-246,656,268,321,-189,-639
1650141,-274,660,273,325,-233,-670
1650157,-300,667,269,321,-194,-599
1650174,-215,679,274,323,-205,-654
1650192,-298,693,254,312,-215,-655
1650210,-317,685,276,327,-223,-612
1650226,-247,683,280,322,-191,-592
1650243,-328,696,266,330,-228,-643
1650259,-256,675,280,354,-192,-593
1650276,-286,690,287,355,-175,-588
1650292,-271,675,284,381,-247,-626
1650324,-294,656,280,389,-268,-661
1650341,-325,638,274,399,-279,-659
1650358,-320,649,265,403,-265,-669
1650374,-311,688,281,420,-255,-663
1650392,-261,693,312,426,-223,-596
1650408,-260,714,293,429,-239,-611
1650440,-291,701,303,434,-219,-602
1650457,-250,710,318,436,-228,-608
1650474,-258,734,294,422,-197,-585
1650491,-256,714,309,423,-197,-595
1650507,-215,724,306,416,-162,-557
1650524,-229,724,302,410,-157,-560
1650556,-235,719,284,411,-134,-520
1650573,-266,720,281,409,-164,-577
1650590,-267,746,286,412,-155,-605
1650607,-270,713,285,410,-167,-585
1650623,-238,754,297,402,-185,-587
1650641,-246,742,305,399,-169,-578
1650673,-246,729,306,395,-207,-591
1650690,-289,761,272,386,-179,-620
1650707,-225,720,288,387,-177,-589
1650723,-275,740,274,393,-221,-599
1650739,-242,741,284,391,-173,-588
1650757,-243,749,290,389,-170,-601
1650789,-174,785,312,383,-147,-567
1650806,-243,756,280,389,-147,-559
1650823,-222,765,274,389,-186,-581
1650839,-272,715,269,385,-183,-602
1650857,-238,705,283,382,-223,-613
1650873,-268,733,262,385,-213,-620
1650905,-255,761,281,393,-212,-626
1650923,-246,720,277,392,-185,-586
1650940,-280,729,257,405,-217,-621
1650957,-296,724,279,397,-224,-642
1650972,-270,673,270,409,-246,-637
1650989,-327,735,269,402,-200,-622
1651022,-274,722,289,410,-229,-592
1651040,-271,713,280,411,-214,-600
1651056,-261,722,293,401,-211,-594
1651073,-254,749,291,401,-194,-604
1651089,-253,734,294,394,-206,-561
1651105,-238,753,280,373,-195,-577
1651138,-315,712,267,367,-257,-636
1651156,-202,754,288,372,-157,-524
1651173,-243,714,302,381,-180,-548
1651189,-216,760,300,385,-184,-533
1651206,-153,781,300,383,-213,-500
1651223,-102,837,352,388,-294,-496
1651255,-87,927,324,367,-357,-557
1651272,-120,920,316,366,-418,-577
1651289,-160,898,315,369,-425,-610
1651306,-99,904,330,378,-449,-611
1651323,-166,932,326,373,-400,-613
1651338,-110,898,346,374,-408,-584
1651371,-163,874,293,361,-443,-659
1651387,-181,873,306,369,-445,-648
1651405,-173,906,313,373,-399,-613
1651422,-181,852,300,366,-443,-644
1651439,-200,848,292,368,-421,-647
1651454,-289,770,256,368,-545,-767
1651487,-185,823,303,284,-422,-644
1651504,-191,860,252,-65,-443,-633
1651521,-190,822,242,-116,-459,-667
1651538,-138,834,283,-48,-327,-522
1651555,-94,807,270,-132,-284,-502
1651571,-143,719,271,-90,-225,-467
1651605,-194,696,260,61,-128,-511
1651621,-226,672,254,91,-128,-466
1651639,-217,654,291,284,-135,-515
1651654,-271,656,287,353,-199,-542
1651671,-265,625,279,366,-204,-579
1651688,-259,660,301,366,-206,-578
1651720,-294,650,279,399,-195,-620
1651737,-312,632,287,418,-179,-582
1651754,-266,679,278,433,-150,-522
1651771,-195,696,332,432,-133,-443
1651787,-178,716,318,440,-179,-419
1651804,-224,728,315,435,-294,-532
1651838,-288,783,267,371,-418,-657
1651854,-257,807,293,339,-370,-686
1651871,-321,771,270,330,-422,-725
1651887,-302,756,278,317,-386,-711
1651905,-292,760,289,318,-407,-712
1651921,-286,798,296,357,-354,-669
1651953,-299,747,296,576,-412,-690
1651971,-333,700,316,579,-392,-710
1651987,-322,722,320,736,-370,-690
1652004,-313,715,319,582,-397,-675
1652021,-344,686,312,530,-368,-686
1652038,-316,695,306,497,-380,-680
1652069,-365,671,292,516,-352,-679
1652087,-305,715,285,307,-377,-686
1652103,-324,703,279,320,-419,-725
1652120,-319,700,277,399,-394,-733
1652137,-336,704,285,394,-412,-717
1652153,-365,687,288,362,-403,-753
1652186,-402,647,229,325,-470,-787
1652203,-299,741,318,335,-305,-654
1652220,-358,711,273,346,-388,-687
1652237,-356,656,262,362,-437,-729
1652254,-336,705,303,377,-349,-654
1652270,-400,662,259,375,-380,-594
1652302,-485,703,240,390,-430,-585
1652319,2436,764,291,430,-321,-419
1652336,3585,724,279,424,-352,-441
1652353,1684,723,247,422,-371,-456
1652369,1369,739,252,425,-369,-489
1652386,1741,739,164,410,-369,-505
1652419,5455,753,95,393,-385,-586
1652436,5881,719,109,403,-363,-525
1652452,5569,706,97,419,-310,-522
1652469,5133,727,122,428,-340,-486
1652486,4772,761,127,426,-282,-467
1652503,4495,704,120,428,-311,-485
1652535,4087,680,125,408,-402,-530
1652552,3841,729,117,420,-299,-385
1652569,3810,785,159,418,-246,-285
1652586,3770,813,191,430,-259,-176
1652602,3590,737,145,427,-257,-215
1652619,3413,754,157,429,-241,-172
1652652,3104,718,129,423,-291,-246
1652668,2893,639,136,420,-327,-285
1652685,2743,699,152,425,-240,-273
1652702,2610,679,135,426,-248,-242
1652719,2448,590,119,429,-368,-372
1652735,2389,632,136,426,-375,-313
1652767,2223,618,120,442,-329,-347
1652785,2143,637,123,451,-345,-314
1652802,2105,654,144,440,-244,-331
1652818,1990,598,140,452,-312,-351
1652836,2013,639,140,456,-272,-290
1652852,1840,606,138,452,-320,-362
1652884,1809,578,153,438,-334,-339
1652900,1864,592,148,434,-280,-303
1652918,1816,546,160,440,-325,-383
1652935,1808,645,149,432,-299,-368
1652951,1894,630,191,412,-227,-220
1652968,1887,633,163,398,-211,-250
1653000,1807,597,91,330,-265,-405
1653018,1678,626,23,274,-304,-424
1653035,1479,656,24,289,-304,-541
1653051,1635,588,8,301,-315,-539
1653068,3144,648,37,350,-334,-533
1653084,6722,689,137,372,-266,-432
1653117,6765,684,106,374,-303,592
1653134,6685,658,96,384,-303,824
1653151,6810,762,42,349,-297,677
1653168,6948,730,56,374,-377,549
1653184,6958,741,51,243,-398,447
1653201,6954,763,76,217,-405,608
1653233,6957,715,175,221,-443,2149
1653250,6957,728,177,138,-421,2558
1653267,6957,695,182,107,-364,2727
1653284,6957,690,185,92,-347,2798
1653300,6957,692,148,62,-365,2797
1653317,6957,694,116,-6,-349,2775
1653349,6957,680,232,-10,-291,2702
1653366,6957,739,195,7,-313,2319
1653383,6958,688,183,114,-369,1635
1653400,7013,759,195,111,-319,849
1653417,7022,716,159,371,-341,98
1653434,6883,712,179,-97,-395,-152
1653451,5153,750,241,1185,-356,-273
1653468,3483,725,267,745,-386,-458
1653485,2850,669,237,565,-350,-371
1653500,2456,738,282,315,-302,-437
1653517,2081,701,242,151,-337,-510
1653534,1807,696,218,-39,-289,-501
1653551,1571,742,178,-127,-325,-538
1653568,1356,714,157,-137,-295,-556
1653585,1144,730,113,-206,-329,-596
1653601,917,754,148,-293,-251,-572
1653617,699,767,134,-717,-306,-622
1653634,858,798,182,154,-335,-653
1653651,1480,808,145,-280,-383,-564
1653668,2260,781,150,214,-372,-163
1653685,2714,789,164,23,-364,231
1653701,3021,823,200,-28,-334,595
1653718,3178,813,229,35,-317,659
1653735,3262,782,219,-78,-333,594
1653751,3345,818,262,-148,-335,560
1653767,3375,803,301,-116,-316,569
1653784,3403,791,292,-54,-354,606
1653801,3335,780,249,-15,-382,602
1653817,3595,801,250,-358,-250,756
1653834,4671,754,204,-535,-258,803
1653852,7008,727,225,-534,-282,853
1653867,7021,751,257,-456,-256,866
1653885,6995,746,207,-346,-261,851
1653901,6956,759,223,-398,-243,975
1653918,6957,760,211,-428,-228,1070
1653934,6957,750,216,-560,-247,1165
1653951,6957,771,223,-845,-181,1207
1653967,6957,770,226,-998,-222,1277
1653984,6957,770,247,-1039,-171,1472
1654001,6957,776,237,-1031,-167,1741
1654018,6957,781,247,-663,-124,2028
1654048,6957,730,202,-935,-167,2275
1654065,6957,737,231,-833,-138,2365
1654081,6957,731,243,-873,-76,2422
1654098,6957,737,260,-1235,-96,2427
1654115,6957,737,288,-1351,-99,2472
1654132,6957,714,247,-1116,-125,2590
1654149,6957,748,300,-889,-58,2736
1654165,6957,729,314,-830,-92,2997
1654182,6957,690,332,-1250,-97,3038
1654199,6958,714,341,-617,-76,3018
1654216,7002,704,317,237,-55,2844
1654232,7035,713,326,224,-79,2538
1654249,6952,742,308,2098,-123,1854
1654280,3697,728,354,1803,-145,-450
1654297,2133,746,822,1156,-114,-761
1654314,1551,715,714,850,-182,-1012
1654332,1138,709,647,522,-143,-990
1654348,747,733,588,376,-165,-1076
1654366,496,734,640,311,-138,-1072
1654397,4,714,659,108,-169,-1199
1654413,-274,755,696,84,-84,-1088
1654430,-541,717,686,47,-115,-1133
1654447,-735,721,652,10,-60,-1126
1654465,-900,719,662,-17,-98,-1143
1654482,-1082,711,642,-39,-106,-1181
1654498,-1259,682,630,-54,-108,-1175
1654514,-1370,736,655,-51,-131,-1197
1654531,-1523,717,634,-28,-84,-1140
1654548,-1621,704,662,-32,-82,-1149
1654564,-1787,677,623,-15,-204,-1237
1654581,-1824,684,642,-2,-144,-1198
1654598,-1804,743,676,1,-109,-1149
1654614,-1912,743,642,9,-234,-1224
1654632,-1964,749,653,-3,-274,-1222
1654648,-2106,753,649,2,-275,-1275
1654665,-2108,757,673,3,-198,-1146
1654682,-2202,779,662,-10,-180,-1209
1654698,-2262,744,662,-15,-260,-1213
1654714,-2391,734,620,-4,-265,-1248
1654732,-2492,732,624,23,-262,-1257
1654748,-2481,745,650,26,-276,-1232
1654765,-2499,756,646,40,-169,-1159
1654781,-2590,746,642,40,-216,-1192
1654798,-2613,768,637,43,-221,-1205
1654815,-2668,729,671,40,-226,-1178
1654831,-2701,745,634,10,-210,-1162
1654848,-2711,775,617,-34,-216,-1162
1654865,-2746,781,613,-53,-217,-1168
1654881,-2709,778,675,315,-299,-1134
1654898,-2765,773,648,83,-315,-1195
1654915,-2776,763,640,31,-280,-1155
1654932,-2764,862,616,11,-237,-1112
1654948,-2799,766,621,32,-278,-1140
1654979,-2860,761,598,42,-319,-1188
1654996,-2821,786,625,49,-204,-1078
1655014,-2844,759,580,0,-284,-1132
1655030,-2899,762,577,32,-269,-1182
1655046,-2841,692,610,52,-265,-1102
1655063,-2849,821,632,60,-193,-1046
1655079,-2896,717,602,14,-308,-1144
1655097,-2807,722,619,9,-235,-1060
1655113,-2836,783,599,0,-160,-1012
1655130,-2808,736,629,3,-148,-993
1655147,-2855,722,621,105,-215,-1081
1655163,-2814,750,632,139,-162,-979
1655180,-2830,734,648,162,-169,-1031
1655197,-2844,720,655,180,-214,-1051
1655214,-2828,741,677,207,-171,-1026
1655231,-2805,744,669,179,-202,-1031
1655247,-2820,710,641,157,-189,-1073
1655265,-2817,782,611,64,-163,-1029
1655281,-2794,712,579,33,-277,-1041
1655298,-2745,782,628,35,-145,-996
1655314,-2810,713,557,8,-255,-1022
1655331,-2787,760,573,-12,-202,-1027
1655347,-2774,662,571,-34,-261,-1070
1655364,-2759,767,551,-12,-181,-981
1655381,-2697,721,569,6,-225,-1022
1655398,-2740,691,512,8,-245,-1065
1655414,-2679,735,574,37,-175,-1018
1655444,-2714,686,562,42,-293,-1111
1655462,-2617,787,559,37,-236,-1019
1655479,-2666,801,520,24,-321,-1060
1655496,-2592,828,544,29,-303,-1050
1655512,-2639,782,517,23,-356,-1069
1655528,-2635,804,549,31,-356,-1080
1655545,-2609,830,503,44,-283,-948
1655563,-2723,786,595,69,-240,-1090
1655580,-2613,811,537,69,-273,-965
1655596,-2643,736,516,62,-286,-1024
1655613,-2673,707,492,48,-280,-1002
1655630,-2594,771,522,48,-215,-933
1655646,-2661,687,500,38,-250,-978
1655677,-2586,726,497,46,-229,-934
1655694,-2529,772,513,59,-201,-901
1655711,-2506,752,511,62,-240,-947
1655729,-2556,785,496,55,-232,-948
1655745,-2613,730,462,41,-338,-1013
1655762,-2489,756,491,56,-204,-879
1655778,-2518,740,471,33,-234,-914
1655795,-2479,733,468,47,-206,-927
1655812,-2464,759,484,91,-204,-888
1655829,-2504,692,493,130,-250,-931
1655845,-2416,723,509,91,-209,-867
1655862,-2381,733,490,93,-158,-858
1655878,-2355,739,485,78,-193,-889
1655910,-2333,734,485,74,-233,-871
1655927,-2280,690,519,58,-145,-823
1655944,-2309,744,470,66,-216,-841
1655960,-2259,710,498,53,-150,-814
1655978,-2204,742,509,56,-180,-834
1655994,-1994,738,488,45,-224,-818
1656011,-1934,720,522,30,-185,-813
1656029,-1982,770,470,18,-241,-847
1656045,-1962,743,478,18,-177,-805
1656062,-1981,711,484,36,-235,-858
1656078,-1940,736,505,53,-183,-833
1656095,-2003,679,449,57,-240,-880
1656111,-1940,713,488,47,-185,-833
1656128,-1963,651,466,26,-237,-858
1656145,-1907,736,488,29,-190,-813
1656162,-1864,735,484,24,-232,-809
1656179,-1894,744,476,26,-275,-850
1656195,-1882,710,467,23,-269,-852
1656212,-1856,723,469,17,-243,-829
1656228,-1891,702,446,10,-267,-852
1656248,-1823,745,457,2,-216,-804
1656262,-1909,688,426,-3,-270,-863
1656277,-1812,695,455,13,-240,-832
1656295,-1885,716,412,1,-264,-840
1656313,-1811,696,430,10,-252,-818
1656328,-1824,712,458,20,-227,-829
1656344,-1826,706,431,29,-240,-822
1656376,-1766,690,412,26,-242,-792
1656393,-1726,728,515,105,-204,-798
1656409,-1779,679,437,37,-275,-852
1656427,-1746,694,470,57,-244,-810
1656443,-1750,685,438,43,-279,-845
1656460,-1739,654,430,37,-258,-825
1656477,-1762,669,438,22,-280,-813
1656494,-1719,689,408,19,-257,-806
1656510,-1739,687,420,40,-234,-801
1656526,-1741,670,412,43,-270,-830
1656543,-1685,653,452,57,-288,-836
1656561,-1741,688,414,69,-259,-814
1656578,-1662,682,434,87,-288,-848
1656608,-1685,670,434,77,-289,-824
1656625,-1705,692,427,69,-297,-819
1656643,-1632,684,446,69,-252,-764
1656659,-1664,644,440,92,-312,-851
1656676,-1648,710,407,17,-260,-772
1656693,-1601,727,413,54,-265,-805
1656709,-1619,642,429,43,-254,-791
1656726,-1627,698,425,49,-290,-836
1656742,-1590,688,399,41,-269,-783
1656760,-1586,709,421,36,-279,-811
1656776,-1587,687,410,39,-242,-789
1656793,-1586,693,394,19,-318,-853
1656809,-1558,734,398,36,-274,-811
1656826,-1565,678,383,16,-303,-864
1656843,-1559,717,411,35,-308,-820
1656860,-1540,728,404,23,-297,-827
1656876,-1562,712,405,22,-298,-828
1656893,-1539,746,400,31,-331,-841
1656910,-1520,711,417,38,-313,-845
1656926,-1557,734,393,45,-355,-871
1656958,-1522,732,398,41,-344,-844
1656976,-1539,753,407,29,-314,-852
1656992,-1457,721,428,29,-310,-820
1657009,-1448,772,413,3,-270,-804
1657025,-1542,738,388,7,-350,-893
1657042,-1492,752,404,-10,-333,-839
1657074,-1529,709,384,11,-391,-860
1657092,-1475,744,409,21,-363,-864
1657108,-1539,742,371,12,-426,-900
1657124,-1452,770,398,16,-360,-790
1657142,-1474,779,420,20,-337,-815
1657159,-1358,782,425,-10,-309,-666
1657190,-1209,779,477,78,-202,-524
1657207,-1217,752,467,67,-136,-440
1657225,-1274,657,443,30,-127,-420
1657241,-1283,706,471,56,-5,-394
1657258,-1307,626,455,59,-29,-426
1657274,-1374,582,419,44,-23,-447
1657307,-1433,522,384,48,-49,-514
1657324,-1414,546,383,41,-78,-544
1657341,-1354,595,438,57,-4,-475
1657358,-1399,574,420,89,-109,-558
1657374,-1368,517,441,84,-126,-567
1657392,-1418,554,425,96,-144,-530
1657423,-1415,564,390,64,-84,-553
1657441,-1426,509,370,43,-49,-552
1657457,-1448,499,378,63,-31,-525
1657474,-1440,501,393,86,3,-536
1657491,-1394,479,407,79,74,-527
1657507,-1462,492,384,96,-31,-534
1657539,-1441,481,354,77,-110,-636
1657557,-1440,525,339,87,-131,-663
1657574,-1429,510,374,109,-105,-568
1657590,-1419,511,352,105,-130,-638
1657607,-1399,554,361,101,-141,-659
1657624,-1397,520,359,101,-135,-598
1657656,-1399,549,347,71,-134,-628
1657674,-1356,534,327,74,-68,-553
1657689,-1354,505,356,95,-49,-579
1657707,-1386,516,344,16,-22,-565
1657723,-1387,511,342,27,-50,-597
1657740,-1389,484,329,24,-59,-588
1657757,-1398,503,337,29,-97,-653
1657774,-1344,544,344,36,-36,-594
1657790,-1376,495,316,50,-168,-638
1657807,-1382,536,317,62,-142,-656
1657824,-1345,515,311,65,-165,-697
1657840,-1330,572,312,54,-136,-658
1657857,-1308,590,336,72,-166,-618
1657888,-1345,544,320,84,-231,-695
1657906,-1355,532,328,73,-251,-685
1657922,-1306,578,348,87,-210,-663
1657940,-1325,549,303,38,-301,-721
1657956,-1296,571,301,50,-198,-649
1657973,-1256,563,312,44,-177,-631
1658005,-1253,537,357,134,-121,-636
1658023,-1289,533,347,130,-194,-662
1658040,-1266,563,343,114,-146,-653
1658056,-1234,570,351,105,-187,-636
1658073,-1252,542,311,94,-246,-685
1658089,-1260,561,306,62,-214,-722
1658107,-1235,558,304,27,-237,-642
1658123,-1215,565,337,61,-208,-682
1658139,-1229,571,326,60,-238,-682
1658156,-1193,609,342,55,-236,-670
1658173,-1219,545,348,72,-274,-697
1658189,-1226,554,354,61,-254,-695
1658207,-1212,566,343,46,-254,-706
1658223,-1249,508,355,62,-259,-722
1658240,-1195,581,353,75,-219,-723
1658257,-1176,568,367,56,-175,-633
1658274,-1267,516,314,39,-298,-786
1658290,-1214,556,299,45,-278,-723
1658307,-1248,577,327,67,-242,-768
1658323,-1200,572,351,111,-298,-711
1658354,-1239,570,353,218,-271,-704
1658372,-1186,556,367,320,-281,-734
1658388,-1150,569,387,415,-269,-667
1658405,-1146,556,351,287,-304,-765
1658422,-1128,606,328,191,-247,-664
1658439,-1176,553,342,161,-308,-736
1658471,-1099,603,330,32,-272,-684
1658487,-1136,562,285,-74,-264,-643
1658505,-1048,630,315,-148,-291,-642
1658522,-933,691,306,-190,-241,-438
1658538,-950,691,279,-214,-358,-550
1658555,-926,735,285,-236,-361,-593
1658587,-993,710,278,-316,-363,-659
1658605,-1058,655,238,-292,-421,-706
1658621,-1052,641,254,-210,-468,-722
1658638,-1003,660,292,-197,-372,-691
1658654,-1065,663,291,-68,-442,-680
1658672,-1032,629,340,46,-442,-711
1658704,-1054,642,312,224,-463,-754
1658721,-1090,639,246,26,-505,-787
1658738,-1102,696,272,99,-489,-835
1658754,-1110,632,259,131,-595,-851
1658771,-1132,639,288,248,-591,-881
1658788,-1090,660,356,441,-569,-788
1658804,-1096,622,343,377,-592,-822
1658821,-1128,648,320,295,-567,-841
1658838,-1165,611,295,271,-594,-856
1658854,-1127,631,316,303,-569,-804
1658873,-1094,620,338,307,-554,-807
1658888,-1141,635,309,311,-537,-778
1658905,-1094,629,313,328,-529,-776
1658936,-1101,628,279,147,-545,-797
1658953,-1130,603,270,137,-580,-823
1658970,-1127,594,282,148,-558,-818
1658987,-1084,599,261,118,-553,-780
1659003,-1097,632,287,129,-513,-755
1659021,-1069,648,266,127,-497,-753
1659037,-1124,585,254,119,-544,-820
1659055,-1066,606,267,110,-496,-737
1659072,-1066,584,249,93,-509,-794
1659087,-1091,642,250,85,-488,-748
1659105,-1102,620,232,72,-540,-805
1659121,-1064,652,250,68,-514,-773
1659137,-1071,625,236,64,-499,-737
1659169,-1070,592,227,39,-551,-800
1659187,-1067,639,221,37,-503,-770
1659204,-1067,626,211,29,-571,-810
1659220,-1052,609,232,34,-506,-790
1659236,-1035,609,225,28,-547,-776
1659253,-1065,634,227,9,-526,-782
1659285,-1054,555,203,-70,-458,-717
1659302,-1068,596,201,-90,-428,-758
1659319,-1043,562,195,-109,-439,-731
1659336,-1093,596,190,-140,-436,-752
1659353,-1023,584,202,-161,-391,-702
1659370,-1047,606,206,-128,-386,-701
1659402,-1082,566,154,-128,-418,-758
1659419,-1046,600,206,-46,-382,-719
1659435,-1038,602,214,7,-382,-696
1659453,-1068,590,220,6,-387,-703
1659470,-997,607,230,0,-396,-724
1659486,-1010,644,233,0,-464,-726
1659518,-1020,663,241,71,-551,-774
1659536,-1015,656,260,79,-569,-772
1659552,-1011,664,263,96,-510,-736
1659569,-999,633,257,45,-539,-765
1659586,-1058,666,231,10,-530,-752
1659602,-1023,620,215,-26,-565,-788
1659634,-1022,663,236,62,-531,-788
1659652,-1029,635,228,46,-504,-730
1659668,-1030,639,228,65,-510,-766
1659686,-1036,621,224,94,-499,-770
1659702,-1044,644,251,117,-529,-741
1659719,-997,634,258,132,-468,-725
1659751,-965,620,269,177,-424,-699
1659769,-991,593,269,305,-379,-668
1659785,-980,590,301,374,-364,-679
1659802,-948,620,316,389,-384,-671
1659818,-946,573,344,661,-378,-644
1659835,-928,601,406,949,-316,-570
1659867,-966,598,306,359,-352,-671
1659885,-938,599,273,233,-363,-648
1659901,-946,593,251,180,-368,-642
1659919,-972,583,247,195,-361,-618
1659935,-973,602,270,189,-358,-661
1659952,-948,591,248,155,-385,-665
1659984,-894,611,242,121,-310,-524
1660002,-791,626,299,156,-272,-491
1660018,-850,624,275,183,-259,-508
1660035,-845,592,287,244,-236,-518
1660051,-885,557,290,292,-210,-539
1660068,-889,572,296,333,-225,-570
1660100,-903,580,292,247,-212,-560
1660118,-958,537,245,132,-287,-642
1660134,-930,544,223,-34,-241,-597
1660151,-890,562,219,-210,-226,-607
1660168,-960,560,164,-257,-291,-626
1660184,-918,577,202,-138,-200,-621
1660217,-864,610,244,-1,-243,-594
1660234,-901,567,224,87,-263,-646
1660251,-905,597,252,132,-274,-627
1660268,-873,595,269,181,-233,-589
1660285,-888,596,272,206,-242,-605
1660301,-862,597,262,220,-268,-611
1660332,-841,642,256,202,-269,-611
1660349,-816,644,284,194,-273,-613
1660367,-817,632,266,156,-260,-618
1660384,-843,626,262,159,-279,-611
1660400,-874,585,240,170,-359,-677
1660417,-836,632,262,165,-298,-635
1660449,-863,598,251,137,-326,-676
1660466,-800,624,245,123,-310,-635
1660484,-831,603,247,116,-320,-657
1660500,-823,627,249,126,-294,-653
1660517,-810,596,245,153,-273,-620
1660534,-777,562,262,159,-254,-623
1660565,-806,559,258,138,-242,-613
1660583,-781,578,293,159,-227,-573
1660600,-792,584,278,197,-236,-622
1660617,-807,524,239,223,-306,-680
1660633,-790,541,264,248,-291,-687
1660650,-776,599,274,246,-220,-617
1660682,-780,555,243,245,-274,-687
1660700,-753,594,272,257,-231,-642
1660716,-756,605,276,276,-197,-620
1660733,-785,549,239,283,-263,-669
1660749,-755,600,256,274,-220,-647
1660766,-738,565,260,258,-190,-580
1660798,-632,651,288,210,-219,-529
1660815,-589,684,276,150,-267,-532
1660832,-618,697,279,100,-314,-556
1660850,-596,706,291,148,-353,-559
1660866,-626,687,288,179,-384,-619
1660882,-632,694,300,240,-403,-643
1660914,-623,672,345,677,-394,-644
1660932,-666,656,380,683,-405,-662
1660949,-623,664,371,540,-371,-647
1660966,-666,654,451,969,-381,-638
1660983,-681,632,469,959,-402,-688
1660999,-662,633,500,796,-371,-619
1661031,-682,652,311,52,-348,-702
1661048,-648,652,300,-66,-344,-661
1661065,-586,688,304,-174,-317,-627
1661081,-611,682,257,-405,-293,-594
1661099,-556,746,89,-787,-284,-575
1661115,-468,762,123,-547,-315,-538
1661133,-434,818,132,-528,-238,-504
1661150,-485,767,137,-406,-305,-567
1661166,-491,801,133,-403,-280,-497
1661183,-521,788,101,-424,-357,-565
1661200,-458,785,46,-429,-354,-591
1661216,-512,805,222,-10,-351,-587
1661233,-503,708,342,292,-429,-664
1661265,-560,693,428,419,-441,-695
1661282,-596,664,427,405,-444,-653
1661298,-614,658,409,384,-437,-692
1661315,-630,659,399,363,-414,-662
1661332,-593,653,438,363,-439,-692
1661348,-565,671,467,432,-371,-608
1661380,-557,621,452,437,-425,-638
1661398,-473,715,426,271,-319,-470
1661413,-403,715,360,184,-293,-507
1661431,-448,707,373,273,-360,-466
1661448,-509,654,407,357,-400,-580
1661465,-446,688,489,435,-367,-531
1661496,-549,629,441,423,-373,-593
1661514,-554,588,430,422,-412,-669
1661531,-545,628,427,392,-425,-618
1661547,-583,619,429,393,-352,-627
1661565,-524,624,463,501,-412,-635
1661581,-576,602,546,661,-397,-613
1661614,-612,540,631,652,-436,-664
1661631,-592,547,722,855,-446,-693
1661647,-609,559,717,884,-416,-650
1661664,-587,525,741,815,-449,-662
1661680,-551,576,549,508,-411,-630
1661698,-512,558,435,273,-407,-536
1661730,-492,593,342,162,-359,-499
1661747,-459,594,315,146,-376,-563
1661764,-504,597,311,122,-327,-534
1661780,-486,585,278,66,-388,-575
1661798,-501,596,232,-23,-314,-565
1661814,-454,623,129,-208,-330,-534
1661846,-511,597,-92,-467,-293,-573
1661863,-485,621,-76,-354,-302,-609
1661881,-486,639,67,-191,-282,-577
1661896,-469,628,61,-208,-274,-603
1661914,-472,611,19,-263,-299,-582
1661930,-472,633,-18,-313,-255,-628
1661962,-453,603,174,-17,-329,-684
1661979,-454,585,344,261,-375,-551
1661996,-390,549,542,535,-362,-646
1662014,-438,515,691,805,-284,-470
1662030,-522,438,704,721,-264,-581
1662047,-529,446,482,502,-194,-612
1662081,-542,465,290,232,-124,-653
1662096,-536,469,310,218,-49,-550
1662113,-549,493,250,220,-105,-617
1662130,-584,462,256,216,-76,-617
1662146,-575,473,262,187,-124,-634
1662163,-573,485,217,156,-82,-582
1662195,-599,509,189,105,-194,-683
1662212,-605,553,172,91,-268,-787
1662228,-645,565,153,49,-396,-827
1662246,-588,611,181,62,-319,-772
1662263,-594,560,179,59,-330,-771
1662279,-638,568,164,84,-341,-775
1662311,-639,562,166,121,-344,-790
1662328,-642,554,162,118,-358,-736
1662345,-650,543,145,97,-373,-845
1662363,-633,541,151,65,-363,-768
1662380,-631,563,123,57,-346,-737
1662396,-641,560,165,68,-345,-785
1662427,-603,548,162,83,-275,-714
1662445,-621,541,199,69,-246,-704
1662461,-676,498,141,42,-307,-741
1662478,-613,542,161,21,-280,-690
1662495,-640,519,130,-15,-287,-720
1662512,-607,531,112,-52,-247,-677
1662545,-593,588,48,-221,-220,-637
1662562,-604,557,76,-132,-256,-686
1662578,-557,606,137,-37,-242,-661
1662595,-561,630,186,34,-297,-676
1662612,-613,592,180,58,-377,-734
1662629,-570,600,188,71,-422,-783
1662662,-565,598,186,-2,-387,-716
1662679,-559,595,155,-6,-387,-711
1662695,-540,592,188,101,-353,-682
1662712,-574,579,216,195,-402,-766
1662728,-541,615,233,209,-340,-655
1662745,-516,630,256,167,-328,-653
1662777,-535,621,302,266,-339,-654
1662795,-531,587,373,422,-378,-699
1662811,-549,595,346,335,-382,-683
1662828,-539,595,337,327,-370,-700
1662844,-500,601,330,326,-337,-635
1662862,-506,597,289,266,-353,-661
1662893,-486,591,349,340,-310,-643
1662911,-515,565,298,251,-345,-666
1662926,-461,612,270,189,-272,-591
1662943,-531,592,258,196,-312,-643
1662960,-496,595,276,202,-330,-623
1662978,-480,587,290,210,-328,-652
1663010,-501,600,305,214,-287,-600
1663027,-455,570,324,211,-244,-602
1663044,-472,553,318,211,-219,-502
1663061,-485,548,328,233,-236,-580
1663077,-415,601,347,242,-212,-538
1663094,-466,560,328,250,-230,-529
1663127,-514,541,299,249,-267,-563
1663144,-535,503,291,232,-301,-662
1663160,-431,567,328,227,-197,-532
1663178,-489,547,329,190,-276,-589
1663194,-454,572,310,183,-202,-542
1663211,-481,552,308,176,-254,-566
1663243,-447,559,291,167,-239,-552
1663260,-460,546,285,153,-252,-596
1663277,-479,531,268,151,-258,-561
1663294,-451,567,297,150,-225,-582
1663311,-445,539,270,149,-232,-534
1663326,-430,568,298,159,-226,-563
1663359,-450,564,298,163,-233,-541
1663376,-427,562,291,162,-264,-573
1663392,-447,547,294,150,-253,-554
1663410,-386,591,319,152,-233,-484
1663426,-394,596,303,149,-231,-537
1663443,-411,600,325,158,-236,-502
1663475,-382,586,322,188,-231,-511
1663492,-419,559,337,203,-229,-477
1663510,-356,603,367,225,-225,-514
1663526,-391,576,346,198,-248,-478
1663543,-358,584,339,201,-243,-470
1663559,-391,560,331,176,-260,-502
1663591,-349,576,347,192,-245,-463
1663614,-395,571,335,184,-240,-481
1663626,-338,606,354,190,-221,-437
1663643,-359,594,357,187,-283,-484
1663659,-350,600,360,181,-209,-401
1663676,-328,594,349,175,-245,-473
1663708,-354,573,328,171,-248,-456
1663725,-402,557,327,168,-293,-499
1663742,-364,572,353,180,-269,-470
1663759,-356,600,352,184,-206,-430
1663776,-334,591,335,182,-253,-497
1663793,-370,565,321,158,-243,-457
1663825,-331,598,335,161,-244,-461
1663842,-322,599,335,159,-235,-438
1663859,-347,540,323,157,-270,-461
1663876,-347,565,333,159,-257,-500
1663892,-331,568,342,160,-243,-442
1663909,-346,570,317,162,-273,-478
1663941,-345,562,350,182,-280,-476
1663959,-341,553,330,174,-270,-509
1663976,-348,556,358,181,-283,-442
1663992,-327,590,353,182,-251,-504
1664009,-301,574,373,190,-256,-433
1664026,-318,565,347,192,-264,-474
1664059,-296,576,368,167,-268,-428
1664075,-286,590,369,106,-222,-406
1664092,-314,573,374,153,-236,-404
1664109,-303,563,356,184,-236,-423
1664125,-339,546,339,199,-262,-440
1664142,-296,557,315,193,-252,-415
1664174,-348,548,313,182,-244,-407
1664191,-316,564,322,158,-271,-447
1664208,-311,562,324,153,-239,-408
1664225,-324,569,306,149,-267,-405
1664241,-338,529,300,126,-283,-434
1664258,-365,579,331,124,-286,-442
1664290,-329,564,309,118,-251,-411
1664308,-315,591,309,120,-210,-377
1664325,-283,625,350,125,-169,-340
1664341,-262,621,365,127,-214,-356
1664358,-245,632,368,126,-149,-316
1664375,-265,619,389,129,-180,-347
1664391,-259,654,381,132,-162,-278
1664408,-247,640,410,154,-175,-291
1664424,-269,622,380,152,-225,-348
