TIME,AF3,F7,F3,F4,F8,AF4
584535,-4040,-7223,-837,153,-7244,-1425
584569,-5455,-6970,-736,120,-6941,-1727
584587,-4420,-6329,-596,171,-6948,-1399
584603,-3179,-5129,-567,213,-6902,-1051
584620,-2693,-4610,-562,260,-6617,-930
584637,-2577,-4383,-566,276,-6422,-910
584654,-2449,-4244,-578,305,-6223,-889
584685,-3121,-4954,-608,233,-6671,-1078
584702,-2302,-3076,-517,336,-5586,-811
584719,-1411,-951,-497,455,-4343,-591
584736,-1834,-3021,-598,411,-5455,-757
584754,-3163,-5643,-665,223,-6950,-1145
584770,-4287,-6523,-718,155,-7006,-1452
584802,-6716,-6955,-833,94,-6937,-2219
584819,-6994,-6958,-849,66,-6935,-2560
584837,-6985,-6933,-878,-7,-6936,-2821
584853,-6955,-6936,-865,-37,-6936,-3154
584870,-6946,-6934,-822,-37,-6936,-3131
584887,-6949,-6934,-811,-40,-6936,-3131
584918,-7001,-6994,-699,10,-6936,-2766
584935,-6952,-7017,-628,61,-6985,-2394
584952,-6395,-6112,-548,103,-7131,-1961
584969,-5086,-4679,-508,152,-7217,-1580
584986,-3273,1938,-393,494,-2754,-1073
585002,-90,5860,-343,786,4928,-292
585034,3325,7118,-269,930,7273,588
585052,6063,6981,-88,943,6992,1472
585068,7158,6959,192,1018,6956,2856
585085,7060,6955,329,1116,6957,4193
585102,6965,6957,251,1112,6959,4819
585118,6956,6957,5,1107,6957,4521
585151,6958,6957,-298,1094,6957,3371
585168,7004,6997,-376,1033,6957,2772
585186,7061,7069,-471,973,6994,2198
585201,6848,7154,-548,940,7166,1646
585218,5237,5789,-642,917,7319,947
585236,2672,1885,-772,757,5501,225
585269,-3207,-7021,-857,152,-7284,-1317
585285,-4519,-7125,-841,123,-7199,-1676
585302,-5198,-7035,-786,111,-6966,-1771
585319,-4338,-6202,-636,154,-6941,-1429
585335,-3335,-5243,-582,196,-6907,-1127
585352,-3028,-5162,-663,199,-6908,-1064
585369,-4172,-6608,-813,149,-6938,-1462
585401,-7052,-7316,-766,34,-7155,-2444
585417,-5463,-6136,-513,111,-7249,-1644
585435,-2355,-986,-367,310,-5494,-798
585452,382,5282,-324,691,1838,-85
585468,1573,5673,-375,830,5347,29
585486,-39,724,-729,456,-523,-516
585517,-6846,-7260,-1033,28,-7332,-2882
585534,-7043,-6990,-1002,-40,-6938,-3380
585552,-6972,-6937,-881,-38,-6939,-3300
585569,-6936,-6936,-747,9,-6939,-2910
585584,-6940,-6937,-710,53,-6936,-2616
585602,-6930,-6939,-716,94,-6936,-2465
585634,-6974,-6973,-653,95,-6937,-2765
585651,-6742,-6202,-549,122,-7002,-2449
585668,-5105,-5183,-534,176,-6986,-1822
585684,-3893,-3107,-475,268,-6236,-1442
585701,-2884,-1210,-490,424,-4866,-1183
585718,-2833,-1723,-530,425,-4773,-1201
585750,-2689,-2110,-568,437,-4817,-1180
585768,-3809,-5122,-666,274,-6552,-1569
585785,-5328,-6680,-755,138,-7036,-2049
585801,-6394,-7080,-759,113,-7008,-2343
585818,-6500,-6878,-705,100,-7032,-2344
585834,-5622,-5773,-606,136,-7064,-2029
585866,-2490,-28,-491,478,-3423,-1148
585883,-2113,163,-524,557,-2286,-1096
585900,-2431,-1263,-577,480,-3436,-1227
585917,-2564,-1428,-572,482,-3572,-1261
585934,-1370,2348,-467,647,1260,-856
585951,689,5912,-386,890,6507,-267
585982,3932,7046,-297,940,7079,697
586000,4823,7002,-301,934,6977,967
586018,5182,6963,-325,940,6958,1032
586033,5696,6961,-293,940,6957,1215
586050,6681,6983,-252,948,6958,1589
586067,6821,7059,-313,950,6985,1672
586099,3965,6026,-600,929,7288,544
586117,1580,2693,-702,880,5708,-159
586134,-930,-3320,-722,584,-802,-820
586149,-2190,-4990,-700,466,-5347,-1095
586166,-2106,-3419,-615,460,-4614,-1004
586183,-2495,-6135,-758,273,-6843,-1484
586215,-6827,-7170,-864,79,-7074,-2537
586233,-6657,-7259,-718,74,-7288,-2372
586249,-4874,-5486,-548,143,-7148,-1727
586282,806,6252,-331,826,5805,-105
586299,2481,7019,-371,936,7371,420
586332,1546,4556,-562,864,5722,-77
586349,710,3543,-568,815,4710,-298
586366,960,4342,-505,831,5281,-189
586383,2116,5948,-423,890,6743,183
586399,2895,6549,-416,908,7015,401
586416,3828,7015,-392,907,7000,691
586448,5943,6975,-196,939,6956,1422
586465,7117,7045,-188,980,6966,2174
586482,7014,7082,-353,973,7028,1955
586499,5673,6899,-550,941,7175,1172
586515,2590,3529,-712,891,6211,190
586532,1338,2117,-627,842,4823,-78
586564,-518,-1723,-655,613,-1760,-553
586582,-2013,-4829,-707,401,-5812,-996
586598,-3152,-5711,-727,254,-6810,-1318
586616,-3540,-5906,-702,203,-7023,-1405
586632,-3381,-5194,-614,227,-6729,-1319
586649,-2181,-3024,-552,368,-5400,-953
586681,-930,-31,-549,594,-2611,-611
586698,-1183,-964,-616,508,-3445,-697
586714,-2423,-4276,-628,355,-5827,-1082
586732,-1206,-76,-478,518,-2772,-651
586748,597,4538,-428,764,3652,-119
586765,1303,4868,-473,848,5124,14
586797,-1261,-1722,-594,565,-3436,-711
586815,91,3047,-372,840,2073,-239
586831,2747,7223,-210,946,7245,1011
586848,5731,7200,-276,937,7228,1375
586865,5776,7226,-342,945,7144,1344
586881,4428,6481,-520,922,7197,867
586914,104,-668,-677,727,680,-365
586931,-623,-1795,-655,634,-2413,-533
586948,-1243,-2944,-646,451,-4629,-689
586964,-1708,-4657,-686,355,-6012,-831
586981,-2801,-5169,-694,273,-6594,-1128
586997,-3842,-6282,-764,182,-7043,-1431
587031,-7020,-6990,-922,72,-6947,-2531
587048,-7091,-7079,-850,53,-6961,-2653
587065,-6924,-6955,-621,88,-7244,-2081
587081,-5368,-4322,-477,179,-6942,-1369
587099,-1647,1366,-386,480,-3399,-674
587115,877,5895,-318,793,4815,6
587147,2799,6452,-417,931,7152,462
587164,2827,6273,-446,938,6969,449
587181,2010,5031,-543,906,5991,170
587198,970,3291,-598,798,4298,-123
587214,257,1683,-569,755,2332,-294
587231,46,911,-585,724,763,-339
587262,-572,303,-552,642,-1006,-485
587280,-507,280,-583,674,-830,-505
587297,-1663,-3272,-674,499,-4838,-861
587312,-3022,-5598,-714,260,-6717,-1261
587329,-3727,-6016,-700,185,-7214,-1490
587347,-3635,-4407,-578,272,-6255,-1404
587379,-630,1447,-514,657,-677,-546
587397,-611,1084,-537,671,-586,-539
587412,-890,-188,-596,656,-1641,-646
587430,-1954,-3225,-643,463,-5187,-951
587446,-2108,-3065,-594,419,-5030,-945
587463,-2177,-3204,-587,413,-5133,-988
587497,-1844,-2006,-585,458,-4434,-894
587513,-1545,-897,-554,521,-3329,-803
587530,-147,3335,-433,693,2151,-355
587546,2940,7241,-255,947,7457,577
587562,5055,7143,-240,948,7185,1199
587580,5967,7045,-286,961,7053,1438
587613,5169,6877,-443,943,6959,1122
587629,4843,6889,-419,941,6959,1034
587646,5426,6958,-357,949,6960,1235
587663,6037,6961,-358,944,6960,1428
587680,6167,6976,-371,951,6960,1415
587696,6314,7050,-360,950,6997,1778
587728,4706,6225,-541,936,7195,1154
587746,2422,3190,-698,806,5460,316
587762,34,-1747,-688,684,-1073,-433
587779,-768,-3149,-668,553,-4067,-679
587796,-1187,-3474,-644,450,-5149,-844
587812,-1100,-2484,-596,463,-4570,-801
587845,2423,6212,-359,888,6480,454
587862,4728,7167,-257,954,7258,1286
587879,6028,7071,-313,960,7140,1713
587895,6539,6957,-321,968,6958,1890
587912,6702,6958,-301,978,6956,2036
587929,6905,6961,-283,978,6958,2294
587961,6730,7047,-391,976,7009,2062
587979,6168,7060,-507,936,7122,1699
587994,4765,5911,-569,939,7216,1143
588012,2886,1266,-688,808,3060,478
588029,-195,-3777,-730,582,-4227,-531
588045,-1600,-5518,-722,319,-6633,-946
588077,-1840,-4602,-598,304,-6482,-949
588095,-690,-1484,-517,460,-4629,-542
588111,463,1744,-471,632,-1391,-157
588128,1476,4016,-473,769,2413,142
588145,1203,2658,-562,724,1324,38
588162,-305,-1777,-621,559,-4307,-497
588194,-1745,-4673,-659,334,-6454,-936
588212,-1841,-4171,-596,322,-6218,-927
588228,-1785,-4095,-617,347,-6153,-933
588245,-2243,-4708,-657,267,-6595,-1095
588262,-2736,-5251,-664,227,-6907,-1260
588278,-3020,-5484,-673,208,-6952,-1347
588310,-3546,-5864,-683,188,-6939,-1530
588327,-4173,-6470,-733,170,-6936,-1779
588344,-5561,-7027,-810,135,-6936,-2278
588361,-6539,-6976,-830,100,-6936,-2609
588378,-6432,-6964,-700,146,-6936,-2520
588394,-5798,-6638,-667,155,-6958,-2243
588426,-4194,-4713,-560,216,-6895,-1464
588444,-2538,-3046,-543,327,-6155,-1132
588460,-2663,-4069,-614,319,-6422,-1209
588478,-3897,-5994,-739,206,-6955,-1695
588495,-5993,-7111,-847,124,-6952,-2436
588511,-6705,-7001,-803,103,-6952,-2707
588543,-6610,-6936,-742,109,-6938,-2620
588560,-6706,-6936,-784,106,-6938,-2721
588578,-6961,-6936,-878,68,-6938,-3187
588594,-6985,-6996,-883,31,-6939,-3462
588611,-7057,-7128,-837,15,-7015,-3571
588628,-6996,-7153,-656,40,-7190,-3011
588660,-2436,822,-388,438,-4103,-1081
588677,-293,5549,-385,818,5011,-254
588694,1840,6601,-342,929,7006,220
588710,2374,6319,-412,945,7089,376
588727,3256,6908,-333,938,7037,721
588744,4495,6952,-310,948,6949,1176
588775,5828,6976,-350,957,6956,1642
588795,5049,6916,-501,947,6956,1154
588809,3837,6075,-512,940,6978,542
588826,3338,6126,-495,932,7028,377
588843,3240,5932,-517,935,7135,329
588860,2424,4846,-587,920,6409,18
588893,-863,-3044,-745,666,-2243,-1196
588911,-2462,-5919,-751,269,-6763,-1750
588926,-3219,-5856,-722,247,-6912,-2004
588943,-2981,-5010,-659,272,-6363,-1884
588960,-2925,-5065,-681,298,-6414,-1864
588977,-4488,-6706,-817,168,-7009,-2489
589008,-5242,-6639,-716,130,-7350,-2725
589026,-3491,-3930,-528,251,-6373,-2010
589043,-195,4333,-275,880,1868,-760
589060,3104,7281,-251,974,7215,450
589076,4872,7181,-337,967,7308,1079
589092,4295,6838,-450,947,7007,799
589125,3104,5760,-546,950,7073,293
589143,1862,3677,-651,879,5500,-205
589159,-1108,-4070,-833,615,-3303,-1312
589176,-4544,-7337,-1019,101,-7429,-2523
589193,-7196,-7142,-1060,27,-7216,-3967
589209,-7040,-6936,-1066,-34,-6939,-4625
589241,-6991,-7014,-968,-71,-6939,-4857
589258,-7070,-7188,-841,-57,-7073,-4550
589275,-7037,-7158,-629,21,-7339,-3654
589292,-4883,-4026,-423,167,-6885,-2344
589310,-1609,3183,-293,761,-1492,-1205
589326,1422,7228,-264,951,7374,-183
589357,4031,7025,-395,937,7034,712
589374,3796,6878,-444,939,7143,601
589391,2880,5896,-550,944,7178,208
589408,1483,3816,-646,895,5633,-349
589425,-877,-2376,-762,697,-974,-1194
589442,-3206,-7138,-891,154,-7321,-1998
589474,-7071,-6998,-1030,23,-6979,-3966
589491,-7009,-6935,-1170,-59,-6936,-5044
589507,-6940,-6933,-1134,-84,-6939,-5616
589525,-6938,-6934,-1127,-80,-6935,-6038
589541,-6938,-6940,-1157,-87,-6936,-6316
589558,-7034,-7200,-1052,-74,-7002,-6383
589590,-7046,-6589,-325,150,-7308,-3581
589608,-371,7029,-142,785,4450,-678
589624,1757,7220,-177,971,7272,450
589642,3541,7324,-356,970,7532,512
589658,2462,6430,-495,942,7044,32
589675,1240,5057,-587,923,6474,-441
589707,-516,1753,-645,799,3690,-1070
589724,-1610,-3125,-729,600,-3038,-1462
589741,-2944,-5409,-781,347,-6090,-2162
589758,-4681,-6130,-795,207,-6978,-2553
589775,-5210,-6332,-782,142,-7072,-2726
589791,-5004,-5842,-715,164,-6934,-2623
589823,-3225,-3030,-621,402,-4862,-1948
589841,-2835,-2279,-639,482,-4195,-1830
589858,-2833,-2524,-653,475,-4053,-1839
589874,-3031,-3273,-664,441,-4453,-1925
589891,-3156,-3525,-660,416,-4612,-1962
589908,-3455,-4267,-698,389,-5333,-2084
589939,-2396,-675,-557,546,-2184,-1650
589956,-480,4328,-483,802,4679,-984
589974,1125,6103,-455,951,6843,-444
589991,1950,6393,-446,939,7126,-19
590007,2700,6520,-476,943,7082,121
590024,2274,5849,-551,934,7166,-85
590056,-548,91,-742,782,2762,-1163
590074,-2668,-5023,-815,532,-4654,-1895
590090,-4586,-6811,-878,187,-7245,-2576
590107,-5626,-7029,-790,104,-7216,-2908
590124,-5154,-6047,-743,153,-6966,-2703
590140,-4672,-5446,-710,198,-6700,-2515
590172,-3826,-4372,-664,302,-5853,-2201
590189,-3166,-2962,-622,392,-4817,-1952
590207,-2562,-1468,-614,518,-3390,-1755
590224,-1772,690,-555,646,-259,-1462
590239,-619,4842,-496,845,5472,-1078
590257,871,6131,-448,919,6952,-300
590289,2217,6063,-538,930,7236,-121
590306,1102,4255,-652,891,6066,-608
590323,-1025,-1068,-781,737,1168,-1384
590340,-3375,-6012,-862,403,-6299,-2224
590357,-4687,-6346,-787,165,-7288,-2643
590373,-4385,-4337,-649,300,-5647,-2483
590406,-1821,497,-597,667,-174,-1511
590423,-996,1770,-595,734,1944,-1264
590440,-678,2438,-582,769,3172,-1165
590456,398,4873,-523,858,5721,-772
590473,1502,5947,-481,917,6820,-360
590490,2488,6492,-462,941,7060,5
590522,3067,6388,-524,933,6963,217
590539,2880,6196,-510,933,6959,141
590556,3078,6437,-505,933,6983,229
590572,3138,6428,-530,930,6983,232
590589,2608,5758,-590,903,6955,6
590606,1512,4211,-646,891,5994,-412
590639,1384,4569,-549,894,5895,-416
590656,2076,5998,-494,912,6917,53
590673,3528,6697,-460,937,7001,447
590689,3560,6544,-505,930,7008,429
590706,3068,5998,-574,919,7004,214
590723,2130,4862,-630,911,6433,-154
590755,1110,3222,-652,850,4954,-536
590772,867,3691,-599,831,4815,-586
590788,944,2806,-632,811,4213,-636
590805,228,1409,-657,777,2687,-817
590823,-1013,-2134,-734,658,-2014,-1284
590839,-2450,-5117,-766,379,-6001,-1770
590871,-3402,-5384,-739,248,-6570,-2077
590888,-3466,-5238,-725,255,-6498,-2097
590905,-3523,-5189,-714,258,-6539,-2104
590922,-2915,-3883,-639,332,-5753,-1843
590939,-1870,-1098,-585,488,-3786,-1459
590955,-692,1953,-537,666,251,-1047
590987,642,4316,-565,834,4657,-621
591005,986,4642,-539,852,5145,-484
591021,1674,5334,-507,894,5999,-220
591038,2010,4912,-577,893,5897,-113
591054,1361,3383,-638,835,4468,-564
591071,299,2151,-636,790,3313,-768
591104,999,4379,-570,853,5012,-475
591121,2094,5893,-473,910,6567,-32
591137,3926,7021,-361,939,7049,699
591154,5205,7017,-358,936,7016,1188
591171,5594,6982,-437,941,6955,1312
591188,5204,6936,-483,945,6960,1037
591220,3706,6094,-571,938,7019,511
591238,3076,5421,-600,905,6730,269
591255,2132,4130,-651,870,5562,-104
591271,1585,3632,-606,833,4832,-276
591288,1898,4479,-522,890,5385,-107
591305,2941,5825,-516,909,6713,297
591336,1992,4195,-638,872,5401,-116
591353,401,-85,-741,749,919,-727
591369,-1366,-4263,-763,501,-5183,-1316
591386,-2032,-4722,-739,350,-5933,-1522
591404,-1526,-2692,-554,540,-4753,-1280
591421,485,3358,-423,845,1855,-510
591453,3749,6039,-561,929,6929,383
591470,798,668,-763,801,1691,-595
591487,-2229,-6034,-858,353,-7003,-1645
591504,-3920,-6702,-870,164,-7166,-2242
591520,-4276,-6481,-789,135,-7206,-2309
591537,-4240,-6492,-783,128,-7349,-2306
591569,-1946,-982,-385,606,-4660,-1355
591587,3985,7340,-200,964,7637,852
591603,6914,7346,-110,977,7319,2126
591620,7175,7009,-143,1019,7042,2764
591637,7189,7104,-290,1018,7041,2746
591654,6687,7220,-513,979,7140,1907
591686,1457,1160,-771,750,3576,-347
591703,200,1971,-587,754,2434,-659
591720,3512,6848,-374,935,7090,678
591737,6586,7152,-183,970,7082,2030
591753,7205,7153,-145,1029,7069,2968
591770,7212,7220,-340,1020,7187,2833
591801,3422,3359,-803,883,5796,404
591819,410,-2812,-766,601,-1305,-670
591836,-428,-1729,-651,564,-3094,-849
591853,1671,4017,-490,778,3451,20
591868,3147,5917,-483,906,6378,537
591886,3264,5627,-524,913,6249,546
591919,1762,3399,-601,803,3649,-21
591936,3212,6056,-360,941,6378,607
591953,5436,7041,-232,964,7002,1534
591969,7165,7202,-266,1002,7164,2546
591986,6793,7188,-468,989,7244,2082
592003,4536,5429,-671,941,6747,957
592035,-223,-3692,-748,538,-4690,-760
592052,-832,-4573,-741,405,-5903,-955
592069,-4029,-7235,-908,140,-7269,-2223
592085,-4706,-6939,-920,133,-6977,-2411
592102,-6641,-6937,-1210,27,-6938,-4279
592119,-6954,-6938,-1163,-77,-6938,-5279
592151,-6948,-6937,-1045,-70,-6937,-5849
592168,-7007,-6998,-848,-58,-6937,-4839
592184,-7033,-7045,-795,-16,-6946,-4304
592202,-6687,-6843,-555,127,-6982,-3287
592219,-4683,-4929,-511,208,-6971,-2374
592234,-2286,-851,-513,346,-5712,-1499
592267,-2813,-3996,-681,305,-6328,-1840
592284,-3773,-5439,-738,215,-6960,-2230
592302,-4189,-5697,-723,173,-6962,-2358
592318,-3721,-4941,-644,231,-6899,-2139
592335,-3220,-4451,-700,234,-6684,-1973
592351,-4039,-5959,-844,159,-6972,-2335
592383,-6934,-7075,-883,80,-6936,-3712
592400,-6899,-7207,-822,62,-7065,-3608
592417,-6175,-6596,-686,99,-7329,-3104
592435,-4186,-4128,-558,197,-6850,-2269
592451,-1348,2962,-364,756,-1555,-1157
592468,1636,6906,-334,893,6854,-69
592500,3295,6242,-511,943,6950,471
592518,1960,5031,-600,898,5960,-109
592533,1288,4236,-600,868,5106,-361
592551,1235,4332,-583,857,5091,-350
592568,1581,5001,-551,892,5825,-202
592584,1555,4753,-629,864,5649,-239
592617,-953,-3255,-744,562,-4210,-1216
592634,-2400,-4612,-741,375,-5721,-1723
592651,-2366,-3884,-691,385,-5278,-1680
592668,-1756,-1941,-618,476,-3968,-1424
592684,-1211,-588,-631,588,-2642,-1229
592701,-1786,-2670,-693,491,-4531,-1497
592733,-3351,-5506,-753,259,-6751,-2094
592750,-3673,-5439,-735,223,-6778,-2198
592767,-3860,-5423,-742,226,-6786,-2264
592784,-3946,-5429,-725,227,-6820,-2290
592800,-3778,-5078,-692,234,-6680,-2210
592817,-3465,-3737,-630,326,-5715,-1895
592849,-1161,529,-595,633,-1566,-1218
592868,-1635,-1465,-720,464,-3613,-1437
592883,-2844,-4775,-806,264,-6023,-1928
592900,-5152,-6864,-879,141,-7083,-2848
592917,-6435,-7064,-916,98,-6997,-3350
592934,-6773,-7083,-881,86,-6960,-3547
592966,-5748,-6432,-699,114,-7286,-2941
592982,-3328,-2108,-506,308,-5593,-1933
592999,-233,5263,-402,741,3294,-779
593016,2266,7117,-379,956,7296,367
593033,3105,6511,-492,946,7205,328
593050,2211,5474,-572,918,6561,-15
593082,1788,5505,-538,907,6547,-142
593099,3098,6781,-435,937,7000,425
593116,4232,7046,-409,935,6981,888
593132,4609,7085,-454,940,7037,1009
593149,3833,5795,-607,923,7008,394
593167,1804,3959,-684,891,5748,-197
593199,98,828,-686,771,2538,-789
593216,-220,314,-683,729,1260,-907
593233,-553,-403,-688,691,-52,-1008
593250,-934,-1202,-682,639,-1496,-1156
593265,-883,-602,-658,640,-1183,-1103
593282,-249,2642,-579,766,2851,-682
593315,1515,5618,-503,901,6419,31
593332,3165,6622,-438,941,7061,485
593348,4426,7046,-382,935,7001,1035
593366,5476,6991,-369,949,6975,1450
593383,6208,6968,-364,962,6957,1746
593400,6609,6956,-336,980,6957,1988
593431,6947,6957,-338,1007,6957,2625
593449,6924,6961,-402,1000,6957,2458
593466,6799,7008,-461,972,6959,2176
593482,6458,7055,-508,958,7010,1819
593499,5603,6793,-573,948,7044,1415
593516,3919,5120,-698,905,6794,699
593548,1554,1559,-667,798,3364,-162
593565,953,492,-686,766,1426,-374
593581,-245,-2583,-744,621,-3186,-839
593599,-1829,-5545,-819,350,-6546,-1430
593615,-3684,-6958,-891,173,-7205,-2151
593632,-4194,-6765,-819,153,-7030,-2299
593665,-3316,-5417,-720,208,-6922,-1918
593682,-3527,-5781,-754,198,-6938,-2019
593699,-4369,-6608,-828,173,-6933,-2383
593716,-5572,-7033,-889,140,-6936,-2868
593732,-6370,-7018,-878,114,-6939,-3158
593748,-5914,-6987,-764,118,-6987,-2916
593780,-3284,-4294,-613,229,-6733,-1868
593798,-2090,-384,-561,463,-4284,-1397
593814,-598,1791,-535,619,-1352,-861
593831,396,4022,-525,743,2455,-511
593847,1423,5351,-492,857,5368,-122
593865,2012,5626,-505,901,6015,90
593897,1903,4937,-572,876,5579,11
593915,1306,3699,-638,832,4362,-250
593931,216,-531,-711,683,-962,-673
593948,-883,-2821,-722,516,-4400,-1079
593964,-1749,-3492,-719,413,-5154,-1355
593981,-1935,-3605,-697,386,-5438,-1416
594013,-1075,-767,-624,540,-3291,-1063
594031,-601,457,-622,627,-1556,-889
594048,-591,221,-639,630,-1564,-900
594064,-674,-286,-655,604,-2109,-964
594081,-764,-294,-654,612,-2159,-970
594097,-519,564,-618,635,-1130,-859
594129,1059,4510,-540,817,4473,-255
594146,1666,5018,-540,869,5382,-32
594164,1898,5044,-539,875,5585,56
594180,2220,5260,-542,906,5909,179
594197,2692,5910,-516,913,6681,382
594213,2837,5399,-587,913,6345,295
594246,520,1175,-697,761,1967,-523
594264,277,1149,-638,728,1096,-564
594279,1147,3918,-558,809,4121,-200
594297,2092,5162,-527,886,5642,168
594313,2747,5796,-504,929,6474,424
594330,3041,5684,-548,908,6535,470
594362,1948,4211,-628,865,5157,48
594379,1147,2391,-663,807,3406,-268
594396,-2,-711,-727,702,-826,-706
594413,-937,-2703,-724,541,-4132,-1023
594429,-1165,-2668,-691,471,-4419,-1072
594447,-1149,-2323,-678,475,-4351,-1055
594478,-1263,-2950,-699,435,-5041,-1098
594496,-2075,-4427,-741,355,-5953,-1425
594512,-2527,-4900,-731,303,-6369,-1586
594530,-2443,-4404,-693,323,-6204,-1529
594547,-1750,-2340,-623,408,-4900,-1234
594563,-378,1719,-532,613,-1067,-698
594595,3382,7196,-379,948,7283,753
594612,4616,7062,-407,941,7077,1249
594629,4825,6947,-477,941,7002,1288
594645,3886,5973,-581,932,6888,846
594663,2663,4704,-636,892,5849,353
594680,2071,4071,-632,858,5046,143
594711,2698,5335,-549,899,6125,439
594729,2822,5264,-575,906,6117,467
594745,2576,4528,-606,871,5363,270
594762,2075,4372,-597,868,5053,190
594779,2468,4986,-539,873,5637,371
594796,2870,5330,-534,901,6033,540
594827,3466,5846,-526,919,6626,774
594845,3491,5771,-544,922,6618,758
594861,3472,5847,-544,924,6663,768
594878,3181,5310,-577,909,6184,634
594895,2837,4964,-584,895,5778,505
594912,2968,5153,-556,897,5889,588
594929,3401,5649,-523,916,6382,773
594961,4075,6212,-514,934,6924,1037
594978,3700,5744,-612,905,6687,850
594995,2696,4358,-651,849,5355,444
595012,1117,749,-695,749,1089,-163
595029,322,-924,-690,649,-1921,-518
595045,-254,-1988,-692,549,-3943,-748
595077,-1015,-3284,-687,430,-5211,-1039
595094,-1396,-4050,-716,373,-5864,-1188
595110,-1971,-4883,-728,299,-6508,-1434
595128,-2806,-6085,-762,195,-7243,-1784
595144,-2203,-4214,-632,294,-6427,-1437
595161,-530,354,-517,516,-3319,-750
595194,1344,3883,-563,791,2862,-111
595212,1065,2844,-605,762,1881,-232
595228,26,-359,-688,570,-2096,-675
595245,-813,-2480,-681,456,-5000,-977
595261,-889,-1537,-645,487,-4419,-941
595278,-628,-1120,-648,515,-3989,-853
595311,-1661,-4021,-737,377,-5801,-1311
595329,-2820,-5624,-801,242,-6917,-1784
595346,-3772,-6456,-825,163,-7009,-2179
595361,-4476,-6823,-813,146,-6991,-2453
595379,-4431,-6023,-724,151,-7012,-2415
595394,-3566,-4427,-637,242,-6662,-1779
595443,-789,177,-604,537,-3265,-1155
595461,-100,1893,-574,653,-639,-859
595478,691,3773,-542,735,2373,-550
595494,1573,5117,-494,874,5078,-226
595512,2532,6239,-469,921,6737,360
595528,3503,6365,-465,938,6921,596
595559,5090,7017,-417,943,7015,1311
595577,4872,6759,-503,942,7033,1170
595593,3834,5842,-597,935,6877,669
595611,2426,4135,-665,843,5384,56
595627,1581,2717,-674,787,3963,-283
595645,1085,2767,-612,779,3199,-448
595677,693,1076,-653,732,748,-597
595694,286,117,-671,674,-739,-761
595711,-245,-1167,-695,600,-2724,-970
595727,-381,-1080,-662,578,-3122,-995
595744,21,305,-616,660,-1575,-819
595760,412,1389,-626,691,-66,-658
595792,227,705,-640,675,-750,-749
595810,598,1960,-593,692,715,-565
595826,1154,3392,-571,774,2801,-341
595843,1933,4787,-531,835,4910,-9
595860,2519,5415,-531,885,5809,236
595876,2693,5418,-551,901,5955,284
595909,2131,3341,-646,816,3908,27
595926,1143,2027,-653,773,2220,-372
595944,839,1446,-653,736,1066,-479
595960,763,1460,-626,717,785,-497
595976,125,-419,-706,658,-1598,-775
595993,222,635,-606,633,-1028,-670
596025,2727,5937,-471,883,6244,377
596043,3606,6175,-504,925,6845,732
596059,3146,5150,-594,899,5971,480
596076,2083,3582,-652,841,4304,23
596092,1195,1619,-685,764,1975,-353
596109,403,-204,-694,680,-969,-650
596141,239,141,-655,637,-1541,-681
596159,423,904,-605,686,-679,-592
596175,1077,4061,-548,782,3496,-303
596192,2839,5708,-481,881,6028,465
596209,3968,6547,-459,941,7035,945
596226,3977,6203,-530,934,6857,905
596258,2640,4508,-637,872,5278,503
596276,2234,4129,-599,834,4643,354
596291,2547,4790,-565,854,5208,506
596309,3189,5540,-533,905,6150,789
596325,3500,5543,-562,903,6226,900
596343,3350,5319,-577,901,6039,827
596374,3128,5229,-579,895,5875,748
596392,3322,5551,-557,905,6145,857
596408,3454,5468,-562,909,6116,890
596425,3189,5050,-603,872,5683,788
596442,2619,4224,-628,848,4692,550
596459,2651,4474,-586,847,4839,586
596491,3471,5638,-554,905,6167,931
596509,3193,5029,-606,896,5627,789
596525,2307,3614,-661,820,4011,420
596542,2037,3217,-621,805,3371,334
596559,2222,4422,-582,822,4473,433
596576,2732,4603,-587,848,4802,637
596607,1750,2277,-668,771,1965,207
596625,381,-1468,-746,624,-3247,-351
596642,-1050,-4605,-792,381,-6254,-873
596658,-2155,-5773,-820,255,-7132,-1299
596675,-2497,-5545,-731,250,-7003,-1395
596691,-2067,-3877,-673,318,-6106,-1200
596723,-1150,-3089,-699,390,-5699,-865
596740,-1820,-4638,-750,314,-6550,-1122
596757,-2801,-5844,-797,211,-7023,-1528
596774,-3071,-5808,-762,200,-7005,-1584
596791,-2421,-4502,-675,257,-6649,-1309
596809,-1778,-3024,-650,367,-5743,-1041
596840,-2583,-5106,-770,255,-6834,-1436
596857,-3167,-5731,-789,208,-6986,-1641
596874,-3439,-5860,-776,188,-6990,-1741
596891,-3143,-5344,-725,210,-6979,-1601
596907,-2638,-4580,-691,260,-6686,-1409
596924,-2076,-3472,-661,328,-6030,-1183
596957,-916,-513,-623,544,-4143,-725
596974,-109,1297,-601,623,-1673,-427
596991,382,2386,-594,692,203,-247
597007,341,1809,-632,688,20,-290
597024,156,1154,-634,682,-698,-373
597041,77,984,-637,650,-937,-402
597073,1078,3750,-569,766,2869,17
597090,2361,5370,-530,875,5617,529
597108,2913,5821,-528,903,6344,750
597124,3008,5707,-559,908,6318,769
597141,2812,5446,-579,908,6104,683
597157,2512,4913,-617,881,5588,547
597189,828,1032,-717,752,1170,-145
597207,12,-795,-723,607,-1843,-430
597223,-464,-1968,-718,536,-4062,-667
597239,-810,-2145,-706,496,-4401,-708
597257,-719,-1621,-684,519,-4117,-669
597273,-591,-1170,-672,543,-3770,-608
597305,-531,-875,-661,556,-3455,-583
597322,-163,312,-636,611,-2002,-430
597340,550,2263,-574,746,698,-148
597356,1420,4786,-557,833,4795,337
597373,2035,4999,-567,859,5290,427
597390,1835,4146,-634,848,4523,262
597422,653,1186,-683,740,726,-191
597439,595,1397,-643,720,598,-188
597456,1320,3569,-581,794,3255,112
597473,2185,5004,-517,892,5253,470
597489,3068,5682,-567,923,6431,763
597506,2131,4053,-657,867,4786,357
597538,-1133,-4271,-819,476,-5637,-955
597554,-2542,-5874,-859,271,-6975,-1498
597572,-3532,-6415,-875,180,-7132,-1948
597589,-4218,-6672,-881,177,-6983,-2306
597606,-4913,-6940,-907,153,-6939,-2654
597623,-5695,-6963,-913,145,-6939,-2963
597655,-5954,-6975,-842,126,-6937,-3013
597672,-5291,-6589,-788,151,-6940,-2716
597689,-4541,-5848,-749,164,-6942,-2403
597706,-3874,-5257,-719,191,-6963,-2146
597722,-3598,-5084,-731,226,-6922,-2035
597738,-3299,-4256,-698,272,-6527,-1913
597770,-1551,731,-591,566,-2716,-1166
597787,-62,2750,-590,700,729,-588
597805,207,3576,-590,768,2597,-495
597822,867,4038,-596,815,3915,-238
597838,1186,4334,-594,832,4499,-120
597855,1578,4712,-571,855,5165,53
597887,2561,5990,-550,925,6709,467
597904,2551,5430,-614,912,6375,417
597922,1582,3642,-698,859,4714,-7
597938,90,-317,-778,737,410,-635
597955,-1277,-3473,-804,534,-4459,-1153
597972,-1783,-4061,-769,421,-5221,-1325
598004,-742,546,-653,642,-1028,-861
598021,-106,1382,-658,699,414,-567
598039,-179,513,-698,692,-361,-675
598055,-578,-652,-723,631,-1882,-831
598071,-848,-1216,-717,587,-2820,-920
598088,-655,-371,-680,609,-1974,-825
598120,1274,4566,-579,829,4738,-34
598136,1922,5215,-592,886,5743,217
598154,2053,4902,-622,881,5645,225
598171,1400,3518,-687,843,4406,-45
598188,282,396,-760,750,897,-519
598205,-990,-2813,-801,574,-3732,-1027
598236,-2725,-5284,-827,295,-6546,-1689
598254,-2970,-5336,-779,274,-6669,-1758
598271,-2768,-4924,-776,296,-6401,-1667
598287,-2855,-5050,-780,274,-6490,-1770
598304,-3285,-5437,-821,245,-6772,-1945
598321,-3766,-5733,-822,204,-6949,-2130
598352,-3036,-4371,-721,289,-6218,-1788
598369,-2197,-2891,-683,386,-5263,-1424
598386,-1944,-2575,-718,428,-5067,-1373
598404,-2485,-5327,-837,288,-6602,-1650
598420,-3664,-6306,-887,182,-7013,-2351
598437,-4867,-6575,-890,144,-7025,-2615
598469,-3719,-4764,-724,230,-6597,-2066
598487,-2498,-2663,-673,378,-5192,-1552
598504,-1902,-1541,-689,474,-4383,-1337
598519,-2082,-2476,-746,450,-4860,-1453
598536,-2386,-3450,-741,388,-5364,-1567
598553,-1924,-1766,-687,472,-4199,-1350
598586,185,3430,-623,787,3042,-510
598603,227,2839,-685,795,3083,-541
598620,-708,-140,-754,702,-388,-943
598637,-1549,-2248,-768,577,-3446,-1284
598654,-1346,-961,-635,662,-2415,-1152
598670,134,5362,-524,858,5699,-521
598702,4120,7016,-468,941,7143,1111
598719,3930,6465,-570,934,6980,955
598737,3158,5820,-627,932,6893,570
598753,2748,5583,-638,927,6749,394
598770,3164,6252,-557,934,6955,630
598787,4514,7005,-398,959,6968,1296
598818,6659,7026,-450,981,6967,2335
598836,5760,6980,-578,972,7050,1768
598852,4317,5960,-675,942,7134,1088
598869,2662,4064,-770,905,6105,330
598886,1125,850,-807,808,3479,-310
598903,99,-1344,-811,710,-201,-698
598935,-1137,-3496,-779,468,-4546,-1163
598952,-1330,-2989,-742,472,-4410,-1208
598970,-377,-42,-653,602,-1581,-778
598985,567,2343,-634,748,1781,-392
599003,704,2033,-678,768,1917,-379
599019,-806,-2845,-825,603,-3714,-1045
599051,-5901,-7202,-1112,133,-7163,-3226
599069,-7172,-6975,-1246,-9,-6945,-4397
599085,-7021,-6935,-1222,-68,-6945,-5424
599102,-6933,-6934,-1179,-67,-6946,-5590
599119,-6936,-6934,-1209,-68,-6945,-5953
599136,-6937,-6935,-1295,-61,-6946,-6563
599168,-6938,-6936,-1766,-58,-6946,-6958
599185,-6938,-6936,-2440,-62,-6946,-6945
599202,-6938,-6936,-2766,-64,-6946,-6938
599219,-6938,-6936,-2957,-66,-6946,-6936
599235,-6938,-6936,-3146,-65,-6946,-6936
599252,-6938,-6936,-3192,-64,-6946,-6936
599287,-6938,-6936,-3156,-68,-6946,-6936
599302,-6938,-6936,-2860,-67,-6946,-6936
599319,-6938,-6936,-2631,-65,-6946,-6936
599335,-6938,-6936,-2281,-65,-6946,-6936
599351,-6938,-6936,-1943,-64,-6946,-6936
599368,-6938,-6936,-1661,-59,-6946,-6936
599400,-6938,-6936,-1642,-58,-6946,-6936
599417,-6938,-6936,-1506,-62,-6946,-6936
599434,-6938,-6936,-1479,-55,-6946,-6936
599452,-6938,-6936,-1339,-57,-6946,-6936
599468,-6938,-6950,-1257,-24,-6947,-6936
599484,-6939,-7335,-938,-48,-7187,-7000
599517,-7211,-6092,-756,-79,-7516,-7028
599535,-7036,5974,-343,467,3808,-4785
599550,-1381,7070,-11,906,7290,-1684
599568,5656,7452,346,1005,7560,1499
599584,7406,6959,367,1118,6964,4285
599601,7199,6953,121,1144,6953,5466
599633,7114,6984,-406,1125,6955,3570
599650,7124,7492,-634,1058,7134,2045
599666,4245,7134,-822,1025,7274,288
599684,303,4358,-1042,1003,7688,-1470
599700,-6856,-7527,-1700,499,-2378,-5429
599718,-7103,-7014,-3027,9,-7508,-7222
599750,-6934,-6939,-3373,-34,-6933,-6935
599767,-6935,-6936,-2876,-65,-6937,-6936
599784,-6935,-6936,-2094,-75,-6937,-6938
599801,-6938,-6961,-1464,-78,-6937,-6937
599817,-6936,-7060,-1023,-70,-7022,-6960
599834,-6954,-7421,-705,-105,-7400,-7018
599866,-7316,4680,-584,465,4460,-5077
599882,-3316,7367,-344,800,7299,-2813
599899,3315,7327,7,889,7439,28
599916,7501,6979,414,995,6973,3663
599933,7183,6961,537,1085,6962,6411
599950,7049,6957,268,1115,6958,6964
599982,7236,7297,-660,1107,6980,3738
600000,5943,5690,-1332,907,7318,-1014
600016,-3366,-3813,-1436,773,6875,-3430
600033,-6667,-7004,-1437,523,1927,-4618
600049,-7364,-7773,-1375,230,-5416,-5428
600067,-7153,-5953,-1132,285,-1519,-4896
600098,-1077,7288,-659,869,7192,-2049
600116,4188,7284,138,961,7010,407
600133,7104,6981,621,1122,6959,6509
600150,7171,6956,856,1107,6958,7190
600167,6955,6955,987,1106,6961,7097
600183,6958,6957,1093,1110,6960,6956
600215,6957,6957,823,1101,6960,6976
600232,6956,6957,281,1122,6960,7083
600249,6993,7039,-777,1112,6960,7128
600266,7059,7111,-1170,1093,6960,4201
600283,6690,6077,-1272,967,6965,1623
600300,3404,946,-1260,912,7032,-321
600332,1010,-351,-1060,917,6845,-960
600350,-690,-3851,-1178,698,4480,-1639
600366,-3018,-6352,-1189,454,-2507,-2548
600384,-4536,-6805,-1124,286,-6066,-3063
600400,-3731,-5226,-962,416,-4096,-2643
600416,-1627,45,-807,706,3440,-1755
600448,1900,6440,-662,931,7292,-347
600464,4108,7235,-534,918,7026,605
600481,5748,6995,-509,927,6956,1278
600498,7049,6961,-315,955,6957,2355
600516,7013,6955,28,1093,6957,4067
600533,6963,6955,134,1112,6957,6430
600564,6958,6955,-69,1103,6957,6835
600581,6956,6955,-145,1103,6957,6662
600600,6957,6955,-235,1106,6957,6400
600616,6957,6955,-274,1134,6957,6074
600634,6957,6955,-261,1132,6957,5978
600649,6957,6955,-274,1135,6957,5970
600681,6957,6955,-52,1133,6957,6789
600698,6957,6955,-66,1131,6957,6901
600715,6957,6955,-69,1128,6957,6911
600732,6957,6955,-227,1132,6957,6751
600749,6957,6955,-281,1136,6957,6421
600765,6957,6955,-268,1133,6957,6327
600797,6957,6955,-57,1104,6957,6881
600815,6957,6955,86,1105,6957,6974
600832,6957,6955,227,1101,6957,6972
600848,6957,6955,536,1122,6957,6959
600866,6957,6955,838,1104,6957,6957
600882,6957,6955,577,1099,6957,6957
600898,6957,6955,346,1102,6957,6957
600930,6957,6955,57,1099,6957,6957
600948,6957,6955,129,1129,6957,6957
600964,6957,6955,212,1132,6957,6957
600981,6957,6955,147,1146,6957,6962
600998,6957,6955,-127,1157,6957,6977
601014,6957,6955,-453,1136,6957,6972
601046,6957,6955,-462,1132,6957,6209
601064,6957,6955,-291,1115,6957,6329
601080,6957,6956,-103,1123,6957,6911
601097,6959,7093,-116,1118,7015,7020
601115,7011,7176,-385,1124,7343,6664
601131,6980,6912,-781,1114,7159,4824
601163,5007,-3215,-927,511,-5557,1620
601180,6401,4015,-600,671,-250,2404
601197,6978,6786,-442,909,6031,3274
601214,7010,7211,-441,1030,7062,3751
601231,7003,7135,-436,1059,7352,3917
601247,7005,6764,-549,1041,6686,3650
601264,6822,5134,-691,884,3721,2853
601296,4564,436,-740,446,-5609,1685
601313,4762,2542,-619,459,-4656,1825
601330,5946,5199,-532,629,-796,2298
601347,6979,6882,-416,868,5495,3085
601363,7013,7091,-291,1013,7182,3932
601381,6978,7014,-247,1082,7183,4712
601412,6976,7037,-527,1074,7167,4170
601429,6952,5821,-655,900,4779,3259
601446,6657,4492,-696,752,1046,2447
601463,6080,4539,-636,667,-626,2328
601480,6165,4818,-605,687,33,2371
601497,6643,6063,-496,766,3138,2710
601529,6973,6999,-128,1102,7061,5080
601547,6960,6969,-130,1142,7058,5884
601563,6959,6956,-291,1129,6956,5855
601579,6960,6996,-430,1109,7030,4903
601596,6976,7037,-497,1084,7137,4346
601612,6970,6616,-575,1031,6585,3748
601645,6295,4041,-683,724,8,2532
601663,6287,4778,-597,701,-172,2571
601679,6571,5544,-552,744,1665,2791
601696,6558,5248,-567,757,1073,2707
601713,6313,5083,-574,748,161,2633
601729,5753,4115,-601,678,-2199,2419
601761,2217,-3936,-794,280,-7072,1104
601778,284,-6438,-888,236,-7060,251
601796,-858,-6989,-902,226,-6979,-268
601812,-1395,-6924,-819,229,-6937,-489
601828,-1000,-5877,-740,229,-6943,-268
601845,-358,-5339,-710,236,-6946,56
601908,1592,-386,-596,274,-6868,1036
601928,5286,5960,-421,692,-61,2341
601945,6376,6618,-404,840,4331,2797
601962,6720,6622,-439,943,5539,3065
601979,6567,6159,-498,900,4816,2921
602011,6313,5621,-541,830,3642,2727
602028,6313,5621,-541,830,3642,2727
602045,6313,5621,-541,830,3642,2727
602062,6313,5621,-541,830,3642,2727
602079,6313,5621,-541,830,3642,2727
602095,6313,5621,-541,830,3642,2727
602112,6313,5621,-541,830,3642,2727
602143,6313,5621,-541,830,3642,2727
602161,6313,5621,-541,830,3642,2727
602178,6313,5621,-541,830,3642,2727
602194,5989,5617,-545,794,2945,2568
602212,-1484,-6702,-874,232,-6945,-451
602229,933,-2180,-663,263,-6861,626
602260,-1411,-6210,-859,216,-6937,-428
602277,-2462,-6945,-887,216,-6938,-897
602294,-3353,-7029,-920,194,-6936,-1274
602311,-3544,-6989,-861,197,-6936,-1305
602328,-3166,-6786,-799,202,-6936,-1127
602346,-2533,-5849,-740,213,-6936,-844
602376,-1402,-4662,-697,229,-6936,-341
602393,-1308,-4965,-735,230,-6936,-328
602410,-1649,-5561,-768,227,-6953,-491
602428,-1464,-5142,-706,225,-7000,-368
602444,-652,-3559,-641,245,-7001,-23
602461,451,-629,-581,335,-6317,467
602493,2493,4172,-541,631,-1787,1237
602510,2821,3325,-599,641,-2077,1315
602527,1768,648,-681,515,-4639,871
602544,734,-1891,-725,389,-6063,491
602561,272,-2793,-722,327,-6512,327
602577,182,-2747,-701,334,-6433,295
602609,245,-2504,-701,361,-6211,319
602626,33,-2443,-682,355,-6142,237
602643,137,-3006,-718,346,-6431,196
602660,-21,-2762,-687,334,-6336,223
602677,320,-1846,-678,367,-6069,353
602693,140,-2490,-704,351,-6235,276
602726,-1184,-5085,-785,241,-6963,-298
602743,-1434,-5116,-780,224,-6964,-407
602759,-1498,-5022,-780,231,-6936,-423
602777,-1713,-5259,-782,229,-6939,-520
602794,-2038,-5705,-818,227,-6935,-665
602810,-2607,-6266,-846,226,-6940,-908
602892,693,2147,-568,567,-3015,518
602909,2133,4133,-544,688,234,1066
602926,3091,5376,-524,798,3825,1452
602943,3595,5644,-537,854,5131,1639
602960,3595,5278,-582,858,4912,1611
602977,2760,3546,-662,788,2266,1237
603009,676,-1577,-725,495,-4761,451
603026,479,-935,-665,505,-4461,401
603043,1058,431,-652,563,-3298,644
603059,1554,1702,-619,643,-1633,822
603076,1826,2236,-639,672,-671,906
603093,1340,544,-701,644,-2475,699
603125,-569,-4130,-790,378,-6133,-42
603142,-969,-4455,-750,339,-6419,-181
603160,-885,-4085,-725,352,-6324,-138
603177,-221,-2002,-662,413,-5414,166
603193,724,599,-615,550,-3550,543
603210,1589,2636,-591,676,-660,873
603241,2488,4235,-581,773,2706,1202
603258,3081,4890,-580,849,4520,1460
603276,3121,4647,-625,822,4382,1447
603293,2671,2349,-696,765,1243,1031
603309,982,-903,-762,629,-3187,544
603326,-181,-3541,-802,436,-5744,120
603358,-1699,-5389,-830,277,-6914,-495
603374,-1823,-5228,-791,260,-6898,-512
603392,-1597,-4636,-701,329,-6615,-403
603409,-684,-1081,-627,460,-4707,-3
603425,509,184,-645,568,-3739,443
603442,36,-1657,-727,513,-4918,219
603474,-1939,-5504,-847,267,-6961,-607
603492,-2849,-6205,-882,216,-6983,-980
603509,-3371,-6398,-897,193,-6961,-1204
603526,-3915,-6729,-918,191,-6934,-1430
603542,-4387,-6901,-903,185,-6937,-1615
603559,-4610,-6872,-879,184,-6936,-1675
603590,-4209,-6512,-841,194,-6936,-1512
603607,-4220,-6480,-855,184,-6944,-1524
603625,-4268,-6474,-848,186,-6981,-1541
603641,-3785,-5855,-714,227,-7041,-1304
603657,-2369,-3960,-673,281,-6594,-708
603675,-1137,-1239,-611,514,-5062,-208
603706,-6,341,-696,632,-2597,157
603723,-483,-1253,-726,550,-4028,-41
603740,-805,-2021,-734,487,-4553,-154
603757,-702,-1598,-714,506,-4263,-104
603775,-586,-1393,-719,521,-4080,-78
603790,-502,-1129,-717,536,-3871,-25
603823,723,2069,-642,695,503,458
603839,1170,2970,-647,767,2144,632
603856,1179,2593,-676,784,1977,605
603874,404,22,-756,703,-995,266
603891,-865,-3324,-826,516,-4911,-237
603908,-1836,-4972,-859,316,-6212,-621
603940,-1869,-4269,-753,377,-6015,-569
603957,-1041,-2104,-706,474,-4701,-218
603974,-543,-887,-689,558,-3677,-38
603991,-97,247,-679,625,-1938,136
604007,818,2789,-616,722,1534,521
604024,2095,5084,-543,854,5209,1037
604056,3954,6460,-528,948,7061,1766
604074,3719,5454,-644,932,6400,1632
604090,2459,4095,-706,869,5122,1082
604107,1516,1948,-742,807,3025,687
604124,1000,864,-735,766,1263,512
604140,528,-209,-743,714,-495,354
604172,632,569,-700,702,-110,416
604190,465,19,-764,661,-765,326
604206,-720,-3017,-787,528,-4693,-142
604223,-866,-2948,-764,484,-4664,-174
604240,-571,-1844,-721,530,-3911,-51
604257,-303,-1116,-714,578,-3212,62
604289,-569,-2089,-765,546,-4081,-70
604307,-1383,-4204,-853,355,-5634,-408
604323,-2440,-5686,-881,297,-6799,-844
604339,-3390,-6236,-890,204,-7019,-1211
604356,-3568,-6116,-862,195,-7025,-1272
604373,-3183,-5460,-798,231,-6985,-1096
604405,-1128,-1294,-652,479,-4298,-227
604423,420,2733,-575,693,572,395
604440,1922,5409,-554,895,5343,972
604456,2678,5803,-562,932,6279,1246
604472,2826,5350,-614,911,6058,1272
604490,2335,4437,-663,885,5206,1048
604521,1212,2056,-717,786,2816,589
604538,983,1641,-718,780,2007,516
604555,821,1238,-718,751,1343,452
604573,474,301,-754,691,27,318
604589,78,-664,-750,657,-1461,160
604605,-464,-1888,-773,593,-3391,-68
604638,-1372,-3797,-807,443,-5086,-400
604654,-1506,-3787,-778,412,-5195,-443
604671,-1450,-3556,-778,440,-5191,-413
604688,-1582,-3805,-780,412,-5409,-471
604706,-1479,-3421,-763,440,-5279,-421
604722,-1561,-3396,-762,427,-5285,-455
604755,-416,-137,-674,597,-2375,-7
604772,430,1969,-649,714,728,324
604789,950,2953,-648,783,2550,513
604805,983,2639,-680,793,2608,501
604822,565,1177,-732,724,1009,317
604839,127,60,-716,690,-589,147
604870,497,1794,-671,751,1432,385
604887,1000,2564,-676,786,2599,525
604904,1003,2356,-688,786,2561,519
604922,1152,2750,-680,789,3087,578
604938,975,2038,-707,788,2333,493
604955,191,-379,-822,719,-664,145
604972,-1055,-3554,-829,443,-4807,-350
605003,-1732,-3754,-773,423,-5144,-506
605020,-1420,-3141,-775,452,-4774,-432
605037,-1455,-3366,-784,461,-4984,-456
605055,-2020,-4587,-836,374,-5956,-708
605072,-2891,-5774,-885,273,-6872,-1062
605088,-3940,-6609,-979,177,-6994,-1504
605105,-5034,-7024,-1017,148,-6962,-1965
605136,-5626,-6720,-878,140,-7047,-1988
605153,-4041,-5392,-766,192,-7067,-1434
605170,-2530,-3210,-674,340,-5751,-815
605187,-859,990,-606,590,-2370,-140
605204,241,3179,-618,738,1708,246
605220,437,2901,-667,780,2276,279
605237,171,1757,-710,755,1318,147
605269,-524,-767,-751,652,-1813,-131
605286,-933,-1424,-773,599,-2791,-287
605303,-1069,-1693,-769,587,-3253,-330
605321,-1031,-1456,-746,589,-3063,-310
605337,-828,-855,-731,632,-2304,-228
605354,-703,-538,-743,652,-1782,-173
605372,-752,-1202,-757,622,-1991,-221
605402,-959,-1208,-755,597,-2613,-287
605419,-674,-342,-719,637,-1567,-160
605437,-176,1001,-705,705,263,40
605453,235,1909,-693,753,1735,198
605470,455,2310,-687,779,2484,273
605486,676,2667,-695,805,3177,355
605504,757,2829,-688,810,3396,389
605536,740,2239,-725,795,3150,367
605553,176,625,-773,760,1099,134
605570,-496,-1154,-803,675,-1386,-134
605587,-1178,-2760,-820,583,-3799,-411
605603,-1503,-3225,-813,496,-4597,-501
605620,-1563,-3093,-789,478,-4501,-515
605652,-1342,-2288,-774,524,-3894,-413
605669,-1461,-2672,-787,511,-4189,-471
605686,-1965,-3979,-824,447,-5186,-688
605703,-2741,-5271,-876,330,-6352,-1021
605720,-2938,-5213,-836,303,-6421,-1056
605736,-2539,-4308,-782,345,-5766,-886
605768,-615,615,-703,694,-963,-118
605785,-393,-119,-760,680,-1073,-55
605802,-1484,-2907,-832,549,-4171,-526
605818,-2610,-5176,-896,349,-6180,-988
605835,-3639,-6177,-935,231,-7047,-1395
605853,-4255,-6417,-927,185,-7030,-1621
605869,-4352,-6346,-924,172,-7025,-1650
605901,-3029,-4252,-768,325,-5910,-1075
605919,-2049,-1300,-707,517,-3710,-664
605936,-1277,-656,-729,600,-2660,-379
605952,-1462,-1629,-786,589,-3406,-483
605969,-2369,-4248,-863,429,-5496,-872
605985,-3342,-5572,-893,288,-6587,-1259
606003,-3253,-5023,-842,306,-6210,-1196
606035,-2423,-3272,-753,460,-4893,-853
606052,-1790,-690,-716,576,-2567,-438
606069,-861,600,-711,664,-488,-237
606085,-474,1314,-713,719,891,-92
606102,-500,855,-741,728,731,-134
606119,-968,-671,-793,680,-1032,-332
606151,-1955,-3117,-819,494,-4257,-708
606168,-2173,-3655,-817,450,-4719,-775
606185,-2208,-3196,-804,468,-4480,-787
606202,-2186,-3343,-812,459,-4653,-784
606218,-2409,-3927,-838,430,-5132,-885
606235,-2920,-4846,-867,361,-5858,-1097
606284,-2675,-3717,-785,401,-5040,-954
606302,-2123,-2378,-772,515,-4093,-734
606317,-2060,-2741,-809,500,-4305,-727
606335,-2052,-2600,-778,500,-4220,-742
606352,-1851,-2018,-782,542,-3664,-668
606368,-1409,-818,-745,610,-2067,-492
606400,-2100,-3174,-835,504,-4271,-809
606418,-2695,-4355,-849,384,-5286,-1043
606434,-2864,-4462,-852,367,-5561,-1090
606452,-2967,-4525,-856,358,-5676,-1141
606468,-3267,-5030,-886,319,-6103,-1263
606485,-4034,-5937,-966,238,-6790,-1596
606516,-4773,-6036,-920,173,-7006,-1858
606535,-4291,-5419,-854,218,-6682,-1644
606550,-3428,-4206,-792,317,-5767,-1283
606567,-2620,-2041,-766,481,-4092,-963
606584,-2093,-1048,-751,578,-2755,-689
606600,-1441,-22,-747,642,-1083,-532
606633,-329,2372,-720,777,2851,-127
606650,25,2992,-726,803,3887,-7
606666,-100,2216,-762,792,3330,-79
606684,-466,1138,-782,750,2114,-226
606700,-462,1668,-746,783,2630,-211
606717,-98,2176,-749,776,3324,-70
606749,301,3106,-738,815,4379,76
606766,368,2878,-757,812,4196,94
606783,90,1997,-777,801,3534,-20
606801,69,2028,-757,781,3513,-13
606817,133,1775,-779,787,3288,7
606833,-79,1218,-785,781,2532,-72
606865,-965,-729,-815,691,-327,-409
606882,-837,-150,-780,699,170,-347
606899,-668,377,-779,717,750,-270
606917,-427,983,-758,750,1593,-181
606933,-443,778,-782,749,1476,-197
606950,-494,933,-775,744,1560,-210
606982,-404,758,-790,748,1502,-197
607000,-636,129,-805,711,622,-287
607017,-691,38,-793,714,425,-292
607034,-877,-425,-813,686,-248,-367
607050,-911,-468,-788,688,-407,-364
607067,-851,-176,-777,690,-147,-331
607098,-968,-751,-840,655,-721,-412
607116,-2074,-3799,-887,513,-4576,-858
607132,-2705,-4630,-908,385,-5422,-1101
607150,-3165,-5024,-906,333,-5947,-1277
607166,-3313,-4955,-899,311,-6005,-1321
607183,-3427,-5002,-903,296,-6135,-1361
607214,-3550,-5181,-904,275,-6348,-1406
607232,-3742,-5603,-923,247,-6674,-1502
607248,-4357,-5921,-944,203,-6906,-1741
607266,-4742,-6040,-957,179,-6967,-1889
607283,-4639,-5781,-920,185,-6883,-1824
607299,-4358,-5432,-901,213,-6708,-1717
607331,-3807,-4896,-862,271,-6315,-1498
607349,-3249,-3057,-802,392,-4945,-1271
607365,-2496,-2069,-773,513,-4187,-977
607382,-1789,-661,-787,596,-2110,-742
607399,-2011,-1726,-836,576,-3013,-858
607415,-2731,-3746,-890,443,-4749,-1138
607448,-3768,-5273,-927,283,-6295,-1546
607465,-3611,-4844,-843,333,-6091,-1463
607482,-2876,-1486,-766,491,-3375,-1150
607499,-1750,1386,-721,681,628,-704
607515,75,4279,-673,822,4651,-11
607532,967,5038,-660,881,5815,321
607564,2090,5718,-666,921,6728,743
607581,2135,5757,-681,917,6808,745
607597,1952,5399,-720,916,6624,666
607615,1719,5077,-740,901,6360,562
607632,1617,4834,-729,899,6083,526
607648,1466,4532,-739,882,5820,480
607680,1832,5001,-708,895,6236,649
607698,1951,5131,-703,913,6405,691
607714,2242,5595,-680,918,6728,819
607732,2479,5688,-691,913,6826,908
607748,2486,5554,-691,935,6714,908
607766,2242,5042,-730,908,6340,788
607797,2658,5657,-654,915,6744,1003
607813,2856,5697,-674,923,6813,1078
607830,2578,5351,-717,915,6631,935
607848,2086,4719,-778,894,6148,728
607865,1593,4092,-745,866,5511,537
607881,1777,4649,-673,911,5790,660
607913,3034,6016,-622,935,6958,1283
607930,3335,5927,-661,942,6943,1282
607948,2559,4910,-756,908,6365,925
607964,1656,3639,-797,874,5264,551
607981,719,1299,-889,758,3207,197
607998,-682,-2383,-916,584,-1934,-360
608029,-1946,-4758,-929,378,-5724,-926
608046,-3350,-5907,-1006,261,-6774,-1378
608063,-4599,-6745,-1052,161,-7006,-1864
608081,-5346,-6982,-1052,142,-6991,-2149
608097,-5835,-7010,-1042,120,-6940,-2323
608114,-5750,-6969,-950,128,-7003,-2261
608146,-4154,-5296,-829,193,-6986,-1574
608163,-1796,-458,-696,498,-3619,-634
608180,-402,2825,-654,692,879,-106
608196,470,4250,-670,807,3873,185
608214,1027,4844,-675,863,5192,388
608230,996,4293,-731,864,4878,342
608262,-521,53,-848,722,104,-267
608279,-1160,-1417,-848,629,-2180,-500
608297,-958,-373,-798,629,-1363,-399
608313,-723,268,-776,666,-516,-304
608331,-710,196,-809,687,-451,-311
608347,-967,-649,-821,652,-1493,-421
608379,-2156,-3803,-895,448,-5098,-890
608396,-2834,-4805,-912,349,-5866,-1150
608413,-3002,-4743,-876,340,-5933,-1199
608429,-2408,-3163,-811,413,-4865,-920
608446,-1738,-1362,-777,527,-3618,-663
608464,-1485,-797,-760,611,-2903,-575
608511,497,3707,-721,827,4110,173
608529,512,3329,-752,814,3961,159
608545,501,3069,-756,810,3735,156
608563,396,2255,-787,797,2993,37
608579,139,2063,-780,775,2647,4
608596,360,2676,-758,799,3380,102
608628,1143,4390,-715,850,5055,406
608646,1148,4173,-738,851,4918,400
608662,1120,3946,-749,846,4729,389
608679,1007,4125,-724,853,4863,447
608696,1656,4700,-703,885,5577,625
608713,1723,4781,-697,901,5683,653
608744,2386,5551,-679,919,6535,903
608761,1708,4140,-791,891,5391,585
608778,91,39,-890,767,1283,-78
608796,-1187,-3305,-897,534,-4181,-535
608812,-1685,-3449,-880,457,-4579,-700
608829,-1567,-2504,-834,492,-4076,-611
608861,-1471,-2271,-855,550,-4042,-584
608879,-2033,-3794,-893,432,-5180,-817
608896,-2788,-4995,-942,307,-6090,-1109
608913,-3266,-5290,-928,269,-6457,-1302
608928,-3361,-5096,-886,288,-6424,-1308
608945,-2778,-4087,-848,345,-5715,-1061
608977,-1789,-1661,-791,497,-4166,-674
608995,-1365,-658,-778,574,-2913,-516
609011,-833,723,-746,653,-899,-299
609029,-420,1494,-750,709,572,-168
609044,-314,1498,-778,732,926,-142
609062,-700,442,-792,690,-347,-308
609093,75,3084,-723,796,3250,116
609111,806,4018,-717,824,4535,283
609127,1255,4670,-697,861,5234,455
609145,1457,4665,-720,874,5375,522
609162,1555,4634,-715,870,5386,566
609178,1569,4454,-720,872,5274,576
609210,1417,3886,-754,863,4828,494
609228,1303,3928,-760,863,4867,462
609244,836,2820,-785,829,4015,269
609261,817,2836,-779,807,3900,278
609278,856,3015,-759,820,3990,304
609295,761,2711,-779,812,3628,259
609327,123,946,-821,767,1352,8
609344,-389,-979,-854,672,-1528,-298
609360,-1156,-2069,-858,586,-3303,-477
609377,-1425,-2540,-866,533,-4126,-576
609394,-1798,-3307,-874,447,-4802,-710
609411,-1958,-3482,-870,432,-4878,-769
609443,-1601,-2077,-816,485,-4056,-604
609460,-1306,-1304,-801,569,-3387,-498
609477,-927,-337,-795,615,-1955,-360
609494,-971,-614,-818,620,-2141,-387
609510,-616,550,-766,655,-697,-229
609526,9,2148,-728,736,1513,29
609559,1719,5033,-677,883,5583,675
609576,1876,5020,-701,899,5768,712
609594,935,1740,-824,792,2581,293
609610,-152,361,-848,720,461,-103
609627,-280,376,-812,708,48,-132
609644,-312,339,-824,688,-140,-139
609676,-939,-1296,-857,615,-2492,-447
609693,-1474,-2636,-888,522,-4159,-593
609711,-1987,-4190,-914,391,-5481,-793
609727,-2681,-4799,-920,328,-6085,-1051
609743,-2957,-5038,-926,293,-6318,-1161
609760,-3133,-5089,-925,284,-6416,-1221
609792,-2677,-3969,-857,355,-5651,-1019
609810,-1952,-2022,-796,451,-4427,-719
609826,-1154,67,-758,582,-2321,-409
609842,-284,2149,-737,702,807,-93
609860,354,3512,-730,812,3454,136
609876,676,3691,-738,815,3997,245
609908,1248,4450,-715,855,4921,456
609925,1427,4469,-726,870,5076,536
609943,1296,4119,-752,847,4774,454
609959,1152,3858,-774,845,4553,399
609977,926,3367,-799,810,4171,59
609992,561,1912,-814,784,2519,-114
610025,123,1489,-789,750,1508,-274
610042,195,1729,-790,752,1767,-246
610058,285,1959,-778,777,2040,-220
610076,327,2025,-794,778,2137,-210
610093,195,1626,-806,746,1647,-266
610109,133,1531,-791,746,1448,-298
610141,637,2897,-757,796,3174,-92
610159,645,2722,-783,803,3123,-102
610176,315,1694,-808,779,1904,-250
610193,-163,435,-847,712,162,-446
610209,-537,-400,-837,672,-1174,-595
610225,-658,-501,-838,650,-1585,-634
610259,-376,523,-812,685,-386,-497
610275,-349,475,-811,689,-434,-503
610292,-521,-49,-843,666,-1068,-587
610309,-948,-1183,-850,608,-2625,-764
610326,-991,-1083,-834,597,-2732,-769
610342,-1317,-2022,-873,547,-3859,-914
610375,-1947,-3895,-910,392,-5239,-1175
610392,-2365,-5229,-980,305,-6443,-1606
610409,-4287,-6414,-1071,176,-7009,-2208
610426,-5476,-6960,-1118,125,-6982,-2729
610443,-6255,-6980,-1113,101,-6947,-3044
610460,-6497,-6960,-1095,90,-6932,-3163
610491,-5894,-6780,-997,131,-6935,-2819
610508,-5832,-6780,-1016,126,-6936,-2815
610525,-5949,-6687,-1017,121,-6941,-2864
610542,-5724,-6367,-985,123,-6961,-2763
610558,-5105,-5771,-921,146,-6989,-2476
610575,-4301,-4923,-875,202,-6798,-2134
610607,-2632,-1808,-784,420,-4780,-1426
610625,-1653,521,-752,647,-2217,-1058
610640,-715,2688,-731,757,1188,-671
610658,-174,3125,-765,792,2935,-516
610675,-226,2593,-798,784,2689,-546
610691,-628,1254,-832,745,1156,-721
610723,-1267,-531,-875,660,-1187,-999
610740,-1706,-1638,-901,595,-2718,-1172
610757,-1943,-2097,-890,543,-3587,-1266
610775,-2071,-2248,-885,524,-3947,-1306
610792,-2047,-2115,-875,514,-3778,-1290
610807,-2025,-1957,-863,519,-3643,-1268
610839,-1317,-13,-816,642,-1120,-965
610857,-802,1351,-785,708,818,-754
610873,-249,2616,-779,775,2701,-539
610890,428,4141,-741,830,4646,-264
610906,1055,4931,-736,883,5527,-2
610924,1145,4155,-793,870,5021,7
610956,-877,-629,-917,719,-184,-869
610974,-1651,-2494,-939,607,-3042,-1181
610991,-2402,-4145,-968,446,-5142,-1489
611007,-3048,-5059,-983,340,-6016,-1752
611024,-3587,-5535,-998,253,-6558,-1981
611040,-3863,-5430,-959,259,-6538,-2080
611073,-2863,-3407,-857,389,-4987,-1606
611090,-2580,-2799,-859,432,-4574,-1486
611107,-2325,-2420,-869,471,-4291,-1412
611124,-2264,-2331,-879,487,-4267,-1389
611140,-2339,-2569,-880,467,-4450,-1425
611157,-1786,20,-802,630,-1344,-1167
611189,-643,1830,-812,760,1797,-718
611206,-866,609,-861,724,542,-847
611223,-1405,-977,-906,661,-1444,-1080
611240,-1841,-3223,-943,516,-4317,-1268
611257,-2494,-3468,-918,429,-4788,-1508
611274,-2299,-2668,-878,499,-4213,-1410
611306,-1804,-1398,-906,559,-2715,-1229
611323,-2159,-3346,-943,467,-4496,-1517
611340,-3174,-4736,-981,352,-5741,-1833
611356,-3762,-5380,-1002,269,-6420,-2071
611373,-3827,-5266,-960,253,-6430,-2073
611389,-3631,-4907,-937,281,-6202,-1983
611422,-2238,-1456,-832,490,-3514,-1365
611439,-1242,1153,-752,729,24,-942
611455,487,4703,-709,845,5139,-250
611473,1449,5621,-681,910,6353,141
611489,1521,5307,-754,913,6261,136
611505,868,4033,-828,870,5190,-185
611538,79,2401,-839,798,3858,-488
611555,524,3816,-776,835,4749,-275
611573,1442,5796,-659,915,6660,144
611589,3118,6587,-614,938,7035,903
611606,3956,6956,-590,939,6995,1287
611622,4639,7006,-579,951,6963,1604
611654,4468,6799,-686,945,6973,1458
611671,3750,6147,-747,941,6995,1105
611688,3007,5464,-787,928,6849,780
611705,2418,4444,-836,907,5990,522
611722,1483,3589,-851,877,5198,123
611738,811,2067,-888,822,4028,-162
611771,-72,347,-877,740,1244,-499
611788,-239,187,-874,719,649,-563
611806,-303,189,-865,715,366,-584
611822,-374,124,-864,693,126,-611
611838,-392,288,-845,704,97,-611
611855,-356,459,-841,714,232,-595
611887,-275,730,-842,716,528,-556
611905,69,1819,-801,754,1822,-381
611920,644,3286,-777,818,3775,-155
611938,1153,4201,-728,858,4720,64
611955,1765,5246,-709,909,5988,338
611971,2227,5418,-723,910,6289,532
612003,1030,2693,-877,838,4000,-64
612021,-288,-790,-952,725,-246,-622
612037,-1611,-3906,-989,528,-4663,-1157
612055,-2223,-4497,-965,386,-5481,-1367
612072,-1964,-3410,-879,463,-4802,-1204
612088,-1524,-2076,-866,520,-3924,-1023
612119,-2103,-4690,-981,361,-5907,-1487
612137,-3331,-5614,-1016,263,-6730,-1832
612153,-3881,-5940,-1017,200,-7008,-2047
612171,-3749,-5433,-958,222,-6763,-1974
612188,-3141,-4419,-898,299,-6063,-1686
612204,-2287,-2640,-831,466,-4827,-1399
612237,-1003,270,-836,627,-1602,-884
612255,-761,745,-819,669,-681,-786
612271,-757,474,-846,677,-716,-801
612287,-891,-51,-861,656,-1224,-877
612304,-1252,-1057,-884,601,-2526,-1020
612321,-1234,-874,-865,593,-2425,-1008
612353,-511,1273,-799,684,296,-680
612370,640,4050,-752,822,4267,-210
612387,1004,4446,-754,849,4836,-67
612403,1390,4837,-749,876,5396,111
612420,1769,5117,-733,886,5744,273
612437,2029,5214,-730,903,5965,389
612469,1799,4591,-796,893,5561,253
612487,1164,3537,-863,825,4560,-43
612504,45,699,-910,754,1382,-529
612520,-489,-416,-901,689,-569,-718
612537,-522,-126,-871,676,-655,-705
612554,-294,696,-839,702,179,-591
612585,251,2109,-815,766,2101,-364
612602,271,2007,-837,770,2112,-371
612620,-71,1005,-880,720,878,-524
612637,-1049,-1721,-933,619,-2734,-953
612653,-1501,-2566,-933,526,-4198,-1113
612670,-1707,-2811,-919,472,-4482,-1193
612702,-1034,-521,-833,582,-2341,-878
612718,-732,188,-842,647,-1243,-754
612735,-648,241,-845,662,-965,-734
612753,-830,-366,-880,628,-1634,-821
612769,-1173,-1187,-877,586,-2861,-961
612786,-701,399,-820,634,-990,-736
612818,1175,4654,-734,837,4936,60
612835,1519,4691,-760,870,5202,189
612852,1316,4198,-795,846,4813,80
612870,1165,3982,-812,843,4610,17
612886,900,2276,-867,805,3041,-249
612902,-14,787,-879,739,912,-488
612935,-962,-1377,-909,612,-2478,-871
612951,-1036,-1252,-886,584,-2703,-885
612969,-712,-157,-853,631,-1488,-744
612986,-647,-51,-840,657,-1225,-710
613003,-156,2467,-782,753,1967,-486
613018,453,3243,-792,793,3299,-178
613051,1178,4193,-778,838,4545,53
613069,1318,4187,-778,839,4648,112
613086,1618,4576,-748,861,5141,252
613102,1986,5047,-732,887,5720,421
613119,2496,5646,-712,916,6364,650
613136,2553,5522,-747,920,6345,668
613167,2176,4709,-789,884,5521,432
613184,2065,4620,-777,883,5427,435
613201,1747,4068,-810,845,4867,288
613218,1373,3393,-829,836,4195,121
613235,1208,3134,-826,806,3969,67
613252,939,2484,-844,806,3237,-55
613284,970,2908,-810,805,3277,-3
613302,1270,3678,-776,813,4095,134
613318,1272,3526,-810,813,3909,122
613335,1133,3132,-811,807,3598,71
613351,1151,3215,-809,809,3681,76
613368,1293,3627,-790,828,4087,141
613400,1692,4351,-778,845,4827,315
613418,1619,4098,-780,843,4536,299
613434,1717,4391,-770,849,4857,404
613451,1884,4444,-759,850,4974,425
613467,2015,4404,-785,868,5005,470
613485,481,437,-940,760,711,-247
613516,-2038,-4832,-981,342,-6066,-1249
613534,-1887,-4070,-892,399,-5674,-1157
613550,-1444,-2553,-880,455,-4686,-954
613567,-1236,-1996,-880,487,-4245,-869
613584,-1419,-2553,-910,462,-4642,-959
613601,-1882,-3787,-943,400,-5412,-1168
613633,-2166,-4045,-915,355,-5813,-1252
613650,-1982,-3323,-891,373,-5489,-1166
613668,-1537,-2026,-844,486,-4723,-968
613684,-1060,96,-819,574,-2530,-635
613700,-360,1145,-786,631,-1057,-464
613717,970,4097,-745,795,3626,95
613749,1453,4417,-780,848,4684,263
613767,809,2622,-856,798,2785,-53
613784,-135,11,-911,698,-631,-451
613800,-680,-1108,-905,578,-2509,-657
613817,-858,-1099,-870,575,-3040,-700
613834,-545,-98,-845,603,-1891,-567
613865,311,2161,-808,719,1255,-197
613883,540,2573,-802,756,2022,-110
613899,455,2089,-829,750,1643,-154
613917,270,1545,-851,724,953,-240
613933,-7,769,-856,691,-56,-347
613950,-165,502,-853,678,-625,-409
613982,340,2034,-808,738,1297,-170
614000,805,3242,-777,775,2929,21
614016,1293,4279,-763,837,4430,221
614033,1329,3993,-800,838,4317,216
614049,867,2589,-845,803,2885,11
614066,136,-173,-902,684,-933,-305
614098,-904,-2067,-912,534,-3963,-779
614116,-1321,-2484,-915,485,-4426,-874
614133,-1543,-2955,-927,450,-4881,-970
614150,-1818,-3444,-924,405,-5299,-1073
614166,-1616,-2618,-887,450,-4798,-965
614183,-1331,-1721,-856,523,-4094,-848
614215,-1692,-3044,-951,408,-4877,-1033
614232,-2420,-4371,-953,347,-5883,-1344
614249,-2228,-3788,-905,365,-5585,-1245
614266,-1637,-1850,-844,443,-4458,-959
614282,-827,164,-822,596,-2384,-640
614299,-858,-344,-870,607,-2534,-688
614332,-2097,-3885,-985,358,-5362,-1226
614349,-2752,-5178,-1019,282,-6509,-1634
614365,-3445,-5413,-1000,229,-6772,-1775
614382,-3322,-5097,-960,235,-6631,-1709
614399,-2881,-4411,-920,297,-6177,-1500
614416,-2488,-3573,-893,352,-5614,-1328
614448,-1252,-163,-815,552,-2897,-795
614465,-662,1725,-805,688,124,-564
614481,-188,1399,-849,711,316,-390
614498,-1176,-1365,-931,606,-2974,-855
614515,-1916,-3188,-956,454,-4988,-1155
614532,-2360,-4115,-960,379,-5598,-1327
614564,-2729,-4300,-966,348,-5730,-1471
614581,-2604,-3897,-938,360,-5476,-1408
614598,-2660,-4039,-961,341,-5582,-1437
614615,-2847,-4249,-944,334,-5811,-1518
614632,-2811,-4242,-955,339,-5865,-1498
614649,-2822,-4267,-950,345,-5841,-1501
614680,-2200,-2359,-870,429,-4584,-1204
614697,-1541,-696,-844,551,-3135,-939
614715,-582,1832,-787,739,320,-535
614731,107,4112,-753,809,4083,-266
614748,832,4065,-815,847,4484,-32
614764,156,2176,-875,793,2627,-317
614813,-2177,-3864,-1008,441,-5071,-1278
614830,-2864,-4754,-1011,342,-5861,-1568
614848,-3086,-4831,-1036,285,-6039,-1638
614864,-3759,-5894,-1073,194,-6920,-1946
614881,-4241,-5920,-1041,183,-6951,-2128
614898,-4239,-5740,-1015,184,-6922,-2107
614930,-3782,-5205,-1008,252,-6558,-1936
614946,-4169,-5544,-1036,207,-6788,-2112
614964,-4488,-5783,-1047,182,-6907,-2249
614980,-4362,-5534,-1012,200,-6839,-2180
614997,-4319,-5473,-1011,195,-6816,-2157
615014,-4607,-5957,-1057,167,-6956,-2307
615047,-4873,-5905,-1030,146,-6973,-2400
615064,-4279,-5069,-971,214,-6600,-2119
615081,-3712,-4346,-941,292,-5991,-1889
615097,-3267,-3668,-926,349,-5438,-1685
615114,-2616,-1821,-896,476,-4168,-1419
615131,-1909,-386,-856,563,-2428,-1118
615164,-618,2548,-808,748,2208,-600
615180,-28,3684,-804,807,4062,-364
615197,444,4296,-802,851,4851,-185
615214,239,3365,-853,836,4187,-298
615230,-379,1530,-913,755,2504,-567
615248,-695,1525,-867,756,2116,-586
615279,-356,1653,-890,780,2539,-540
615296,-703,683,-918,740,1270,-681
615314,-1124,-465,-935,692,-268,-865
615330,-1334,-854,-936,655,-1057,-937
615347,-1459,-1100,-939,636,-1527,-985
615363,-1868,-2263,-998,519,-3073,-1163
615395,-3255,-5222,-1044,291,-6197,-1743
615413,-3778,-5347,-1043,260,-6363,-1953
615429,-3708,-4968,-1014,275,-6104,-1908
615447,-3479,-4542,-982,316,-5765,-1790
615463,-3633,-4819,-1014,309,-5975,-1879
615480,-3291,-4052,-950,342,-5448,-1701
615513,-2278,-892,-885,569,-2675,-1278
615530,-1678,-374,-900,622,-1629,-1051
615546,-1776,-970,-940,629,-2009,-1118
615563,-2549,-3355,-1015,488,-4505,-1463
615579,-3183,-4473,-1022,372,-5386,-1706
615596,-3238,-4266,-998,365,-5385,-1712
615628,-2376,-1948,-918,495,-3768,-1329
615645,-1980,-966,-890,627,-2339,-1175
615663,-1461,1661,-837,703,1311,-965
615679,504,5042,-723,846,5536,-132
615696,2136,6312,-656,931,6988,569
615713,3040,6778,-641,926,7158,957
615745,2917,6389,-768,938,7252,837
615762,607,839,-1373,839,2429,-341
615778,-3513,-4611,-1007,349,-5243,-1925
615795,-3340,-5638,-1088,323,-6407,-1784
615813,-4137,-6000,-1162,227,-6764,-2123
615830,-5753,-6978,-1283,105,-6989,-2852
615861,-6894,-7045,-1117,-25,-6989,-3700
615879,-5148,-5321,-860,245,-6872,-2400
615894,-3165,-2393,-829,373,-5015,-1536
615912,-2431,-1405,-920,525,-3797,-1327
615929,-2694,-2650,-980,467,-4432,-1484
615946,-3155,-3881,-1018,386,-5063,-1695
615977,-3615,-4504,-1041,325,-5620,-1899
615994,-3466,-4354,-1017,334,-5585,-1831
616011,-3883,-4982,-1048,276,-6147,-2014
616029,-3501,-4241,-987,348,-5554,-1824
616045,-3175,-3001,-964,410,-4635,-1682
616062,-2827,-2702,-969,449,-4267,-1543
616094,-2349,-1467,-932,544,-2923,-1334
616111,-1996,-611,-915,609,-1565,-1194
616129,-1472,771,-897,688,343,-977
616145,-391,3618,-778,871,4042,-511
616162,728,5278,-758,918,6024,-78
616178,1666,6078,-689,938,6908,333
616210,3698,6987,-641,937,6977,1398
616227,4326,6990,-652,950,6957,1500
616243,4276,6894,-724,938,6983,1443
616261,3712,6621,-788,938,6992,1170
616278,2600,5469,-923,922,6883,633
616295,1538,4281,-906,887,6017,192
616327,-431,-376,-1024,749,1630,-641
616344,-585,-86,-972,742,1085,-656
616361,-626,225,-927,719,977,-645
616377,238,2859,-860,800,3951,-264
616394,836,4151,-846,854,5071,-31
616411,819,3842,-895,845,4943,-61
616443,442,2836,-876,825,4124,-218
616461,1109,4325,-834,853,5147,94
616477,1265,4340,-842,878,5271,151
616494,1314,4397,-861,879,5425,169
616510,784,3113,-920,837,4467,-100
616528,18,1075,-986,771,2406,-422
616559,-1047,-943,-967,644,-1264,-827
616577,-992,-542,-949,649,-1054,-791
616594,-711,283,-932,687,-48,-669
616609,-978,-538,-968,655,-1031,-793
616627,-900,5,-924,661,-583,-735
616643,113,3034,-828,764,3103,-283
616676,2884,6627,-669,932,7162,919
616694,3960,6953,-618,947,7022,1392
616709,4742,6991,-616,956,6954,1878
616727,5286,6986,-627,972,6955,1972
616743,5304,7001,-678,971,6975,1963
616759,4603,6721,-765,943,7005,1599
616793,2464,4649,-913,910,6150,638
616810,1623,3471,-925,842,5024,291
616827,1315,3067,-880,837,4470,186
616844,1842,4480,-815,862,5307,454
616860,2111,4654,-840,874,5591,557
616876,1913,4394,-850,870,5322,465
616909,2191,5025,-808,902,5861,614
616926,2810,5780,-752,913,6543,905
616942,3735,6465,-681,939,7019,1325
616960,4328,6675,-711,946,7001,1589
616976,3917,6033,-779,951,6938,1362
616994,3116,5215,-853,926,6356,987
617025,1711,3190,-930,854,4478,373
617042,798,995,-977,777,1915,-5
617059,-25,-743,-979,688,-1024,-336
617076,74,185,-878,699,-553,-249
617092,872,4129,-792,802,4171,115
617109,2381,5273,-751,873,5704,765
617142,2505,5145,-809,893,5797,787
617159,2418,4978,-824,892,5648,742
617176,2093,4404,-858,870,5048,592
617192,1323,2607,-924,819,3289,257
617209,615,866,-974,702,733,-46
617225,-265,-2579,-1019,546,-4076,-624
617258,-1199,-2357,-936,452,-4593,-718
617275,-128,892,-841,614,-1354,-261
617293,1465,4884,-742,790,4291,431
617308,2458,5629,-736,887,5901,821
617326,2741,5580,-789,899,6067,930
617342,2474,4872,-834,873,5362,800
617374,1671,3880,-854,836,4154,446
617392,2119,4803,-785,855,5131,670
617408,2680,5468,-768,898,5926,923
617425,2864,5459,-783,914,6022,976
617442,2617,5018,-821,878,5612,871
617458,2067,4060,-873,846,4586,615
617490,533,444,-953,679,-63,-49
617508,-58,-1579,-979,583,-3278,-415
617524,-783,-2222,-971,510,-4393,-550
617542,-862,-2116,-954,478,-4487,-590
617558,-947,-2166,-961,468,-4617,-620
617575,-1001,-2045,-935,467,-4459,-619
617607,-204,339,-875,608,-2083,-277
617624,275,2127,-834,697,491,-74
617641,712,2899,-847,738,1768,166
617657,1225,3713,-810,790,3019,328
617675,1707,4611,-802,818,4495,536
617691,1879,4523,-811,844,4616,586
617723,927,1958,-925,761,1684,145
617740,503,1100,-911,706,187,2
617758,438,1242,-892,685,50,-6
617774,943,2763,-833,738,1878,229
617790,1489,4130,-803,805,3803,460
617807,1965,4675,-786,846,4798,659
617840,1741,4001,-832,806,4124,552
617856,2253,4884,-760,845,5147,800
617874,3050,5706,-746,914,6193,1139
617890,2906,4486,-865,872,5140,1032
617907,1639,3203,-888,815,3751,483
617924,1060,1677,-936,758,1754,228
617956,137,-227,-938,640,-1550,-119
617974,190,270,-907,644,-1247,-71
617990,593,1599,-850,685,295,117
618007,1356,4407,-780,812,4242,446
618024,2444,5279,-741,872,5526,921
618040,2999,5755,-725,919,6205,1156
618072,3174,5423,-791,916,6043,1196
618090,2669,4684,-831,869,5322,959
618107,1944,3425,-895,818,3906,641
618123,1145,1519,-933,754,1622,307
618140,688,815,-907,679,-48,135
618157,724,1729,-860,707,745,173
618188,1861,4313,-794,822,4138,684
618205,2377,4850,-770,861,5020,908
618222,2405,4603,-812,850,4868,898
618239,2114,4014,-842,834,4225,760
618257,1920,3787,-863,807,3899,677
618273,1845,4049,-833,808,4115,654
618305,1466,2759,-867,777,2460,495
618322,1261,2169,-897,757,1690,420
618340,1074,1854,-883,740,1048,355
618355,934,1492,-904,717,534,260
618373,580,635,-913,682,-745,46
618390,476,544,-913,653,-1077,21
618422,271,232,-910,633,-1718,-53
618439,242,298,-900,633,-1761,-59
618455,212,237,-905,630,-1845,-62
618473,207,281,-897,624,-1824,-67
618489,374,802,-878,641,-1186,9
618506,266,411,-896,638,-1652,-52
618537,-1089,-3365,-1042,361,-5442,-642
618554,-2006,-5281,-1068,282,-6701,-1012
618572,-2653,-5303,-1042,248,-6759,-1270
618589,-2592,-4886,-1016,259,-6538,-1226
618606,-2108,-4006,-956,323,-5983,-1002
618622,-1782,-3382,-944,368,-5617,-864
618654,-975,-1411,-921,482,-4529,-534
618671,-616,-333,-871,538,-3511,-365
618688,-190,702,-872,634,-1814,-196
618705,39,861,-882,643,-1327,-121
618721,-445,-735,-958,588,-3147,-355
618739,-1661,-4005,-1056,400,-5635,-882
618770,-3217,-5747,-1073,201,-7033,-1505
618788,-2576,-3427,-923,335,-5759,-1188
618805,-1612,-930,-864,469,-4293,-768
618820,-712,417,-876,590,-2590,-402
618838,-969,-1517,-975,534,-4145,-582
618855,-1872,-3937,-1022,400,-5559,-953
618887,-3730,-6212,-1162,189,-7006,-1758
618905,-5040,-7007,-1250,143,-6969,-2362
618921,-6302,-6997,-1308,85,-6949,-2903
618938,-6665,-7006,-1222,58,-6942,-3074
618954,-6393,-6769,-1101,94,-6973,-2610
618971,-4666,-5675,-1003,144,-6989,-2063
619003,-2620,-3040,-913,346,-5654,-1210
619021,-2128,-2002,-906,408,-4984,-1026
619038,-1966,-2027,-955,435,-4878,-976
619054,-2493,-3800,-1002,343,-5776,-1234
619070,-2390,-3227,-968,403,-5376,-1158
619088,-2081,-2492,-961,423,-4723,-1035
619120,-1991,-2563,-991,444,-4617,-1028
619138,-2363,-3635,-1023,393,-5331,-1185
619153,-2400,-3502,-993,374,-5323,-1176
619171,-1842,-1768,-927,468,-4249,-917
619187,-1062,273,-894,610,-1859,-589
619204,-673,1712,-870,701,551,-432
619236,-437,933,-935,711,259,-364
619253,-634,306,-954,690,-486,-444
619271,-837,-204,-953,656,-1195,-533
619287,-901,-349,-958,654,-1448,-549
619304,-528,843,-906,683,-56,-359
619321,-741,-129,-997,640,-967,-469
619352,-2144,-3639,-1039,424,-4884,-1006
619369,-2343,-3860,-1024,400,-5178,-1076
619386,-2038,-2749,-981,446,-4496,-866
619404,-1255,-412,-901,576,-2388,-486
619421,-308,1998,-855,705,1053,-110
619437,321,3300,-844,818,3207,118
619469,1155,4521,-815,853,5010,440
619486,1721,4918,-813,879,5605,667
619503,2124,5284,-785,903,6102,849
619519,2578,5723,-777,927,6578,1037
619537,2781,5899,-779,933,6740,1113
619553,3227,6268,-738,950,6990,1329
619585,2869,5545,-833,935,6596,1118
619603,2307,4475,-895,897,5622,885
619620,1038,2130,-989,829,3652,333
619636,-285,-1244,-1055,720,-607,-212
619653,-1288,-3397,-1069,565,-4095,-590
619670,-2052,-4711,-1099,408,-5629,-890
619702,-3463,-5943,-1141,220,-6905,-1471
619719,-3856,-5981,-1142,179,-6958,-1623
619736,-4146,-6028,-1144,164,-6954,-1738
619753,-4272,-5888,-1111,171,-6928,-1762
619770,-4112,-5782,-1089,186,-6931,-1690
619786,-3841,-5442,-1050,202,-6847,-1567
619818,-2929,-4164,-982,315,-5992,-1181
619835,-2046,-1816,-914,444,-4488,-796
619853,-1159,339,-845,655,-2009,-452
619869,7,4087,-809,807,3712,30
619886,805,4126,-844,828,4391,303
619903,576,3236,-896,822,3754,179
619935,-480,252,-979,715,98,-250
619952,-789,-425,-975,675,-990,-365
619968,-995,-866,-983,628,-1735,-474
619986,-880,74,-937,655,-764,-415
620002,-532,1241,-902,716,759,-264
620018,-97,1666,-902,746,1500,-88
620050,-437,327,-973,724,152,-253
620068,-1098,-1477,-1010,638,-2236,-531
620084,-1499,-2259,-1001,568,-3614,-675
620102,-1553,-2153,-952,553,-3735,-695
620119,-938,-41,-875,686,525,-402
620135,353,3113,-854,796,3163,118
620167,922,4014,-850,847,4550,331
620185,1774,5368,-775,892,5996,707
620202,2286,5719,-792,925,6536,902
620218,1853,4693,-891,905,5669,670
620234,338,866,-1033,802,2035,-5
620252,-1592,-4025,-1192,379,-4426,-802
620283,-5395,-7170,-1294,97,-7109,-2348
620301,-5686,-7196,-1222,99,-7194,-2411
620318,-4669,-6041,-1038,133,-7154,-1911
620334,-2384,-1973,-842,379,-4817,-908
620352,-150,3670,-744,811,1782,-10
620367,1075,5038,-772,856,5160,435
620400,1890,5408,-792,921,6115,740
620418,2145,5454,-814,923,6325,831
620433,1566,4411,-903,895,5436,556
620451,350,1402,-1011,798,2622,22
620468,-700,-1112,-1041,681,-1020,-394
620485,-1243,-2187,-1047,553,-2898,-595
620516,-2027,-3610,-1041,435,-4695,-878
620533,-1835,-2743,-1005,473,-4317,-793
620551,-1869,-2791,-1006,475,-4439,-813
620568,-2008,-3123,-1028,449,-4724,-866
620584,-2278,-3824,-1044,414,-5167,-992
620601,-2788,-4683,-1092,348,-5803,-1212
620633,-3867,-5690,-1138,220,-6777,-1659
620651,-3909,-5518,-1049,247,-6779,-1655
620667,-3152,-3253,-955,375,-5290,-1080
620684,-1765,-887,-913,524,-3383,-724
620701,-520,2348,-839,699,986,-205
620717,953,5197,-741,858,5310,396
620749,3025,6399,-714,954,7088,1239
620766,2873,5991,-790,943,6889,1138
620783,2081,3995,-949,886,5323,487
620801,199,947,-1031,795,2336,-55
620817,-933,-1829,-1072,675,-1674,-502
620834,-1997,-4237,-1111,483,-5039,-924
620865,-3427,-5552,-1160,263,-6531,-1504
620882,-3892,-5830,-1154,209,-6809,-1688
620899,-3935,-5682,-1106,205,-6856,-1669
620917,-3368,-3570,-958,348,-5501,-1407
620933,-1476,-222,-874,553,-2594,-582
620949,-93,3193,-808,746,2259,-23
620982,-61,1737,-969,789,2036,-122
621000,-1246,-1623,-1060,654,-2210,-614
621015,-2097,-3568,-1079,475,-4733,-939
621034,-2270,-3620,-1017,441,-4855,-988
621049,-1493,-973,-940,558,-2680,-638
621066,-1039,11,-961,646,-1167,-479
621098,-2091,-3362,-1076,477,-4647,-950
621115,-2926,-4837,-1116,350,-5774,-1298
621132,-3231,-4917,-1101,305,-6051,-1400
621150,-3091,-4492,-1018,351,-5812,-1330
621166,-2415,-2834,-917,503,-4679,-1017
621183,-782,1431,-887,675,210,-351
621214,53,2737,-912,794,2987,-51
621231,-258,1551,-959,771,1823,-193
621248,-821,-66,-1009,702,-231,-437
621266,-1260,-1176,-1015,635,-1857,-611
621283,-1499,-1648,-1051,563,-2657,-710
621299,-2120,-3350,-1075,427,-4574,-967
621331,-2481,-3729,-1051,407,-5048,-1099
621348,-2371,-3212,-1030,426,-4677,-1032
621366,-2392,-3251,-1044,432,-4646,-1062
621383,-2480,-3446,-1042,416,-4764,-1090
621399,-2613,-3724,-1056,408,-5018,-1146
621416,-2614,-3620,-1014,427,-5009,-1139
621447,-1531,-473,-909,652,-2137,-673
621465,-145,3020,-870,774,2847,-107
621481,598,4370,-847,842,4773,174
621499,1269,4999,-809,881,5613,459
621515,1744,5287,-817,908,6065,646
621532,1910,5260,-835,911,6180,708
621564,1796,5032,-869,901,6047,642
621582,1591,4663,-891,901,5714,547
621598,1680,4820,-863,889,5799,605
621615,2005,5155,-836,905,6094,751
621630,2390,5469,-819,915,6460,922
621648,2402,5301,-850,916,6369,919
621680,1500,4013,-943,877,5289,513
621698,855,2558,-993,804,4103,235
621714,336,1266,-983,775,2349,10
621731,180,1398,-961,773,2192,14
621748,349,1914,-947,782,2641,77
621765,339,1853,-943,781,2541,72
621796,58,1097,-969,761,1496,-46
621814,-377,-5,-1007,705,-67,-229
621831,-345,1006,-942,716,836,-186
621846,65,1686,-895,773,1658,-4
621864,1010,3992,-865,836,4523,383
621880,1416,4427,-852,856,4982,544
621913,1434,4084,-906,855,4858,527
621930,1231,3822,-903,841,4608,442
621948,1282,3923,-912,848,4720,464
621964,1130,3464,-930,815,4340,395
621980,910,2955,-925,810,3884,317
621997,973,3135,-912,807,3976,347
622029,528,1815,-960,782,2521,170
622047,190,948,-980,758,1229,35
622064,-467,-815,-1031,681,-1187,-247
622081,-1406,-3234,-1120,430,-4409,-640
622097,-2379,-5274,-1144,309,-6273,-1027
622113,-3033,-5505,-1149,252,-6600,-1301
622162,-3405,-5124,-1080,242,-6600,-1410
622180,-2752,-4026,-1003,320,-5857,-1103
622196,-1813,-1617,-931,463,-4387,-703
622214,-705,1275,-840,709,-832,-238
622229,492,5137,-772,854,5132,250
622246,1780,5733,-768,911,6217,924
622278,2360,5301,-857,924,6184,956
622296,1189,3113,-988,857,4139,415
622313,-718,-1954,-1130,689,-1867,-398
622330,-2336,-5270,-1184,380,-6154,-1040
622346,-3598,-6283,-1238,216,-7109,-1551
622363,-4531,-6612,-1247,133,-7025,-1934
622395,-3712,-5054,-1048,218,-6649,-1500
622412,-2662,-3345,-967,356,-5460,-1031
622430,-1623,-750,-909,508,-3612,-607
622446,-432,2297,-848,683,509,-111
622463,544,4270,-836,806,3816,263
622479,791,4179,-919,827,4386,321
622511,-1296,-4238,-1169,461,-5354,-609
622529,-3763,-6115,-1261,223,-6990,-1650
622545,-4580,-6527,-1239,138,-7140,-1960
622563,-4582,-6228,-1175,140,-7041,-1907
622579,-3987,-5472,-1082,192,-6856,-1631
622596,-3165,-4276,-1018,297,-6068,-1271
622629,-1466,786,-916,621,-1297,-565
622646,-416,2199,-893,720,1087,-165
622662,-310,1954,-946,746,1395,-161
622679,-607,937,-973,721,321,-280
622696,-653,724,-975,701,75,-299
622713,-1263,-1242,-1053,650,-2246,-573
622744,-2906,-4866,-1140,339,-5899,-1260
622761,-4007,-6032,-1314,151,-6876,-1752
622779,-5684,-7034,-1401,72,-6967,-2800
622795,-6810,-7046,-1364,44,-6963,-3071
622812,-6648,-7038,-1262,49,-6986,-2894
622829,-5638,-6313,-1106,97,-7019,-2320
622861,-2867,-2273,-952,380,-4948,-1156
622879,-2207,-1089,-999,504,-3843,-928
622895,-2385,-3479,-1104,424,-5047,-1034
622912,-3782,-5207,-1185,284,-6322,-1654
622929,-4461,-5910,-1190,190,-6953,-1929
622945,-4460,-5682,-1149,183,-6983,-1899
622977,-2354,-963,-932,477,-3481,-958
622994,-544,3606,-828,742,2609,-212
623012,645,5133,-837,890,5438,223
623028,949,4428,-914,877,5206,319
623045,-310,1595,-1051,803,2551,-273
623061,-2016,-3187,-1173,601,-3425,-986
623093,-4813,-6606,-1273,140,-7276,-2125
623110,-4790,-6135,-1195,137,-7076,-2074
623127,-4065,-4957,-1088,238,-6256,-1720
623145,-2836,-2583,-962,502,-4435,-1189
623162,-1804,397,-966,638,-938,-678
623177,-1588,-267,-1016,661,-1205,-741
623210,-2470,-2813,-1078,506,-4221,-1111
623228,-2464,-2561,-1059,487,-4143,-1092
623244,-1949,-928,-1000,578,-2219,-862
623260,-941,1805,-909,715,1379,-431
623278,50,4305,-884,853,4881,-49
623294,524,4196,-914,862,4985,125
623326,602,4044,-944,869,5027,129
623344,612,4119,-932,867,5109,138
623360,943,4519,-916,878,5459,276
623378,949,4406,-918,868,5395,275
623393,1150,4530,-914,877,5530,367
623410,1227,4595,-838,918,5620,408
623443,874,3386,-1013,875,5008,200
623460,-228,532,-1091,779,2264,-261
623477,-1832,-3654,-1199,611,-3456,-936
623494,-3497,-6067,-1268,291,-6698,-1606
623510,-3992,-5929,-1213,219,-6888,-1765
623526,-3048,-3821,-1033,344,-5163,-1283
623559,584,5402,-814,893,5949,211
623577,1690,5608,-837,923,6428,632
623592,1690,5312,-881,914,6240,603
623610,1207,4332,-958,889,5394,374
623627,377,2394,-1019,821,3804,1
623644,-346,687,-1162,755,1807,-281
623675,209,3125,-978,793,3883,24
623693,2568,6466,-755,927,7011,1066
623709,4384,7158,-626,959,7066,1905
623726,5637,7037,-604,985,7011,2451
623743,5913,7049,-672,1012,6993,2524
623760,5007,6879,-835,979,7011,2047
623792,2052,3921,-1063,890,5698,697
623809,1164,2684,-1020,829,4564,348
623826,1524,4251,-968,859,5369,562
623843,2241,5334,-878,905,6277,891
623860,2877,5890,-861,937,6762,1170
623876,3043,5811,-851,935,6738,1247
623908,2686,5066,-923,922,6233,1069
623926,1862,3900,-1022,846,5145,692
623943,1083,2034,-1026,803,3481,361
623960,969,2687,-980,809,3844,359
623976,1443,4095,-924,842,4845,579
623993,1897,4760,-894,876,5439,771
624025,1950,4384,-931,871,5194,781
624043,1778,4125,-949,850,4919,706
624060,1775,4703,-894,879,5449,722
624076,2139,4710,-917,889,5492,876
624091,2168,4934,-894,896,5672,893
624109,2203,4836,-919,890,5589,903
624141,1339,2963,-1015,824,3841,501
624159,464,652,-1072,759,1087,126
624174,-644,-2073,-1131,624,-2847,-334
624192,-1264,-2867,-1090,463,-4551,-556
624209,-1154,-1226,-1010,546,-4159,-470
624226,-186,693,-969,652,-820,-51
624257,288,1742,-956,719,819,135
624275,254,1390,-1013,722,641,103
624291,118,1027,-1010,712,149,48
624309,74,1004,-966,712,58,32
624326,526,2875,-940,772,2458,243
624342,876,3460,-935,798,3361,371
624373,1287,3599,-964,828,3903,516
624391,1164,3381,-943,804,3668,491
624407,1497,4107,-919,836,4320,637
624424,1734,4332,-905,843,4703,742
624442,1707,4247,-925,843,4651,722
624458,1658,4121,-953,843,4547,696
624490,1263,2840,-989,801,3193,445
624508,1190,3219,-947,802,3470,501
624523,1421,3840,-914,809,4040,608
624540,1898,4582,-877,851,4916,836
624558,2724,5618,-801,902,6137,1219
624575,3422,6199,-765,935,6776,1509
624607,4814,6889,-716,972,6979,2127
624624,4760,6589,-781,966,6973,2077
624641,4356,6232,-816,957,6955,1885
624658,3973,5822,-858,948,6739,1714
624674,3516,5444,-888,925,6386,1511
624692,3357,5155,-893,915,6077,1371
624723,2225,3990,-960,855,4741,949
624740,1726,2734,-989,798,3348,669
624757,1887,4008,-892,815,4300,859
624774,3455,6167,-698,912,6524,1610
624791,5713,7171,-508,977,7082,2658
624807,6333,7096,-630,1020,7080,2868
624839,3566,5068,-971,926,6193,1518
624857,2657,4160,-966,846,5067,1146
624874,2361,4065,-918,838,4549,1065
624890,2383,4074,-923,839,4443,1073
624906,2343,3974,-919,829,4269,1057
624924,2123,3678,-930,806,3833,973
624956,2150,3933,-904,817,4012,1004
624974,2010,3611,-897,812,3628,941
624990,2268,4350,-869,839,4401,1069
625006,2912,5147,-828,866,5396,1360
625023,3239,5327,-814,893,5686,1503
625040,4010,6088,-722,930,6555,1869
625072,4619,6441,-761,965,6954,2111
625090,4242,6015,-833,947,6748,1906
625106,3180,4589,-943,899,5358,1424
625123,1551,1286,-1022,760,1288,741
625140,1049,507,-1007,688,-416,569
625156,948,571,-976,670,-753,533
625189,1289,1949,-936,701,579,694
625205,1273,1885,-936,705,470,684
625222,1280,1988,-934,715,552,685
625240,1463,2575,-891,742,1228,769
625256,1901,4213,-848,794,3603,974
625273,2297,4235,-869,816,4003,1127
625305,1843,3118,-936,778,2473,921
625322,1580,2492,-936,748,1528,820
625339,1694,2939,-918,755,1958,882
625356,1371,1953,-954,730,782,721
625373,1170,1595,-950,688,72,652
625389,1038,724,-987,670,-1089,598
625421,738,791,-950,650,-1376,493
625438,492,61,-993,639,-2162,379
625456,-73,-1368,-1028,556,-4043,137
625473,-952,-3572,-1086,411,-5737,-242
625489,-584,-1812,-965,448,-4746,-26
625506,184,1261,-894,631,-1565,298
625537,1341,3151,-886,751,1627,804
625554,1103,1874,-963,721,344,630
625572,299,-352,-1028,625,-2495,281
625589,-186,-1327,-1019,539,-4089,103
625604,-6,-474,-961,556,-3339,200
625622,735,1739,-914,657,-639,526
625655,1781,4657,-819,810,4221,962
625672,2871,5335,-776,868,5393,1432
625689,3255,5587,-775,898,5868,1602
625705,3586,5961,-773,921,6361,1733
625722,3689,5947,-805,945,6486,1769
625738,2723,4365,-945,878,4803,1295
625771,-564,-3587,-1160,496,-5220,-108
625788,-1659,-5126,-1167,304,-6571,-537
625805,-1985,-4525,-1081,316,-6210,-572
625821,-1712,-4163,-1057,335,-6047,-501
625838,-1253,-3114,-1012,397,-5577,-282
625855,-1693,-4358,-1074,335,-6284,-509
625887,-257,172,-902,544,-3404,156
625905,1057,3640,-730,802,1224,735
625921,2706,5856,-719,902,5917,1426
625938,3419,5959,-754,926,6312,1682
625954,3723,6092,-749,939,6478,1809
625972,3737,6020,-774,928,6501,1804
626003,4452,6492,-715,955,6939,2134
626021,4769,6620,-681,972,6968,2274
626038,5107,6727,-685,979,6981,2431
626054,5372,6907,-668,1000,7071,2635
626071,5391,6777,-748,1000,7261,2533
626087,3817,5085,-943,941,6120,1789
626120,-211,-3756,-1175,552,-4858,70
626138,-1598,-5551,-1212,312,-6649,-477
626153,-2176,-5606,-1172,256,-6958,-693
626170,-2867,-6233,-1233,185,-6979,-1007
626188,-3530,-6362,-1234,181,-6936,-1288
626204,-3576,-6086,-1147,181,-6933,-1262
626236,-3176,-5687,-1126,200,-6939,-1079
626254,-3177,-5673,-1124,195,-6966,-1089
626271,-2902,-5164,-1078,215,-6913,-960
626287,-2869,-5098,-1096,228,-6876,-955
626304,-2022,-2891,-988,363,-5691,-553
626320,-1720,-2532,-982,388,-5422,-365
626352,455,2650,-833,663,-246,498
626369,930,3236,-889,730,1351,644
626386,848,2640,-913,727,1026,596
626404,162,414,-1011,669,-1504,287
626419,-533,-1396,-1040,568,-3792,-1
626437,-1060,-2556,-1046,459,-4930,-206
626468,-716,410,-905,580,-2504,188
626485,1025,3780,-812,728,2102,736
626503,1943,5081,-802,838,4877,1094
626519,2168,4895,-847,852,4955,1160
626535,2148,4736,-850,847,4856,1160
626553,2443,4953,-826,871,5186,1281
626586,2779,4435,-916,863,4906,1222
626603,1741,3454,-948,822,3754,952
626620,1548,3174,-921,803,3298,886
626636,1653,3480,-908,806,3582,930
626653,1644,3468,-910,807,3516,951
626670,1627,3414,-905,807,3411,933
626703,1638,4413,-837,828,4455,963
626719,2132,2650,-991,814,2738,1167
626736,110,-1212,-1073,657,-2444,256
626753,-1098,-3992,-1145,451,-5530,-238
626770,-2255,-5571,-1207,304,-6738,-726
626786,-3353,-6212,-1247,182,-7082,-1202
626818,-3688,-6144,-1227,176,-6942,-1323
626836,-4410,-6919,-1315,154,-6940,-1652
626852,-5496,-7040,-1311,109,-6957,-2122
626869,-5124,-6844,-1205,118,-7012,-1905
626886,-3974,-5696,-1052,163,-7168,-1355
626902,-2587,-3542,-958,292,-6283,-750
626934,613,4382,-766,716,2100,598
626951,2498,6299,-651,890,6445,1388
626968,4361,7122,-461,988,7189,2228
626986,5972,7074,-607,1016,7076,2869
627002,5410,7087,-700,982,7083,2571
627019,3828,5636,-940,941,6669,1784
627051,1023,1151,-1049,777,2050,616
627069,617,603,-1017,742,572,487
627085,645,1098,-931,750,652,535
627101,1058,2535,-919,778,2354,713
627119,1439,3404,-891,808,3450,877
627135,1702,3948,-884,819,4213,979
627167,871,1456,-984,750,1235,602
627184,558,836,-982,715,150,486
627201,547,963,-972,705,159,497
627218,279,294,-1000,667,-795,374
627235,7,-1220,-1049,619,-2831,258
627252,-779,-2268,-1051,522,-4370,-68
627283,-733,-1592,-1016,514,-3971,-23
627300,-76,447,-931,612,-1674,277
627318,479,1751,-917,690,271,505
627335,919,2733,-894,757,1804,682
627351,1320,3654,-861,824,3189,862
627368,1552,2458,-965,796,2245,924
627400,-2945,-6540,-1342,247,-7255,-1078
627418,-4654,-7129,-1387,146,-7168,-1796
627434,-5107,-6999,-1298,115,-7066,-1923
627451,-4296,-6215,-1147,153,-7040,-1511
627467,-3226,-4996,-1043,215,-6844,-1031
627500,-528,894,-876,661,-2491,115
627532,-1038,-1972,-1072,542,-4188,-195
627549,-2067,-4453,-1152,381,-5795,-645
627566,-3218,-5768,-1234,244,-6904,-1151
627584,-4064,-6469,-1260,158,-7137,-1503
627601,-4044,-6139,-1097,189,-7198,-1464
627617,-2772,-3961,-872,415,-6232,-841
627649,940,4400,-816,776,3392,677
627666,1169,4109,-895,832,4102,730
627683,908,2268,-977,783,1998,456
627701,-116,339,-1021,713,-490,182
627717,-917,-1883,-1092,611,-3370,-173
627734,-1787,-3881,-1123,388,-5325,-522
627766,-1901,-2308,-1008,439,-4508,-553
627783,-1010,-914,-999,548,-3299,-179
627800,-1382,-2297,-1080,502,-4255,-366
627817,-2149,-4221,-1142,387,-5511,-707
627833,-2810,-5044,-1165,302,-6324,-976
627850,-3411,-5735,-1220,236,-6850,-1242
627882,-4659,-6594,-1265,150,-7012,-1769
627900,-4711,-6079,-1166,155,-7046,-1771
627916,-3409,-4597,-1044,243,-6396,-1156
627933,-2356,-2734,-982,391,-5047,-713
627950,-1411,-443,-948,521,-3369,-324
627967,-990,229,-972,612,-2022,-174
627998,-711,435,-999,663,-979,-87
628016,-798,-26,-1012,654,-1347,-137
628032,-951,-836,-1036,620,-2245,-240
628049,-891,-213,-990,642,-1563,-153
628066,-119,2056,-907,713,1273,205
628083,1237,4844,-819,850,5111,765
628114,1838,4874,-892,895,5661,957
628131,1179,3674,-970,849,4559,660
628148,918,3097,-970,824,4064,557
628165,1409,4347,-897,851,4987,794
628182,1353,3968,-939,854,4745,756
628199,707,2088,-1029,812,3067,461
628231,-1568,-3862,-1191,531,-4659,-516
628248,-2685,-5530,-1251,324,-6385,-989
628266,-3795,-6363,-1291,165,-7126,-1449
628282,-4289,-6404,-1250,145,-7013,-1645
628299,-4025,-5714,-1176,186,-6897,-1488
628315,-3492,-5012,-1114,248,-6521,-1244
628347,-1577,-681,-921,500,-3251,-380
628365,281,3966,-807,754,2927,404
628381,1829,5990,-755,904,6360,1022
628398,2221,5723,-830,919,6386,1144
628416,1677,4622,-979,861,5394,867
628432,648,2477,-1002,810,3489,426
628463,251,1622,-998,778,2162,286
628481,-114,614,-1043,743,803,124
628499,-168,677,-1012,717,653,121
628515,-149,745,-1019,714,703,125
628531,-299,315,-1024,715,118,56
628548,-466,158,-1007,696,-281,-2
628581,79,1544,-973,757,1501,241
628598,310,2114,-954,778,2324,345
628615,911,3703,-894,832,4273,605
628631,1507,4734,-856,872,5323,856
628647,2336,5673,-799,919,6363,1229
628665,2722,5586,-829,928,6444,1385
628696,2706,5146,-876,910,6156,1354
628714,2515,5071,-878,905,6111,1274
628730,2504,5102,-894,911,6153,1266
628748,2135,4608,-938,892,5752,1080
628765,1630,3628,-989,868,4917,861
628781,542,574,-1147,710,1841,367
628813,-1771,-4614,-1179,385,-5459,-578
628830,-2144,-4431,-1131,373,-5528,-701
628847,-2029,-3958,-1087,396,-5232,-624
628864,-1442,-2328,-1022,486,-4291,-359
628881,-893,-817,-982,590,-2666,-121
628897,-158,1211,-912,679,-28,202
628930,1608,4687,-841,859,5052,933
628947,1988,4865,-866,885,5472,1084
628964,2055,4760,-876,882,5502,1098
628980,1675,3967,-954,863,4830,903
628997,725,1483,-1050,798,2341,465
629014,-612,-2029,-1144,656,-2453,-105
629046,-2374,-5030,-1200,333,-6036,-835
629063,-2544,-4791,-1154,313,-5977,-885
629080,-2827,-5307,-1208,260,-6513,-1007
629097,-3696,-5958,-1240,189,-6958,-1388
629114,-3792,-5904,-1198,188,-6976,-1398
629130,-3460,-5346,-1122,218,-6761,-1224
629162,-1735,-1905,-991,461,-4471,-470
629179,-1347,-1151,-1012,536,-3722,-334
629196,-1372,-1458,-1041,537,-3788,-364
629214,-1406,-1202,-1025,546,-3432,-314
629230,-761,277,-958,631,-1504,-77
629247,486,3627,-842,771,2901,483
629278,2492,5902,-795,918,6474,1300
629295,2506,5506,-843,911,6204,1274
629313,2425,5247,-857,900,6004,1240
629329,2471,5215,-866,901,6030,1254
629346,2800,5566,-838,902,6396,1403
629363,3145,5970,-803,923,6757,1564
629395,2433,4804,-945,900,5869,1209
629413,1589,3374,-1006,849,4535,843
629428,749,1176,-1063,781,2290,470
629447,208,216,-1029,722,437,279
629463,310,1871,-946,756,1888,358
629479,1004,3953,-883,831,4347,676
629511,1669,4013,-948,862,4732,915
629529,1003,2106,-1016,808,2861,618
629545,-63,-779,-1106,718,-973,154
629563,-1177,-3503,-1157,540,-4551,-312
629579,-2129,-4877,-1200,333,-5858,-702
629596,-2750,-5570,-1212,257,-6686,-1069
629628,-2322,-4237,-1090,340,-5851,-734
629646,-2188,-4060,-1091,360,-5681,-687
629663,-2408,-4501,-1124,345,-5957,-797
629679,-2641,-4664,-1139,315,-6082,-901
629696,-2240,-3672,-1058,371,-5392,-695
629713,-1639,-2139,-1000,503,-4450,-427
629744,-962,-56,-976,616,-2133,-165
629762,-330,913,-948,672,-641,99
629777,91,1882,-947,723,860,270
629795,537,2876,-907,773,2405,451
629812,905,3510,-921,812,3552,596
629828,925,3326,-925,809,3541,609
629860,646,2292,-984,790,2504,482
629877,412,974,-1021,738,736,370
629895,-484,-923,-1084,680,-1709,-39
629911,-1671,-3979,-1182,482,-5235,-547
629929,-2703,-5321,-1231,318,-6295,-989
629945,-3147,-5399,-1195,264,-6557,-1155
629977,-3116,-4973,-1143,263,-6396,-1114
629995,-3209,-5346,-1184,246,-6694,-1173
630010,-3378,-5341,-1175,234,-6694,-1235
630028,-3601,-5513,-1172,222,-6814,-1334
630045,-3399,-5129,-1136,249,-6557,-1236
630062,-3117,-4578,-1101,298,-6134,-1107
630093,-1838,-1724,-998,467,-4233,-543
630111,-1033,276,-945,604,-2070,-195
630127,-206,2792,-910,755,1916,147
630144,131,2354,-973,773,1949,235
630161,249,2555,-931,780,2349,303
630178,509,2998,-953,797,3175,394
630210,-515,-201,-1076,703,-571,-79
630226,-1369,-2373,-1119,587,-3566,-421
630245,-1701,-2885,-1069,516,-4429,-545
630261,-1420,-895,-1008,591,-2556,-270
630277,-647,390,-990,670,-742,-65
630295,-735,-161,-1037,663,-1146,-134
630326,-919,-598,-1032,629,-1803,-203
630344,-688,88,-1006,665,-919,-103
630361,-635,143,-1017,681,-735,-85
630377,-434,1627,-955,732,1135,3
630394,354,4558,-836,843,4800,663
630410,2466,6144,-733,928,6675,1311
630442,2990,5755,-854,942,6658,1473
630460,2128,4521,-965,901,5614,1052
630476,1030,2477,-1051,832,3765,561
630494,226,650,-1069,767,1572,237
630510,-82,741,-1007,736,913,135
630527,294,2751,-915,791,3183,501
630559,1833,4791,-856,887,5426,1008
630577,2479,5454,-802,919,6170,1311
630593,3193,6060,-754,941,6798,1630
630610,3452,6089,-804,951,6908,1715
630627,2860,5381,-893,935,6481,1409
630643,1825,2336,-1058,838,3870,927
630678,-177,-2184,-1138,657,-2518,78
630696,-1437,-3804,-1149,492,-4756,-429
630712,-2219,-4893,-1208,375,-5837,-777
630728,-3156,-5794,-1276,200,-6765,-1183
630745,-4006,-6737,-1339,147,-6980,-1565
630762,-4870,-6956,-1349,115,-6957,-2069
630792,-5533,-6890,-1278,114,-6935,-2190
630809,-5400,-6687,-1289,119,-6936,-2118
630826,-5435,-6580,-1265,115,-6936,-2148
630843,-5150,-6290,-1218,128,-6936,-2003
630859,-4971,-6302,-1232,128,-6936,-1946
630877,-5490,-6741,-1298,125,-6936,-2192
630908,-5950,-6888,-1315,95,-6936,-2395
630926,-6236,-6941,-1366,69,-6936,-2546
630943,-6577,-6956,-1364,47,-6936,-2807
630960,-6552,-6929,-1333,56,-6936,-2763
630976,-6282,-6742,-1267,60,-6953,-2561
630993,-5832,-6467,-1214,91,-7004,-2315
631025,-3802,-4118,-1026,247,-6219,-1421
631042,-2523,-1271,-967,523,-4388,-871
631059,-1821,124,-996,608,-2025,-608
631075,-1521,263,-1003,634,-1345,-507
631092,-1303,537,-1016,664,-600,-426
631109,-932,1430,-973,708,716,-258
631140,-643,1614,-1001,749,1588,-147
631158,-722,1194,-1032,752,1236,-207
631175,-884,634,-1075,710,614,-274
631192,-1306,-1498,-1125,634,-2022,-602
631209,-2008,-2394,-1138,556,-3389,-764
631226,-2147,-2550,-1120,527,-3746,-813
631257,-2142,-2481,-1110,537,-3814,-812
631275,-2425,-3321,-1144,477,-4580,-943
631292,-3080,-4806,-1258,299,-5704,-1243
631308,-4075,-5871,-1344,179,-6716,-1689
631325,-5048,-6608,-1375,104,-6977,-2122
631342,-5851,-6696,-1360,87,-6962,-2459
631374,-5303,-6102,-1232,119,-6954,-2159
631391,-4756,-5638,-1185,156,-6856,-1920
631408,-4255,-5081,-1155,221,-6479,-1706
631426,-4039,-4961,-1197,258,-6245,-1641
631442,-4057,-4853,-1136,302,-6104,-1649
631458,-3546,-3917,-1135,355,-5238,-1409
631490,-3013,-2930,-1081,405,-4512,-1184
631507,-2062,-352,-1013,586,-1917,-761
631523,-1108,1888,-955,715,1441,-370
631541,-486,2989,-977,803,3465,-142
631557,-112,3536,-976,828,4414,-7
631574,27,3923,-963,839,4772,48
631607,1410,5344,-856,906,6276,680
631624,2146,6027,-822,945,6882,1005
631640,2350,5999,-868,945,6941,1073
631658,2067,5531,-927,935,6711,913
631674,1472,4702,-1000,898,6052,640
631691,1225,4489,-972,902,5789,551
631723,470,554,-1162,802,2561,192
631740,-1947,-3836,-1281,605,-3423,-862
631756,-3056,-5277,-1296,364,-5754,-1309
631773,-3537,-5561,-1270,278,-6336,-1496
631791,-3860,-5707,-1278,239,-6505,-1633
631807,-4431,-6105,-1320,184,-6886,-1893
631841,-5182,-6165,-1292,117,-6937,-2191
631857,-5083,-6082,-1290,132,-6927,-2146
631873,-5018,-5978,-1268,126,-6917,-2114
631890,-4594,-5552,-1208,176,-6743,-1914
631907,-4284,-5308,-1199,216,-6519,-1800
631924,-4191,-5260,-1201,237,-6439,-1755
631956,-3272,-3297,-1080,358,-4877,-1316
631973,-1898,318,-926,698,-1368,-711
631990,-33,4219,-913,827,4589,28
632006,499,4662,-921,877,5378,237
632023,763,4797,-941,892,5688,331
632040,1160,5199,-898,907,6093,521
632072,1215,4626,-979,901,5769,503
632090,790,3969,-1002,866,5203,318
632107,699,3776,-1016,858,5010,282
632123,753,4022,-982,865,5206,325
632139,1145,4670,-954,882,5818,500
632156,1209,4606,-973,898,5798,510
632189,1191,4402,-979,885,5590,513
632206,1042,4083,-1021,871,5292,442
632222,787,3512,-1014,851,4837,338
632239,706,2681,-1055,837,4257,302
632256,74,1653,-1084,798,3371,14
632272,-466,368,-1108,751,1671,-209
632305,481,3411,-947,829,4516,247
632321,1467,5154,-869,891,5924,690
632339,2152,5585,-853,929,6531,995
632356,2064,5165,-983,905,6292,920
632373,983,3241,-1059,862,4780,396
632389,-15,727,-1130,785,2387,-37
632421,-1449,-2455,-1178,618,-2582,-624
632438,-1671,-2592,-1146,557,-3291,-693
632456,-1525,-1879,-1110,579,-2720,-619
632472,-1400,-1441,-1098,598,-2243,-556
632489,-1361,-1265,-1097,604,-2076,-549
632505,-1454,-1520,-1106,602,-2422,-603
632537,-1476,-1390,-1086,592,-2442,-590
632554,-1215,-616,-1067,640,-1475,-481
632571,-953,44,-1040,665,-600,-379
632588,-840,210,-1068,689,-250,-348
632606,-885,38,-1065,686,-412,-363
632622,-699,549,-1024,716,268,-275
632654,635,3821,-951,843,4511,294
632671,812,3934,-974,849,4667,362
632689,1119,4482,-927,866,5166,499
632705,1683,5020,-893,897,5791,771
632722,1704,4791,-931,901,5682,758
632738,1743,4741,-953,891,5691,768
632771,1408,3841,-1015,869,4982,508
632788,648,2379,-1070,817,3823,253
632804,131,1142,-1097,777,2207,33
632821,-411,-174,-1106,725,283,-192
632838,-958,-1433,-1138,649,-1694,-421
632854,-1500,-2648,-1164,568,-3520,-650
632886,-1588,-2129,-1092,522,-3588,-636
632903,-1035,50,-1033,653,-1614,-392
632920,-691,283,-1027,674,-424,-257
632938,-386,1031,-1025,712,645,-132
632955,-225,1403,-1000,727,1194,-56
632971,262,2584,-976,788,2815,147
633003,1012,4086,-936,847,4639,480
633021,1146,4199,-977,862,4898,530
633037,755,1775,-1077,789,2697,129
633054,-247,368,-1097,731,657,-104
633070,-874,-1231,-1142,655,-1594,-383
633087,-1671,-3193,-1194,520,-4169,-728
633119,-2985,-5030,-1234,299,-6082,-1282
633138,-3040,-4856,-1172,307,-6079,-1285
633154,-2467,-3580,-1113,376,-5317,-995
633170,-1661,-1261,-1021,506,-3499,-624
633187,-368,2186,-920,699,927,-42
633204,802,4533,-876,843,4563,429
633236,1204,4233,-955,856,4823,545
633253,1065,3959,-976,847,4590,485
633270,966,3767,-970,835,4448,428
633286,1142,4539,-924,870,5185,530
633303,1709,4907,-908,888,5621,785
633320,1925,5023,-908,910,5779,881
633352,1552,4101,-996,872,5014,682
633370,871,2600,-1056,813,3720,368
633386,96,617,-1117,759,1383,35
633403,-295,-39,-1080,699,55,-103
633419,-257,400,-1023,721,199,-57
633435,154,2012,-1003,757,2154,190
633469,133,1342,-1042,748,1481,94
633487,129,1414,-1040,747,1440,103
633502,199,1649,-1012,750,1666,146
633520,514,2500,-1002,793,2713,290
633537,438,2099,-1085,763,2426,240
633553,-375,-1197,-1136,645,-1889,-300
633584,-2116,-4257,-1227,406,-5338,-903
633602,-2880,-5045,-1256,309,-6132,-1236
633619,-3027,-4960,-1204,276,-6196,-1272
633636,-2748,-4347,-1158,315,-5802,-1122
633653,-2385,-3708,-1124,362,-5378,-962
633670,-2200,-3092,-1107,409,-5032,-889
633701,-2231,-3967,-1165,378,-5380,-913
633718,-2858,-4527,-1201,328,-5811,-1202
633735,-2894,-4350,-1154,320,-5757,-1207
633753,-2357,-3078,-1092,391,-4968,-941
633769,-1730,-1451,-1044,488,-3904,-666
633786,-1307,-494,-1016,615,-2602,-488
633817,-180,2288,-904,784,1477,-2
633835,1284,4917,-887,865,5277,630
633851,1475,4767,-916,878,5278,696
633869,1453,4446,-951,876,5095,670
633885,1027,3668,-1006,846,4395,452
633902,605,2596,-1040,815,3466,270
633951,498,2620,-979,800,3177,245
633968,933,4131,-942,836,4590,447
633984,1520,4508,-923,863,5117,720
634001,1581,4444,-942,877,5143,727
634019,1398,4058,-983,853,4824,625
634035,1037,3304,-1007,839,4208,468
634069,1030,3587,-976,841,4324,491
634086,1098,3482,-980,838,4177,511
634103,1052,3357,-988,819,4009,491
634119,1065,3352,-986,821,3987,505
634136,1131,3534,-980,823,4183,538
634153,1211,3724,-970,841,4410,577
634184,1017,2988,-1012,820,3832,460
634201,753,1849,-1042,785,2403,371
634218,373,1271,-1047,751,1426,175
634234,202,1128,-1047,745,1086,124
634251,198,1211,-1043,726,1052,132
634268,160,1162,-1038,723,940,118
634300,562,2472,-968,763,2372,332
634317,981,3423,-946,815,3742,498
634334,1265,3936,-948,848,4308,626
634351,1208,3142,-998,812,3739,520
634368,920,2772,-1000,791,3302,444
634384,683,2094,-1025,789,2483,343
634416,-891,-1988,-1142,597,-3092,-359
634433,-1200,-2363,-1114,521,-4056,-471
634450,-856,-1041,-1059,570,-2745,-301
634467,-817,-1472,-1101,570,-3206,-291
634484,-1287,-2254,-1126,500,-4053,-500
634501,-1788,-3547,-1167,425,-4986,-727
634533,-2854,-5137,-1235,274,-6397,-1195
634551,-3059,-5185,-1199,253,-6513,-1276
634566,-2984,-4910,-1189,259,-6335,-1233
634583,-2868,-4633,-1162,288,-6123,-1191
634600,-2998,-4794,-1173,288,-6223,-1256
634617,-2358,-3186,-1063,364,-5228,-917
634649,172,3285,-892,732,1977,193
634665,1195,4973,-849,851,4921,616
634682,1619,5137,-881,883,5473,787
634699,1768,5004,-896,885,5504,837
634716,1750,4767,-919,872,5299,822
634733,1750,4622,-920,873,5216,817
634765,2543,5591,-835,909,6298,1210
634782,3149,6106,-809,939,6815,1484
634799,3168,5984,-850,942,6774,1475
634817,2907,5545,-898,931,6442,1345
634833,2421,4891,-955,908,5812,1119
634850,2073,4420,-963,873,5302,976
634882,1501,2969,-1019,825,3925,717
634899,691,1431,-1077,785,2100,344
634916,11,-216,-1115,711,-326,54
634932,-823,-2273,-1158,601,-3325,-314
634950,-1495,-3598,-1182,444,-4978,-587
634966,-1879,-4142,-1178,399,-5310,-747
635000,-2997,-5640,-1271,221,-6781,-1262
635016,-3652,-5810,-1260,178,-6938,-1532
635033,-3383,-5283,-1180,202,-6735,-1371
635050,-2600,-3992,-1081,302,-5880,-1009
635066,-1732,-1871,-1034,434,-4664,-625
635083,-1207,-747,-1023,531,-3475,-408
635116,59,3227,-913,765,2414,140
635132,931,4822,-840,857,4983,541
635149,2042,5393,-834,898,5829,1017
635166,2099,5202,-893,903,5792,1002
635183,1827,4691,-945,882,5328,865
635199,1163,3203,-1025,838,3941,541
635231,47,674,-1052,718,462,88
635249,171,1246,-1006,734,926,155
635266,392,2139,-991,760,2015,261
635282,396,1733,-1028,762,1632,244
635299,-2,606,-1073,719,154,55
635317,-745,-1399,-1138,630,-2454,-281
635347,-1995,-4004,-1164,393,-5210,-792
635364,-1851,-3315,-1118,416,-4852,-715
635382,-1538,-1681,-1059,494,-3845,-563
635399,-1190,-1236,-1065,545,-3393,-402
635415,-1098,-1170,-1064,568,-3199,-391
635432,-1055,-1049,-1069,565,-3042,-379
635464,-894,-650,-1058,599,-2507,-313
635482,-1209,-1644,-1113,546,-3593,-461
635497,-1785,-3152,-1155,445,-4768,-722
635515,-2260,-4145,-1155,365,-5529,-928
635531,-2217,-2611,-1066,416,-4764,-880
635549,-880,336,-962,585,-1931,-264
635580,1546,5246,-823,874,5455,790
635598,2459,5891,-778,918,6387,1210
635614,3137,6183,-759,941,6783,1510
635632,3382,6190,-815,950,6859,1611
635648,3272,5581,-900,934,6477,1532
635665,2585,4737,-970,901,5723,1019
635697,1405,3472,-999,840,4415,661
635714,931,2182,-1043,802,3090,439
635731,355,832,-1072,748,1171,196
635747,18,151,-1071,703,-15,61
635765,-186,-148,-1072,666,-699,-21
635780,-373,-447,-1044,653,-1305,-84
635813,-209,363,-1016,677,-607,11
635831,323,1911,-961,728,1333,261
635847,975,3522,-915,800,3507,543
635865,1633,4610,-870,842,4921,844
635882,2010,4818,-876,875,5331,989
635898,2332,5401,-846,912,6064,1154
635930,3012,6040,-795,943,6728,1577
635947,3277,5812,-844,937,6593,1571
635964,2898,5329,-896,915,6196,1376
635980,2487,4724,-940,896,5628,1180
635997,1648,3091,-1043,848,4100,772
636014,257,-513,-1143,728,-108,147
636046,-1182,-3307,-1153,469,-4759,-434
636063,-2415,-5334,-1268,298,-6388,-997
636080,-3552,-6251,-1348,182,-7033,-1520
636096,-4392,-6567,-1354,127,-6979,-1883
636114,-4393,-6286,-1279,123,-6983,-1838
636130,-4063,-5860,-1212,156,-6981,-1664
636162,-2439,-3659,-1062,332,-5760,-915
636180,-1819,-2233,-1040,444,-4943,-658
636197,-1379,-1308,-1039,493,-4148,-476
636213,-1246,-1087,-1042,517,-3823,-426
636230,-839,-28,-1005,591,-2387,-238
636247,-454,880,-983,636,-1026,-85
636279,66,1757,-985,723,732,117
636297,-52,1283,-1030,703,312,68
636313,-374,256,-1082,649,-879,-97
636329,-680,-343,-1046,617,-1873,-203
636346,-489,238,-1025,648,-1184,-114
636362,-40,1533,-976,692,461,94
636396,537,2724,-963,779,2384,334
636412,727,3015,-962,792,2994,416
636430,708,2391,-1006,789,2472,406
636446,372,1712,-1056,738,1670,237
636463,-356,-178,-1078,679,-909,-80
636479,-648,-732,-1080,639,-1860,-190
636511,-449,106,-1042,656,-1080,-88
636529,-259,634,-1012,678,-414,1
636545,-35,1203,-1001,703,391,88
636562,107,1476,-1004,719,869,153
636579,190,1710,-980,750,1206,183
636595,879,3526,-916,803,3577,507
636628,2476,5522,-809,906,6104,1232
636645,3000,5946,-791,937,6608,1476
636663,3359,6166,-791,945,6828,1629
636679,3399,6082,-837,937,6843,1631
636696,3340,5978,-835,947,6770,1597
636713,3423,5866,-837,935,6703,1641
636744,2027,3744,-1012,873,4787,959
636762,1471,2894,-1018,826,3883,737
636779,1413,3119,-951,829,3985,746
636795,1888,4390,-913,864,5049,969
636812,1716,3705,-1013,829,4536,868
636829,738,746,-1201,675,1236,384
636860,-3558,-7063,-1492,125,-7223,-1968
636878,-5822,-7075,-1518,64,-7050,-2527
636895,-6516,-6968,-1518,25,-6934,-2821
636912,-7028,-6941,-1756,-61,-6935,-3746
636928,-6948,-6943,-2033,-77,-6936,-5156
636945,-6955,-6942,-2190,-85,-6933,-6353
636977,-6935,-6940,-2125,-83,-6932,-6941
636994,-6936,-6941,-1891,-66,-6932,-6833
637012,-6936,-6945,-1963,-70,-6932,-6819
637028,-6992,-7084,-1697,-68,-6941,-6559
637045,-7093,-7321,-1379,-86,-7221,-5260
637061,-7082,-6744,-996,-50,-7257,-3481
637094,-867,6113,-586,724,2965,-111
637111,2335,7359,-415,980,7285,1829
637128,4712,7032,-499,989,7232,2261
637144,5442,6975,-549,1004,6958,2573
637161,4612,7018,-762,973,6978,2086
637178,3755,6812,-852,950,7049,1654
637209,2403,4319,-1096,891,5996,973
637226,-144,510,-1217,776,2801,-196
637244,-945,-249,-1109,704,728,-479
637261,-566,740,-1058,737,1640,-265
637278,252,3090,-966,814,4169,120
637294,285,2766,-1030,839,4114,90
637326,1244,5061,-870,899,5951,583
637343,2871,6531,-734,951,7051,1311
637360,4242,7052,-622,978,7012,1957
637376,7098,6983,-58,1095,6955,4231
637394,7038,6957,385,1174,6957,6486
637410,6993,6957,508,1164,6956,7144
637443,6958,6957,-367,1129,6955,6600
637459,6980,6976,-670,1144,6955,5195
637476,7053,7040,-779,1103,6968,4190
637494,6937,7065,-884,1044,7245,3170
637510,4792,5028,-1090,973,7120,2055
637527,2468,1047,-1254,858,4615,1008
637559,-2455,-6605,-1457,252,-7004,-1109
637577,-3629,-7038,-1418,136,-7305,-1595
637592,-4142,-6912,-1404,116,-7010,-1801
637609,-4134,-6560,-1308,126,-6952,-1747
637626,-3724,-5807,-1218,169,-6920,-1548
637643,-3086,-5203,-1142,218,-6614,-1233
637675,-1903,-3626,-1091,371,-5502,-712
637692,-1946,-3849,-1106,357,-5605,-747
637709,-2031,-4031,-1133,355,-5699,-802
637727,-2182,-4226,-1186,331,-5745,-880
637743,-2717,-4936,-1188,263,-6279,-1141
637760,-2691,-4272,-1131,300,-5874,-1018
637792,-2658,-4688,-1184,298,-6210,-1102
637810,-3160,-5395,-1237,224,-6717,-1341
637826,-3816,-6001,-1287,164,-6988,-1645
637843,-3702,-5567,-1205,174,-6895,-1559
637860,-3478,-5150,-1160,242,-6622,-1460
637877,-3176,-4724,-1176,266,-6339,-1318
637908,-3682,-5418,-1221,195,-6809,-1574
637925,-3015,-4375,-1106,265,-6236,-1243
637943,-2317,-2819,-1056,368,-5284,-920
637960,-1262,-40,-963,534,-2955,-435
637976,-142,2698,-901,699,1021,50
637993,683,4180,-907,819,3603,378
638024,924,3719,-1021,809,3948,439
638042,199,-150,-1138,708,-558,-202
638058,-1405,-2565,-1177,550,-3991,-632
638075,-2198,-4307,-1231,381,-5552,-982
638092,-2860,-5130,-1259,285,-6252,-1274
638109,-3231,-5266,-1249,248,-6472,-1425
638141,-1415,-594,-926,628,-3082,-516
638158,151,4908,-819,826,4648,192
638176,2139,5898,-801,917,6354,1047
638192,1884,5063,-938,899,5736,862
638209,920,3087,-1062,822,3905,399
638225,646,2677,-1020,803,3398,300
638257,1815,5054,-848,876,5554,890
638275,2558,5597,-853,909,6330,1217
638291,2659,5304,-918,908,6266,1238
638308,1602,3812,-1038,865,4979,695
638325,657,1517,-1107,782,2699,261
638342,-444,-1340,-1190,675,-1276,-234
638374,-2614,-5288,-1323,311,-6139,-1198
638391,-3781,-6195,-1368,173,-7047,-1719
638408,-3902,-5396,-1188,193,-6725,-1716
638424,-3062,-3741,-1070,325,-5644,-1044
638441,-1347,-710,-977,516,-3312,-490
638458,-769,646,-978,633,-1166,-255
638490,2216,6010,-707,922,6376,1136
638507,4811,7230,-458,1002,7262,2415
638525,5700,7039,-575,1025,7034,2760
638541,5910,7224,-645,1022,7178,2853
638557,5554,6872,-838,1010,7328,2601
638575,2508,3811,-1141,924,5822,1049
638606,-2912,-6397,-1452,280,-7086,-1360
638624,-4340,-7063,-1472,131,-7326,-1951
638640,-5826,-7013,-1565,63,-7028,-2615
638657,-6754,-6960,-1605,11,-6948,-3139
638674,-7037,-6935,-1877,-76,-6945,-3963
638691,-6961,-6936,-2053,-69,-6945,-5675
638723,-6936,-6936,-1992,-67,-6947,-6459
638741,-6936,-6936,-1896,-67,-6947,-6537
638758,-6947,-6967,-1762,-71,-6947,-6145
638774,-6989,-6991,-1502,-66,-6953,-5286
638791,-7041,-7126,-1284,-67,-7022,-4257
638808,-6502,-5051,-1023,86,-7166,-2358
638839,-2110,1900,-874,564,-2114,-853
638856,-429,4899,-792,777,3619,-147
638874,897,5798,-768,907,6025,392
638890,2300,6733,-676,965,7240,1046
638907,2404,6274,-848,946,7000,1008
638924,1436,5011,-1107,873,6068,509
638955,-1716,-2132,-1209,588,-1850,-917
638972,-2500,-3641,-1225,485,-4406,-1237
638989,-3153,-4730,-1280,356,-5497,-1529
639007,-4722,-6403,-1461,162,-7020,-2287
639023,-6105,-6986,-1532,52,-6983,-2905
639040,-6325,-6855,-1400,42,-6998,-2935
639072,-4677,-5352,-1179,209,-6719,-2119
639089,-4161,-5048,-1218,243,-6454,-1917
639105,-3609,-3626,-1112,322,-5274,-1638
639123,-1509,2176,-895,650,591,-657
639139,379,5430,-787,871,5760,139
639156,3136,7273,-530,967,7352,1477
639188,6895,7006,-385,1061,6982,3396
639206,6874,6957,-487,1071,6960,3491
639222,6829,6957,-587,1071,6956,3478
639239,6735,6958,-561,1052,6957,3361
639257,6890,6963,-499,1075,6955,3621
639273,6876,6959,-586,1074,6955,3622
639305,4999,6671,-903,979,6955,2175
639321,4847,6826,-797,971,6955,2166
639339,5558,7016,-609,1011,6958,2578
639355,6458,7031,-692,1018,6978,3035
639372,5227,6587,-871,998,6994,2338
639389,3538,5028,-1032,941,6713,1509
639421,2412,4356,-988,898,5936,1047
639439,2608,4985,-915,904,6249,1174
639454,3270,5879,-815,946,6838,1515
639472,4134,6628,-737,972,6973,1935
639488,4468,6335,-797,974,6973,2064
639506,4003,5917,-835,966,6913,1845
639537,3410,5381,-896,939,6539,1554
639554,3197,5295,-912,932,6468,1462
639571,2495,4341,-981,895,5619,1118
639588,1809,3021,-1090,807,4419,803
639605,793,-359,-1118,730,149,333
639622,-31,-926,-1094,669,-1212,15
639653,1687,4211,-844,838,4445,864
639671,2844,5656,-758,918,6211,1414
639687,3019,5546,-844,942,6274,1441
639705,3097,5697,-886,923,6414,1483
639721,2583,4765,-939,900,5614,1208
639738,2203,3431,-1005,852,4340,1028
639770,-844,-3501,-1228,534,-4446,-381
639787,-2189,-5389,-1284,306,-6429,-963
639804,-3007,-6051,-1323,204,-7009,-1325
639821,-3576,-6482,-1367,152,-7074,-1590
639838,-5340,-7022,-1565,48,-6956,-2424
639854,-6641,-6952,-1591,17,-6933,-3096
639886,-6873,-6968,-1483,-37,-6936,-3511
639904,-6721,-7005,-1386,-27,-6945,-3204
639921,-6294,-6932,-1275,36,-6988,-2762
639937,-4864,-5779,-1111,109,-7037,-2049
639954,-3358,-3933,-1006,228,-6512,-1359
639971,-2099,-1279,-957,474,-4950,-823
640003,-790,1224,-973,639,-1466,-300
640020,-1340,-1058,-1095,554,-3470,-600
640036,-2162,-3492,-1203,416,-5190,-997
640054,-3398,-5586,-1315,243,-6751,-1579
640071,-4480,-6533,-1382,125,-7038,-2070
640087,-5498,-6956,-1443,90,-6987,-2536
640120,-6834,-6950,-1562,-15,-6938,-3392
640137,-6956,-6959,-1597,-67,-6936,-3772
640153,-7040,-7061,-1548,-67,-6968,-3959
640171,-6987,-7173,-1420,-48,-7054,-3670
640187,-5841,-5953,-1085,43,-7194,-2546
640204,-3409,-2377,-936,281,-5792,-1433
640236,-32,4821,-823,779,3623,0
640254,1244,5804,-781,920,6026,544
640270,2392,6260,-768,945,6849,1059
640287,2871,6520,-784,959,7138,1262
640305,2346,5728,-934,933,6681,954
640320,934,3292,-1135,860,4558,237
640352,-2606,-4815,-1314,404,-5581,-1308
640369,-3070,-4820,-1251,309,-5845,-1474
640386,-2652,-3709,-1180,378,-4985,-1251
640403,-2200,-2313,-1120,456,-4072,-1038
640419,-2407,-3043,-1192,424,-4600,-1171
640437,-2679,-3695,-1207,383,-5155,-1291
640468,-2145,-1542,-1077,494,-3627,-1000
640485,-413,3404,-870,732,2503,-176
640502,2433,6944,-601,942,7264,1156
640519,5438,7194,-371,1003,7201,2646
640535,6920,6991,-398,1078,6966,3552
640553,7032,7096,-478,1081,6997,3688
640585,5236,6822,-982,1013,7401,2226
640603,1681,1709,-1321,867,4738,469
640619,-1162,-4396,-1445,622,-3089,-736
640635,-4319,-7259,-1669,150,-7476,-2185
640652,-6936,-7154,-1948,-83,-7228,-3529
640669,-7042,-6953,-1986,-97,-6948,-5166
640701,-6933,-6933,-1788,-63,-6937,-5502
640718,-6934,-6932,-1683,-73,-6935,-5201
640735,-6934,-6934,-1754,-63,-6936,-5333
640753,-6934,-6934,-1742,-69,-6936,-5449
640768,-6938,-6936,-1694,-64,-6936,-5401
640786,-6966,-7053,-1387,-66,-6961,-5020
640818,-6951,-6367,-1158,6,-7352,-3111
640834,-4238,-2729,-951,246,-5941,-1897
640852,-2039,2546,-822,580,-921,-927
640869,711,6497,-676,896,6494,237
640886,2469,7030,-721,962,7270,1022
640903,2685,6595,-848,948,7212,1054
640934,485,3356,-1139,855,4839,-96
640952,-591,1059,-1169,763,2805,-537
640969,-214,2607,-1033,793,4016,-311
640986,533,4340,-966,856,5284,36
641002,1223,5087,-927,906,6024,348
641019,1324,4857,-990,903,5948,387
641051,676,3700,-1076,859,5076,56
641067,2982,6861,-686,950,7128,1272
641085,4414,7004,-615,969,6961,1979
641102,5655,7014,-580,1011,6983,2550
641118,6164,6967,-560,1033,6956,2790
641135,6604,6961,-452,1065,6955,3356
641167,6981,6959,-130,1144,6957,5110
641184,7012,6992,-614,1133,6957,4315
641201,6834,7011,-755,1077,6958,3379
641218,5779,6672,-953,1012,6958,2423
641235,4413,5933,-969,954,6963,1828
641251,3542,5227,-1004,930,6898,1432
641300,5373,7006,-621,983,6959,2494
641317,5731,6978,-681,1010,6957,2625
641334,5781,6857,-763,1008,6959,2509
641351,5395,6861,-742,1003,6960,2452
641367,6023,6966,-620,1009,6960,2806
641384,6730,6960,-511,1043,6960,3378
641400,6844,6981,-550,1074,6960,3570
641432,5978,6732,-823,1013,6968,2714
641450,5022,5795,-912,971,6945,2251
641466,4082,5377,-900,948,6691,1730
641484,4168,5835,-835,953,6884,1914
641500,3316,4502,-978,917,5811,1462
641517,2658,3870,-961,861,5008,1178
641549,2749,4269,-925,869,5136,1255
641567,3253,5269,-805,932,6036,1554
641584,3797,6340,-704,965,6922,1819
641600,4936,6691,-683,980,7012,2370
641617,4860,6319,-788,982,6984,2283
641634,3829,5144,-903,936,6133,1774
641665,3071,4702,-862,883,5393,1479
641683,3103,4627,-892,889,5363,1487
641699,2442,2580,-1007,818,3270,1152
641717,1771,927,-1066,750,939,659
641733,6,-2737,-1177,585,-3940,3
641751,-1105,-4735,-1215,377,-5883,-460
641782,-2926,-6125,-1311,188,-7043,-1295
641799,-3699,-6521,-1369,153,-6947,-1661
641816,-4322,-6823,-1363,118,-6951,-1936
641834,-4628,-6699,-1268,115,-7003,-1931
641850,-3805,-6045,-1159,151,-7055,-1611
641867,-2281,-3803,-987,270,-6262,-855
641899,-263,686,-955,580,-2695,10
641916,107,1403,-945,638,-1394,178
641932,510,2390,-911,686,532,357
641950,1185,4016,-820,806,3179,664
641967,2946,6218,-724,911,6564,1481
641984,4335,7001,-598,961,7132,2133
642015,6965,6996,-284,1064,6969,3800
642033,7016,6963,-117,1145,6962,4916
642049,6996,6960,-167,1137,6958,5377
642066,6986,6976,-380,1141,6961,5049
642082,7050,7055,-661,1103,7000,4378
642099,6882,7024,-840,1039,7125,3590
642131,3464,2208,-1127,825,4045,1552
642148,1378,-346,-1132,729,620,663
642165,403,-2151,-1140,595,-2810,263
642183,839,-24,-980,616,-1251,551
642199,1631,2522,-897,723,1616,918
642216,2404,4434,-866,830,4300,1277
642248,3463,6518,-615,947,6793,1755
642265,6216,7050,-372,1026,7012,3193
642281,7126,7002,-146,1138,7023,4578
642299,7026,6966,-121,1140,6958,5209
642316,6965,6961,-200,1163,6959,5465
642332,6982,6977,-494,1135,6963,4851
642364,6999,7319,-757,1104,7283,3848
642381,5766,2911,-1159,916,4833,2732
642399,1073,-3556,-1252,626,-3243,534
642415,-1653,-6648,-1391,247,-7277,-636
642431,-2566,-6969,-1404,180,-7184,-1028
642448,-6029,-6988,-1718,54,-6989,-2733
642481,-7025,-6938,-1914,-92,-6937,-5009
642498,-6955,-6937,-1574,-65,-6937,-4865
642515,-6938,-6938,-1516,-65,-6936,-4087
642531,-6938,-6938,-1539,-62,-6936,-4051
642548,-6938,-6938,-1699,-68,-6936,-4511
642565,-6938,-6938,-1692,-68,-6936,-4867
642597,-6938,-6938,-1477,-67,-6936,-4475
642615,-6938,-6938,-1590,-61,-6936,-4360
642633,-6938,-6938,-1653,-84,-6936,-4523
642651,-6938,-6938,-1827,-90,-6936,-5319
642667,-6938,-6938,-1985,-94,-6936,-6176
642684,-6938,-6938,-1845,-86,-6936,-6293
642713,-7057,-7158,-1371,-83,-6975,-4658
642731,-7015,-7108,-1165,-57,-7166,-3565
642748,-6185,-3069,-826,154,-6820,-2601
642764,-2919,3574,-689,561,-1865,-1015
642781,-266,6567,-547,868,5722,720
642798,3054,7170,-536,991,7259,1578
642829,4902,6969,-499,1013,6981,2448
642847,6143,6959,-417,1051,6959,3063
642863,6810,6957,-368,1090,6958,3572
642881,6978,6957,-352,1135,6961,4025
642897,6957,6957,-425,1131,6961,4139
642914,6964,6958,-413,1139,6960,4216
642946,6653,6998,-693,1073,6964,3382
642962,6031,6941,-777,1024,6978,2859
642979,4895,6383,-880,988,7016,2289
642997,3704,5397,-938,950,6800,1721
643014,3165,5008,-980,910,6321,1509
643031,2391,3393,-1007,864,4820,1141
643062,86,-1614,-1187,691,-1297,56
643080,-1221,-4445,-1245,477,-5166,-508
643097,-2160,-5430,-1239,300,-6416,-914
643114,-1521,-3541,-1060,396,-5172,-533
643130,-311,14,-924,579,-1917,52
643147,1190,4555,-823,828,4552,726
643178,2990,5699,-738,916,6283,1561
643196,3941,6398,-670,970,6932,2019
643213,4720,6872,-605,994,7008,2386
643230,5717,6991,-536,1020,6971,2864
643247,6371,6975,-516,1040,6957,3180
643264,6572,6957,-550,1047,6957,3326
643297,6688,6981,-503,1076,6957,3530
643314,6875,7017,-492,1066,6983,3815
643330,6624,7032,-679,1065,7020,3412
643347,5217,6038,-900,999,6994,2476
643364,3545,4442,-1002,926,5937,1698
643381,2331,2384,-1005,800,4009,1151
643412,2850,5728,-687,908,6262,1521
643429,4613,6956,-520,996,7067,2424
643446,6366,7053,-518,1042,7031,3275
643462,6423,7019,-585,1044,6980,3279
643480,6193,7001,-642,1048,7043,3125
643496,5472,6579,-767,1012,7229,2725
643528,2621,2274,-1055,848,3539,1322
643545,484,-3158,-1346,423,-3497,331
643563,-2327,-7230,-1557,152,-7265,-1640
643579,-5688,-7284,-1615,57,-7215,-2576
643596,-5441,-7181,-1323,64,-7050,-2316
643612,-3180,-5206,-947,178,-6776,-1126
643644,282,751,-908,611,-3006,390
643662,-847,-2786,-1167,369,-5383,-187
643679,-2441,-6198,-1287,193,-7147,-961
643695,-3469,-6150,-1248,170,-6976,-1410
643712,-3469,-5908,-1198,151,-6981,-1375
643729,-3320,-5938,-1181,181,-7158,-1298
643761,-1649,-2173,-850,346,-5460,-418
643779,1056,4712,-644,698,1691,838
643794,2718,6118,-633,893,6050,1550
643812,2681,5371,-931,847,5325,1451
643828,89,-1040,-1140,653,-2613,166
643845,-2069,-5568,-1300,316,-6843,-836
643877,-5685,-7110,-1543,74,-7027,-2544
643895,-6672,-7005,-1581,17,-6939,-3054
643911,-6965,-7024,-1568,-40,-6948,-3401
643928,-6853,-7134,-1246,12,-7010,-3263
643945,-5344,-5008,-955,147,-7134,-2146
643961,-2309,-2194,-882,327,-5730,-745
643993,1163,5392,-694,789,3925,826
644010,2955,6712,-569,954,6932,1663
644028,4218,7040,-528,991,7214,2251
644045,4869,7018,-586,1009,7025,2535
644061,4938,6867,-667,997,6965,2532
644077,4660,6515,-727,978,7001,2368
644110,3103,5164,-912,924,6229,1570
644128,2070,3584,-998,858,4726,1072
644144,920,826,-1079,755,1589,543
644161,-343,-2238,-1172,610,-2943,-41
644177,-1723,-4981,-1258,375,-5914,-651
644195,-2672,-5631,-1169,251,-6767,-1064
644227,-348,433,-855,573,-2124,131
644244,1345,4641,-737,790,3659,915
644261,2391,5663,-744,903,5946,1356
644277,2019,4533,-903,878,4882,1106
644294,888,1581,-1037,781,1618,553
644311,-889,-3191,-1252,402,-4235,-275
644342,-3035,-5912,-1265,225,-7009,-1217
644360,-3140,-5365,-1136,203,-6711,-1209
644376,-1576,-2249,-935,394,-4785,-432
644394,-731,-309,-943,563,-3135,-96
644410,-866,-1138,-1015,539,-3636,-186
644427,-1008,-1526,-1033,529,-3828,-255
644459,-368,363,-949,622,-1686,73
644476,-497,-392,-1032,628,-2270,-28
644493,-1771,-4010,-1191,405,-5499,-643
644510,-2844,-5566,-1264,257,-6667,-1155
644527,-3586,-6087,-1298,178,-7034,-1503
644544,-3955,-6003,-1252,158,-6992,-1653
644576,-2794,-4181,-1049,291,-6004,-1049
644594,-2181,-3257,-957,434,-5371,-773
644610,-558,1034,-900,623,-1456,-1
644626,138,2500,-883,711,1053,290
644643,220,2159,-945,742,1291,299
644660,240,2053,-942,741,1341,302
644691,-538,-569,-1084,659,-1542,-94
644709,-1107,-1808,-1088,559,-3263,-352
644725,-670,-40,-948,603,-1576,-81
644742,3062,6883,-541,943,7254,1725
644759,4795,7277,-484,994,7243,2547
644777,5051,7133,-633,1018,7207,2594
644808,2189,3850,-1028,890,5187,1114
644826,514,-40,-1161,775,1261,322
644843,-1505,-4677,-1350,333,-5121,-600
644860,-3064,-6616,-1363,177,-7331,-1299
644875,-3452,-5903,-1199,180,-6975,-1378
644892,-1961,-2995,-952,379,-4996,-614
644924,80,1722,-909,713,517,276
644942,62,1279,-958,719,386,239
644959,94,1247,-957,729,549,253
644975,467,2326,-903,760,1854,464
644993,1063,3704,-904,837,3855,733
645008,309,847,-1077,763,925,293
645041,-2365,-5504,-1314,342,-6365,-962
645057,-4272,-6627,-1377,138,-7177,-1838
645074,-4635,-6531,-1334,120,-6996,-1985
645091,-4815,-6533,-1307,121,-6935,-2058
645109,-4793,-6478,-1270,121,-6955,-2031
645125,-4727,-6417,-1218,129,-6966,-2000
645157,-3219,-3940,-1049,307,-5809,-1246
645175,-2440,-3291,-1065,389,-5234,-909
645191,-2512,-3721,-1117,380,-5354,-966
645209,-3230,-5001,-1235,286,-6262,-1338
645225,-4018,-6020,-1317,146,-7075,-1720
645242,-4449,-6200,-1129,174,-7266,-1878
645274,952,5599,-669,826,5132,719
645291,2441,6366,-656,950,6757,1375
645308,3522,6816,-606,976,7286,1892
645325,3748,6528,-667,978,6976,1955
645341,3913,6603,-678,979,6968,2033
645358,3806,6438,-736,974,6986,1967
645375,3765,6472,-794,965,7015,1938
645407,2557,4208,-995,899,5577,1308
645424,1053,2152,-1050,834,3890,590
645441,-61,-715,-1169,738,242,63
645459,-1596,-4301,-1258,511,-4695,-631
645475,-2319,-4863,-1224,357,-5655,-923
645491,-2347,-4569,-1114,361,-5666,-900
645523,-987,743,-920,662,-553,-216
645540,496,2966,-879,779,2708,447
645557,640,2828,-927,810,3119,472
645575,1039,3778,-876,822,4219,673
645591,1554,4392,-862,866,4948,908
645607,1844,4754,-833,879,5427,1054
645639,2498,5458,-806,927,6255,1368
645656,3244,6172,-706,965,6999,1736
645674,3333,5694,-813,953,6619,1725
645691,2188,4198,-964,900,5307,1141
645707,1562,3251,-963,842,4371,858
645724,1251,2728,-971,820,3893,740
645756,219,-24,-1065,744,244,265
645774,-937,-3128,-1259,450,-3882,-293
645790,-2657,-6846,-1481,177,-7128,-1101
645808,-6066,-7151,-1632,49,-7065,-2766
645824,-6674,-7090,-1534,5,-7002,-3046
645840,-5886,-6792,-1265,46,-6978,-2494
645872,-2973,-4106,-1019,280,-6155,-1108
645890,-2117,-2400,-981,396,-5182,-730
645907,-1701,-1548,-978,521,-4400,-557
645923,-1092,1417,-885,656,-550,-269
645940,898,4676,-776,826,4262,658
645956,1854,5360,-740,898,5672,1095
645989,2009,4831,-882,908,5552,1092
646005,1340,3783,-966,847,4580,753
646023,838,2585,-1014,816,3494,522
646040,335,1362,-1015,751,1806,292
646056,25,-167,-1077,698,-381,8
646073,-726,-1169,-1074,634,-1933,-185
646105,-1165,-1760,-1045,531,-3281,-352
646123,-658,-262,-992,638,-1479,-113
646138,-649,-360,-1025,651,-1446,-127
646155,-801,-823,-1043,635,-1998,-204
646173,-639,588,-968,679,-414,-109
646190,102,1796,-921,740,1231,249
646221,890,3333,-918,816,3699,580
646238,593,2299,-978,804,2740,434
646255,1165,4048,-847,833,4413,750
646273,2190,5486,-761,906,6024,1241
646289,3277,6474,-670,955,7056,1765
646306,3881,6647,-724,978,7174,2037
646338,1743,1235,-1105,814,2677,493
646356,-486,-1987,-1173,680,-1829,-127
646372,-1377,-3728,-1180,510,-4560,-504
646389,-2182,-4945,-1230,354,-5892,-878
646406,-2605,-5161,-1215,293,-6231,-1055
646423,-2968,-5429,-1229,240,-6496,-1225
646454,-3726,-5811,-1244,181,-6895,-1561
646471,-3806,-5551,-1190,194,-6837,-1531
646488,-3019,-4489,-1067,277,-6158,-1167
646505,-2028,-2438,-976,413,-4847,-694
646522,-812,774,-883,611,-1736,-116
646539,47,2547,-878,719,1257,238
646570,327,2366,-957,777,2113,315
646588,256,2171,-952,779,2001,311
646605,395,2998,-892,797,3068,473
646622,1283,4329,-858,846,4673,780
646639,1304,4035,-913,846,4564,763
646655,1165,3714,-919,840,4310,687
646688,1334,3968,-904,843,4528,765
646705,1727,4560,-830,867,5126,985
646722,2326,5189,-795,902,5853,1281
646738,2714,5478,-773,923,6242,1472
646755,2875,5643,-796,941,6448,1535
646772,2807,5543,-818,938,6413,1500
646803,1510,3191,-989,849,4355,843
646820,661,1076,-1054,781,2068,445
646838,212,267,-996,734,496,277
646855,1111,3237,-842,799,3591,765
646871,1971,4731,-812,883,5263,1153
646888,2426,5298,-769,917,5967,1373
646920,2019,4347,-887,883,5110,1134
646937,2100,4638,-850,886,5341,1194
646955,2513,5087,-829,910,5767,1402
646971,2355,4399,-875,879,5208,1310
646988,1884,3849,-925,860,4715,1064
647004,1000,1601,-1022,801,2421,627
647036,-1404,-4317,-1212,466,-5333,-493
647053,-1998,-4742,-1164,343,-5782,-720
647070,-1817,-4020,-1096,382,-5338,-600
647086,-1521,-3073,-1055,436,-4702,-448
647107,-1291,-2563,-1071,472,-4450,-348
647120,-1399,-2695,-1051,450,-4642,-409
647153,-358,504,-898,614,-1447,114
647170,1068,4209,-764,787,3486,792
647187,2050,5338,-761,890,5653,1220
647204,1855,4479,-880,875,4932,1073
647221,836,1908,-1057,742,2241,555
647236,-237,-818,-1080,635,-1463,70
647269,-409,-311,-978,625,-1791,54
647286,22,903,-941,691,-314,256
647303,269,1436,-943,721,581,352
647320,239,1187,-978,725,417,322
647337,-74,254,-1015,687,-716,177
647354,-513,-985,-1086,574,-2262,-38
647386,-1449,-2663,-1054,464,-4445,-459
