TIME,AF3,F7,F3,F4,F8,AF4
569379,-735,698,864,1315,-949,450
569395,-825,636,813,1276,-951,425
569427,-906,637,828,1283,-948,422
569444,-970,648,833,1295,-952,421
569462,-1014,652,846,1294,-948,405
569477,-1056,623,824,1286,-956,398
569495,-1086,656,868,1312,-953,387
569512,-1104,653,883,1330,-951,384
569544,-1183,607,890,1371,-955,377
569561,-1263,569,858,1327,-950,366
569577,-1284,582,890,1335,-959,361
569595,-1291,632,930,1371,-954,370
569612,-1381,555,881,1308,-953,333
569628,-1400,556,876,1319,-953,329
569660,-1522,516,849,1303,-949,298
569678,-1538,515,865,1316,-961,298
569694,-1483,509,885,1330,-954,291
569711,-1650,477,820,1285,-952,299
569728,-1649,483,848,1302,-951,297
569745,-1701,486,869,1296,-947,289
569776,-1687,525,878,1332,-949,279
569794,-1698,509,910,1351,-954,281
569811,-1752,451,868,1330,-948,252
569828,-1833,448,873,1315,-950,235
569844,-1888,408,828,1296,-948,222
569861,-1896,447,870,1318,-952,214
569894,-1928,455,901,1347,-948,204
569911,-1979,420,871,1328,-954,185
569929,-1994,419,891,1350,-954,183
569944,-2013,387,880,1335,-950,168
569960,-2079,362,846,1320,-949,151
569977,-2179,325,807,1254,-959,126
570010,-2279,301,781,1268,-959,108
570027,-2277,319,816,1299,-946,100
570043,-2283,306,822,1295,-956,88
570060,-2341,280,769,1249,-952,68
570077,-2418,259,769,1257,-951,42
570093,-2415,272,786,1283,-958,33
570126,-2485,255,762,1299,-959,17
570144,-2537,241,755,1302,-961,4
570160,-2538,234,749,1282,-955,-5
570177,-2560,249,776,1292,-954,-18
570194,-2534,238,778,1307,-950,-22
570210,-2586,199,746,1286,-963,-30
570242,-2707,184,699,1254,-958,-76
570259,-2667,208,725,1285,-959,-76
570277,-2704,206,716,1278,-953,-94
570293,-2632,255,783,1345,-953,-87
570310,-2641,228,748,1329,-959,-95
570326,-2656,202,735,1338,-953,-113
570359,-2737,154,713,1307,-954,-152
570376,-2815,95,662,1263,-958,-166
570393,-2800,131,684,1276,-957,-176
570410,-2784,152,684,1291,-957,-180
570427,-2823,126,682,1298,-956,-204
570443,-2800,154,676,1300,-956,-203
570475,-2743,180,709,1322,-954,-210
570492,-2639,253,793,1386,-956,-204
570510,-2640,241,778,1388,-956,-209
570526,-2644,213,768,1347,-958,-226
570543,-2718,158,702,1305,-959,-239
570559,-2695,176,701,1286,-949,-257
570591,-2671,171,700,1306,-956,-262
570608,-2643,211,690,1323,-949,-269
570625,-2614,235,702,1332,-959,-276
570641,-2595,245,726,1343,-958,-290
570659,-2542,259,743,1358,-952,-291
570676,-2582,210,681,1310,-950,-304
570708,-2625,152,651,1300,-960,-336
570725,-2656,151,643,1275,-944,-342
570742,-2633,162,662,1282,-955,-346
570759,-2525,214,692,1312,-950,-339
570775,-2513,233,696,1327,-952,-336
570792,-2505,242,695,1346,-948,-342
570824,-2465,264,707,1355,-956,-349
570841,-2499,206,656,1299,-945,-378
570857,-2427,302,742,1370,-955,-357
570875,-2473,245,672,1314,-949,-387
570891,-2408,274,702,1353,-947,-380
570908,-2442,254,679,1326,-956,-394
570940,-2446,211,654,1306,-954,-406
570957,-2419,224,675,1346,-946,-414
570974,-2435,166,634,1289,-959,-426
570992,-2436,172,664,1334,-946,-443
571008,-2397,195,646,1316,-960,-426
571024,-2296,276,673,1362,-949,-410
571057,-2202,290,709,1393,-957,-393
571074,-2176,265,673,1388,-948,-396
571092,-2207,213,668,1366,-948,-419
571107,-2205,239,655,1364,-946,-415
571124,-2277,175,602,1300,-952,-449
571141,-2289,184,598,1283,-952,-452
571174,-2337,147,536,1221,-946,-500
571191,-2357,149,531,1234,-950,-504
571208,-2303,168,532,1261,-941,-510
571225,-2279,165,531,1258,-950,-503
571241,-2294,135,519,1267,-950,-514
571257,-2306,142,509,1258,-949,-524
571289,-2244,187,509,1284,-949,-525
571307,-2265,131,451,1234,-953,-540
571324,-2199,162,486,1273,-946,-540
571341,-2207,161,462,1258,-947,-539
571357,-2177,150,484,1266,-945,-537
571374,-2184,161,439,1247,-946,-543
571406,-2055,233,496,1310,-946,-528
571424,-1983,256,524,1339,-946,-519
571439,-1980,230,469,1309,-946,-526
571456,-1974,223,471,1304,-946,-533
571474,-1976,216,449,1291,-946,-541
571491,-1956,199,471,1292,-945,-549
571522,-1877,278,460,1323,-947,-527
571540,-1767,323,524,1366,-947,-513
571556,-1740,332,508,1361,-945,-508
571573,-1688,350,546,1367,-944,-507
571590,-1671,343,524,1355,-947,-520
571607,-1571,399,512,1419,-949,-494
571639,-1486,445,571,1432,-946,-484
571656,-1467,412,516,1393,-947,-487
571673,-1515,343,426,1325,-948,-501
571690,-1491,369,433,1363,-943,-499
571707,-1419,374,443,1371,-945,-476
571723,-1266,474,534,1453,-946,-458
571755,-1150,519,574,1509,-945,-425
571773,-1089,530,564,1474,-947,-417
571790,-1085,495,573,1489,-949,-403
571806,-1035,528,568,1498,-943,-404
571823,-1035,488,517,1464,-949,-411
571839,-1036,472,524,1455,-932,-413
571872,-954,478,548,1482,-937,-383
571890,-848,556,586,1554,-941,-368
571906,-745,636,624,1626,-950,-335
571923,-656,674,609,1644,-939,-312
571939,-637,651,562,1603,-946,-322
571956,-598,659,564,1588,-934,-322
571990,-620,582,497,1554,-935,-319
572006,-594,580,455,1551,-937,-316
572023,-574,596,492,1592,-937,-297
572039,-480,677,569,1620,-938,-274
572056,-420,738,591,1649,-936,-253
572074,-321,753,595,1667,-945,-229
572105,-206,760,616,1695,-940,-220
572121,-210,748,615,1690,-933,-213
572138,-201,731,621,1701,-938,-216
572155,-175,729,634,1710,-937,-199
572172,-160,738,611,1664,-938,-195
572189,-108,771,658,1705,-941,-175
572222,-51,772,665,1721,-934,-166
572239,24,805,693,1765,-932,-140
572255,64,823,699,1765,-927,-136
572272,101,869,735,1784,-927,-121
572289,104,890,775,1822,-928,-107
572305,162,953,799,1858,-928,-86
572337,191,937,798,1871,-928,-67
572354,202,912,779,1854,-928,-70
572372,157,865,726,1817,-928,-72
572388,155,879,732,1826,-928,-57
572405,104,828,701,1773,-927,-66
572421,72,811,682,1753,-927,-68
572454,37,819,684,1760,-934,-49
572471,117,830,695,1774,-935,-49
572487,159,862,721,1813,-933,-26
572504,168,835,705,1808,-933,-29
572522,161,848,708,1795,-936,-23
572538,164,864,724,1777,-932,-16
572571,131,801,650,1714,-935,-33
572587,98,824,670,1749,-933,-9
572604,124,853,705,1760,-933,-11
572621,215,931,776,1832,-934,20
572638,230,945,807,1844,-934,20
572654,208,922,793,1807,-934,18
572686,182,919,789,1799,-935,26
572704,208,861,762,1793,-931,42
572720,120,826,743,1755,-934,20
572738,107,830,750,1759,-934,14
572754,66,799,727,1730,-936,17
572771,119,865,761,1763,-933,34
572803,206,973,848,1845,-927,75
572821,142,903,804,1802,-928,51
572837,191,919,806,1827,-929,66
572854,183,925,807,1836,-932,79
572871,173,919,806,1843,-929,79
572887,171,917,806,1832,-930,78
572919,161,886,799,1798,-925,83
572937,142,896,801,1794,-939,88
572953,130,889,864,1827,-924,80
572970,155,941,869,1840,-931,86
572987,162,961,892,1860,-931,109
573004,229,1006,952,1914,-935,124
573036,235,1045,986,1948,-926,143
573052,190,1001,978,1926,-926,130
573070,213,1068,1039,1954,-927,146
573087,188,1031,1016,1938,-926,133
573103,184,1003,1005,1932,-920,137
573119,120,977,987,1889,-926,126
573152,16,932,950,1863,-924,112
573169,54,952,988,1881,-927,139
573186,106,1012,1038,1945,-930,144
573203,51,988,1013,1926,-929,139
573220,-5,890,982,1889,-917,139
573236,-57,899,1002,1892,-928,133
573269,-35,933,1042,1906,-927,139
573286,-48,923,1053,1904,-925,140
573303,-110,890,1005,1866,-911,132
573319,-102,904,1032,1883,-925,143
573336,-106,911,1041,1923,-919,161
573353,-154,889,1037,1887,-926,134
573384,-68,947,1113,1951,-921,150
573401,-34,999,1147,1981,-916,163
573418,-116,940,1103,1950,-917,155
573436,-123,923,1131,1949,-918,162
573453,-194,871,1071,1904,-917,131
573469,-225,864,1025,1868,-921,137
573501,-234,911,1089,1894,-916,122
573518,-178,933,1098,1926,-920,129
573535,-178,944,1116,1946,-918,146
573552,-168,967,1137,1972,-916,154
573569,-173,954,1144,1969,-920,155
573585,-161,948,1161,1972,-917,159
573618,-249,888,1115,1950,-925,138
573636,-286,840,1070,1896,-920,121
573652,-369,801,1023,1842,-919,100
573668,-347,869,1035,1891,-908,102
573685,-357,864,1036,1880,-909,105
573702,-369,846,1022,1871,-920,108
573734,-323,911,1069,1930,-919,118
573752,-287,907,1052,1937,-916,112
573769,-285,908,1048,1964,-916,117
573785,-323,889,1021,1932,-916,99
573801,-273,967,1038,1971,-919,113
573819,-350,899,999,1902,-920,100
573850,-392,812,923,1855,-919,74
573869,-407,784,883,1839,-915,68
573886,-456,727,857,1822,-917,45
573901,-477,755,870,1819,-918,38
573918,-524,721,818,1788,-919,27
573934,-426,816,905,1838,-918,43
573967,-420,780,901,1844,-919,41
573983,-392,783,907,1859,-917,40
574001,-431,736,860,1844,-913,29
574017,-507,640,797,1782,-917,5
574035,-532,636,804,1777,-920,-8
574051,-504,668,819,1793,-919,-7
574083,-492,688,834,1829,-919,3
574101,-462,704,862,1832,-918,-5
574116,-477,661,831,1817,-918,-16
574133,-405,706,860,1878,-918,0
574151,-410,651,813,1851,-914,-6
574167,-436,615,805,1819,-919,-15
574200,-360,604,788,1836,-917,1
574216,-345,631,785,1821,-917,9
574234,-360,614,742,1799,-919,4
574250,-320,659,741,1822,-914,0
574267,-299,665,807,1856,-910,-4
574284,-212,678,801,1862,-919,2
574315,-222,667,762,1867,-919,7
574334,-193,688,739,1872,-913,9
574349,-199,646,706,1825,-918,-3
574366,-202,611,678,1811,-915,-4
574383,-184,612,655,1787,-916,-20
574400,-176,579,613,1751,-915,-18
574432,-74,625,592,1756,-919,-2
574449,-60,660,607,1765,-915,5
574466,-18,672,589,1751,-916,6
574484,46,660,595,1769,-919,16
574500,139,687,599,1787,-911,31
574517,204,731,637,1821,-920,47
574549,350,759,610,1798,-914,74
574565,359,709,567,1756,-911,71
574583,374,697,508,1705,-918,70
574600,458,698,519,1697,-917,89
574617,455,646,482,1638,-912,75
574633,575,699,488,1685,-910,97
574665,753,770,498,1691,-904,138
574682,882,824,541,1705,-908,160
574699,968,873,561,1708,-912,179
574716,1034,884,560,1701,-909,189
574732,1032,828,477,1659,-909,189
574749,1028,799,413,1604,-906,189
574782,1173,851,399,1590,-907,216
574800,1280,901,480,1638,-908,242
574816,1365,944,488,1639,-906,252
574832,1486,974,508,1667,-904,291
574849,1569,992,508,1665,-903,308
574866,1580,949,483,1630,-902,308
574898,1587,850,349,1542,-904,317
574915,1505,770,264,1458,-900,294
574932,1555,814,272,1442,-901,307
574949,1584,816,278,1418,-901,304
574965,1757,903,327,1458,-901,335
574983,1827,938,305,1440,-901,353
575014,1961,979,347,1498,-901,402
575032,2018,1000,326,1515,-901,419
575049,2011,963,287,1440,-901,415
575065,2021,925,279,1410,-900,413
575082,2002,870,223,1356,-903,409
575099,2070,945,265,1393,-905,426
575130,2050,896,188,1318,-905,418
575148,2058,890,197,1322,-899,437
575165,2107,906,215,1322,-904,455
575181,2184,1004,257,1364,-899,484
575198,2224,1083,318,1400,-901,492
575215,2366,1139,357,1449,-901,529
575247,2353,1127,303,1396,-899,540
575264,2344,1086,250,1350,-907,537
575281,2329,1067,211,1330,-893,542
575299,2243,980,78,1216,-905,537
575315,2168,906,68,1210,-900,524
575331,2217,987,112,1222,-904,529
575363,2356,1104,237,1306,-894,583
575380,2315,1049,196,1262,-892,579
575397,2282,1021,190,1230,-889,573
575415,2156,895,89,1117,-897,556
575431,2135,875,79,1083,-898,558
575448,2157,913,96,1089,-903,556
575480,2199,945,195,1118,-886,582
575497,2216,961,196,1118,-896,591
575514,2211,964,216,1099,-897,587
575531,2311,1048,264,1153,-893,625
575547,2360,1103,284,1188,-893,636
575564,2345,1093,277,1174,-887,649
575597,2284,1063,307,1142,-884,641
575612,2205,1020,292,1088,-883,628
575629,2161,990,291,1074,-890,625
575646,2127,1005,292,1072,-893,628
575663,2139,1029,303,1107,-884,640
575680,2081,1012,282,1074,-889,623
575713,2043,1014,325,1041,-882,619
575731,2075,1059,388,1091,-885,644
575746,1990,1004,348,1055,-888,622
575764,1908,950,308,1013,-889,602
575780,1855,901,303,998,-872,599
575797,1844,903,293,981,-880,599
575829,1825,950,388,1010,-880,604
575847,1833,988,469,1060,-884,610
575862,1828,1001,470,1065,-884,612
575879,1751,960,452,1040,-887,608
575896,1671,934,447,1029,-885,592
575914,1613,925,444,1009,-886,597
575945,1585,946,464,993,-885,587
575962,1532,932,462,995,-873,583
575980,1518,971,511,1007,-888,581
575996,1502,977,517,1014,-881,582
576013,1486,962,544,1039,-881,586
576029,1443,1001,519,1017,-891,583
576062,1417,998,583,1042,-874,579
576080,1335,962,542,1003,-894,565
576096,1283,944,531,1010,-879,561
576113,1211,917,498,956,-889,526
576130,1163,918,521,973,-882,538
576146,1061,878,495,901,-878,523
576178,977,834,495,904,-882,501
576196,979,868,513,929,-885,502
576213,974,867,523,916,-878,500
576229,881,852,491,883,-887,482
576246,859,844,492,876,-888,478
576262,846,876,527,908,-888,485
576294,690,786,449,826,-890,457
576311,650,779,468,856,-880,464
576328,692,834,534,913,-884,469
576345,643,816,509,892,-885,453
576362,679,862,598,922,-876,451
576380,633,865,597,925,-883,435
576411,560,800,529,879,-882,414
576427,530,790,528,879,-881,406
576445,458,772,515,856,-880,398
576462,463,786,525,845,-876,382
576478,432,756,507,832,-889,370
576495,395,731,503,788,-886,357
576561,287,713,488,790,-878,332
576578,251,695,490,760,-882,325
576595,261,708,503,789,-885,318
576612,268,743,532,803,-885,325
576629,263,746,553,861,-882,322
576660,184,700,529,824,-886,314
576693,219,698,541,834,-882,293
576711,294,750,603,888,-881,314
576728,208,698,541,845,-883,290
576745,200,708,544,854,-876,272
576761,230,725,630,896,-885,272
576778,263,748,665,899,-881,273
576810,172,692,565,844,-886,260
576827,110,661,558,822,-880,251
576844,99,665,566,825,-886,248
576861,76,675,578,826,-883,245
576877,68,687,613,840,-879,236
576895,-25,634,564,785,-886,210
576927,-100,612,543,774,-879,196
576944,-62,647,572,798,-890,188
576961,-55,642,593,804,-882,189
576979,-102,619,567,797,-879,179
576994,-108,608,552,804,-883,164
577012,-116,643,570,792,-880,163
577043,-141,595,532,749,-888,153
577060,-274,495,469,669,-876,108
577077,-272,520,491,686,-882,104
577094,-259,535,513,697,-885,110
577110,-216,610,558,742,-876,114
577127,-105,707,633,805,-887,132
577159,-95,709,669,837,-880,132
577177,-235,526,549,740,-884,105
577193,-304,533,527,703,-876,78
577210,-383,495,477,675,-875,56
577227,-442,439,436,643,-885,40
577244,-549,409,382,567,-881,10
577275,-464,569,541,648,-885,27
577294,-404,604,621,715,-876,32
577310,-383,584,593,681,-892,37
577327,-363,614,638,741,-882,54
577343,-431,527,563,683,-879,28
577360,-464,545,542,692,-878,17
577392,-516,510,553,669,-879,-8
577409,-560,481,534,646,-886,-6
577427,-562,494,560,667,-880,-13
577444,-515,488,549,670,-884,0
577460,-567,493,525,659,-874,-27
577476,-581,505,558,650,-883,-23
577509,-626,478,544,642,-881,-40
577526,-668,459,521,625,-885,-59
577543,-723,397,479,581,-882,-76
577559,-734,426,499,617,-877,-71
577577,-721,439,510,616,-876,-69
577592,-667,484,543,631,-881,-78
577624,-775,419,505,586,-874,-110
577642,-810,417,501,589,-886,-119
577658,-868,377,486,568,-879,-141
577675,-855,400,503,589,-875,-133
577693,-817,432,558,642,-883,-130
577709,-781,460,579,632,-875,-128
577726,-786,465,587,635,-875,-123
577758,-863,438,559,607,-889,-156
577776,-948,379,509,526,-873,-192
577793,-968,374,531,541,-874,-202
577809,-978,395,538,563,-872,-200
577826,-1008,379,518,555,-877,-193
577841,-1038,339,487,503,-881,-204
577874,-1051,375,531,495,-887,-235
577891,-1027,395,563,538,-877,-229
577909,-1044,395,555,546,-878,-233
577925,-1060,364,542,540,-881,-243
577941,-1199,274,466,496,-873,-269
577959,-1253,237,437,442,-879,-289
577990,-1296,221,441,443,-877,-319
578007,-1333,220,470,453,-874,-329
578025,-1340,252,474,461,-885,-330
578042,-1342,273,488,485,-872,-341
578059,-1343,259,483,486,-883,-337
578075,-1337,283,498,486,-874,-341
578107,-1378,233,488,451,-875,-359
578124,-1438,229,486,441,-875,-382
578141,-1503,204,447,426,-885,-396
578158,-1561,154,439,373,-874,-415
578174,-1560,170,425,393,-875,-417
578191,-1562,154,417,381,-874,-425
578208,-1513,188,449,403,-877,-418
578240,-1492,265,534,445,-874,-411
578257,-1517,259,530,421,-874,-428
578274,-1557,231,505,403,-874,-435
578291,-1619,143,458,347,-878,-459
578308,-1666,141,422,320,-871,-482
578324,-1708,111,399,328,-875,-484
578357,-1681,165,426,295,-871,-492
578374,-1647,166,425,257,-871,-487
578391,-1660,178,472,307,-878,-487
578408,-1666,195,498,301,-871,-484
578425,-1715,164,448,193,-871,-504
578441,-1713,150,455,170,-873,-509
578457,-1639,210,499,196,-872,-487
578491,-1725,145,453,159,-872,-506
578507,-1705,146,437,169,-872,-500
578524,-1715,168,437,154,-872,-514
578541,-1700,208,437,172,-872,-515
578557,-1756,162,382,128,-872,-525
578574,-1756,162,361,143,-872,-525
578606,-1696,171,409,160,-874,-498
578626,-1713,165,398,145,-872,-503
578640,-1755,121,344,130,-872,-516
578657,-1805,89,328,125,-871,-518
578673,-1828,74,308,89,-873,-540
578690,-1805,120,334,96,-874,-530
578722,-1769,86,351,132,-873,-515
578739,-1718,125,357,131,-874,-499
578757,-1755,112,334,146,-874,-502
578773,-1770,107,356,170,-875,-495
578790,-1769,97,331,163,-875,-487
578807,-1837,55,293,125,-875,-509
578839,-1877,3,220,83,-875,-510
578856,-1851,22,242,89,-874,-507
578873,-1858,45,253,85,-872,-490
578890,-1844,48,247,85,-871,-502
578906,-1789,94,259,126,-872,-484
578923,-1770,89,274,132,-875,-484
578955,-1728,120,265,132,-874,-472
578973,-1727,120,273,138,-870,-463
578989,-1748,100,246,119,-875,-463
579006,-1747,79,244,124,-872,-466
579022,-1783,100,236,115,-872,-470
579039,-1790,86,220,93,-873,-471
579072,-1754,114,219,106,-872,-459
579089,-1714,149,256,157,-871,-439
579107,-1650,185,284,180,-869,-432
579123,-1622,205,318,230,-871,-420
579139,-1632,147,278,184,-871,-412
579155,-1656,126,298,197,-872,-414
579188,-1736,91,230,138,-870,-442
579206,-1746,52,208,143,-870,-435
579222,-1750,62,221,147,-869,-440
579239,-1690,86,245,169,-869,-423
579256,-1650,140,250,200,-869,-418
579273,-1611,216,316,254,-869,-415
579304,-1530,226,339,305,-869,-402
579322,-1520,227,345,298,-869,-406
579339,-1580,144,253,249,-869,-416
579355,-1594,109,248,233,-870,-416
579372,-1535,144,273,268,-868,-409
579389,-1534,150,303,302,-871,-406
579420,-1460,288,382,359,-867,-389
579437,-1436,273,368,344,-872,-388
579454,-1415,297,405,377,-869,-382
579472,-1465,264,376,369,-869,-383
579488,-1454,237,386,388,-869,-383
579505,-1504,206,294,318,-866,-386
579537,-1617,173,269,306,-861,-404
579554,-1688,132,220,251,-867,-426
579571,-1747,96,176,233,-872,-442
579588,-1851,32,91,157,-872,-462
579604,-1845,30,98,171,-873,-453
579621,-1859,14,77,146,-870,-450
579653,-1754,139,180,228,-864,-424
579670,-1784,114,152,190,-864,-453
579687,-1838,28,119,150,-868,-452
579704,-1788,64,130,157,-873,-457
579721,-1824,15,99,124,-868,-462
579738,-1802,63,142,148,-863,-453
579770,-1763,114,164,168,-865,-444
579787,-1695,172,212,226,-872,-424
579804,-1628,266,281,288,-868,-413
579821,-1544,304,342,329,-856,-397
579837,-1491,303,361,356,-862,-388
579854,-1498,260,350,326,-865,-381
579886,-1593,159,255,266,-863,-410
579903,-1525,228,329,313,-860,-395
579920,-1528,220,301,312,-864,-399
579936,-1461,261,370,348,-867,-392
579953,-1407,318,406,378,-858,-386
579970,-1347,357,442,429,-863,-371
580003,-1365,326,427,435,-858,-359
580020,-1341,312,429,445,-856,-362
580038,-1342,351,464,474,-864,-358
580054,-1356,342,467,454,-853,-363
580071,-1376,314,430,413,-860,-375
580086,-1459,247,406,378,-862,-395
580119,-1500,200,349,343,-856,-409
580136,-1501,189,364,365,-867,-408
580154,-1526,204,351,371,-842,-410
580170,-1548,207,372,400,-850,-416
580187,-1496,236,411,423,-850,-410
580204,-1520,206,364,399,-854,-416
580236,-1515,235,371,406,-857,-424
580253,-1520,236,363,412,-859,-418
580270,-1513,228,349,429,-859,-420
580287,-1520,231,359,428,-851,-415
580303,-1486,258,391,457,-857,-425
580320,-1529,254,399,455,-848,-435
580351,-1466,302,413,491,-854,-412
580369,-1486,280,413,485,-855,-415
580385,-1515,255,376,467,-849,-422
580403,-1478,292,406,510,-859,-417
580420,-1562,230,349,455,-846,-424
580437,-1588,212,313,433,-849,-431
580468,-1697,134,356,444,-848,-458
580486,-1251,538,631,709,-849,-375
580502,-1635,137,311,427,-845,-447
580519,-1642,162,322,427,-843,-457
580536,-1450,361,486,575,-854,-425
580553,-1580,235,394,500,-846,-435
580585,-1741,150,299,419,-844,-479
580602,-1834,-47,139,269,-842,-501
580619,-2082,-126,75,205,-844,-556
580635,-2008,-41,140,271,-841,-544
580652,-2152,-178,-3,132,-841,-585
580669,-2273,-240,-98,62,-844,-607
580701,-2347,-254,-141,19,-840,-636
580719,-2431,-335,-233,-66,-840,-670
580735,-2441,-277,-211,-60,-840,-669
580752,-2477,-313,-254,-93,-840,-694
580769,-2489,-302,-229,-104,-840,-696
580786,-2408,-236,-176,-39,-840,-689
580817,-2359,-174,-169,-16,-840,-684
580834,-2281,-75,-109,47,-842,-679
580852,-2295,-61,-84,59,-841,-689
580868,-2238,-35,-61,112,-842,-681
580884,-2163,29,-16,157,-843,-676
580901,-2175,24,-6,153,-842,-684
580934,-2132,123,74,249,-842,-672
580952,-2062,174,132,289,-846,-672
580967,-2090,182,111,287,-845,-672
580985,-2068,202,134,303,-842,-668
581001,-2122,83,52,222,-842,-697
581018,-2227,0,14,188,-842,-711
581051,-2322,-50,-18,134,-843,-743
581068,-2422,-128,-74,67,-841,-766
581085,-2384,-86,-39,119,-841,-757
581101,-2279,9,37,204,-840,-744
581118,-2149,203,207,376,-840,-713
581134,-2061,267,236,413,-841,-692
581167,-1625,515,478,610,-843,-638
581185,-1572,538,524,653,-842,-627
581201,-1372,688,666,802,-842,-589
581218,-1343,681,674,808,-843,-586
581234,-1266,691,733,860,-842,-570
581252,-1160,754,795,935,-847,-553
581269,-1197,684,765,896,-842,-568
581287,-1126,705,820,944,-843,-563
581303,-1086,679,851,985,-841,-556
581320,-1004,720,884,1036,-842,-532
581336,-1050,619,858,1013,-844,-539
581353,-1113,565,793,949,-841,-554
581370,-1173,542,766,935,-840,-560
581400,-1133,559,814,993,-842,-555
581417,-1059,606,843,1019,-842,-554
581434,-1120,569,809,974,-841,-562
581450,-1121,564,825,989,-840,-572
581467,-1156,544,811,976,-840,-574
581484,-1168,504,791,954,-840,-582
581515,-1170,475,776,957,-842,-587
581533,-1186,434,746,926,-844,-595
581550,-1186,440,731,923,-845,-606
581566,-1181,473,754,945,-843,-600
581584,-1196,450,763,965,-843,-595
581599,-1194,456,738,964,-843,-598
581632,-1287,384,681,898,-837,-622
581650,-1325,355,696,901,-837,-632
581665,-1361,314,654,853,-838,-639
581683,-1451,305,640,820,-838,-663
581699,-1454,305,624,821,-837,-668
581716,-1488,274,607,790,-838,-682
581749,-1542,219,562,764,-841,-689
581766,-1590,176,510,725,-838,-708
581782,-1637,155,485,696,-838,-720
581799,-1606,228,532,753,-838,-714
581816,-1644,205,516,712,-838,-729
581833,-1550,298,583,785,-840,-704
581864,-1476,344,617,848,-841,-695
581882,-1434,371,683,889,-840,-696
581900,-1312,502,813,1007,-840,-671
581916,-1210,545,837,1036,-840,-649
581932,-1219,516,797,997,-840,-645
581949,-978,696,947,1129,-845,-608
581982,-810,865,1062,1193,-843,-586
581999,-800,883,1092,1230,-843,-589
582016,-714,920,1161,1299,-843,-572
582032,-776,850,1081,1275,-843,-584
582050,-860,685,1020,1201,-840,-615
582066,-968,662,1026,1214,-840,-618
582099,-1013,634,1011,1216,-841,-625
582115,-1118,537,937,1122,-843,-656
582132,-1208,454,892,1111,-838,-650
582149,-1354,341,786,1022,-843,-690
582166,-1374,360,790,1030,-839,-681
582183,-1399,312,762,1004,-841,-703
582215,-1533,278,811,976,-840,-723
582232,-1675,178,727,896,-840,-737
582249,-1836,48,614,782,-840,-782
582265,-2006,-103,493,675,-838,-809
582282,-2208,-262,326,556,-839,-851
582299,-2383,-423,142,364,-840,-887
582330,-2650,-566,-21,223,-840,-966
582348,-2966,-711,-164,80,-840,-1014
582365,-3101,-798,-240,9,-840,-1038
582381,-3170,-813,-284,-32,-840,-1055
582398,-3175,-784,-292,-48,-840,-1058
582414,-3242,-796,-342,-70,-840,-1075
582447,-3326,-814,-453,-158,-840,-1093
582464,-3487,-901,-514,-197,-841,-1129
582481,-3574,-919,-580,-274,-835,-1154
582498,-3669,-984,-652,-334,-840,-1180
582515,-3692,-971,-667,-356,-832,-1189
582531,-3706,-949,-693,-363,-827,-1200
582563,-3590,-802,-626,-270,-835,-1188
582581,-3548,-798,-600,-259,-835,-1188
582597,-3492,-755,-549,-231,-821,-1187
582614,-3474,-719,-525,-198,-845,-1184
582631,-3495,-750,-576,-222,-824,-1180
582647,-3512,-805,-607,-227,-829,-1191
582680,-3481,-779,-629,-238,-843,-1201
582698,-3411,-653,-523,-127,-813,-1191
582714,-3292,-539,-446,-50,-826,-1164
582731,-3176,-499,-418,-46,-833,-1166
582747,-3125,-477,-393,-13,-828,-1150
582764,-3085,-441,-360,7,-831,-1161
582796,-2877,-360,-267,118,-837,-1118
582813,-2851,-390,-276,85,-828,-1124
582830,-2727,-333,-65,128,-829,-1105
582847,-2734,-338,-29,155,-837,-1105
582863,-2671,-333,-5,186,-833,-1104
582880,-2790,-418,-88,110,-826,-1130
582912,-2616,-271,70,253,-835,-1110
582929,-2392,-77,219,396,-827,-1077
582947,-2220,25,376,561,-839,-1051
582964,-2012,228,505,692,-831,-990
582980,-1867,386,615,803,-841,-955
582997,-1651,443,678,858,-832,-940
583029,-1497,464,772,941,-841,-909
583047,-1423,476,820,1008,-837,-907
583063,-1359,505,862,1046,-837,-888
583080,-1383,447,828,1035,-837,-907
583096,-1339,470,814,1018,-840,-887
583114,-1364,433,862,1060,-839,-892
583146,-1130,599,982,1159,-839,-848
583163,-1025,612,1023,1195,-842,-842
583180,-970,620,1050,1253,-822,-824
583197,-913,630,1047,1279,-843,-812
583213,-937,586,1038,1269,-836,-818
583230,-939,588,1050,1296,-837,-808
583261,-915,541,1053,1291,-839,-804
583279,-906,540,1045,1280,-834,-819
583296,-858,562,1072,1315,-831,-797
583313,-826,558,1077,1335,-842,-791
583330,-793,581,1076,1346,-825,-792
583346,-750,607,1147,1406,-836,-782
583378,-621,659,1133,1399,-829,-753
583395,-737,515,1047,1320,-823,-781
583412,-804,479,1003,1286,-825,-797
583429,-894,407,940,1238,-832,-813
583446,-698,588,1098,1370,-826,-779
583463,-565,696,1203,1487,-832,-742
583495,-370,825,1317,1603,-824,-700
583512,-309,826,1303,1608,-819,-701
583528,-308,833,1303,1622,-826,-697
583544,-327,784,1279,1597,-821,-699
583562,-299,781,1291,1598,-827,-694
583579,-274,767,1306,1609,-813,-692
583611,-227,777,1306,1634,-815,-682
583628,-197,814,1321,1606,-817,-678
583645,-255,771,1276,1562,-818,-705
583661,-215,822,1315,1602,-818,-687
583677,-113,880,1384,1658,-818,-668
583695,-149,853,1338,1631,-829,-684
583728,-78,854,1376,1650,-820,-673
583744,-218,717,1277,1543,-816,-704
583761,-904,164,836,1102,-811,-839
583778,-585,499,1065,1343,-817,-785
583796,-224,839,1357,1612,-828,-714
583812,24,1029,1524,1787,-826,-655
583843,429,1336,1841,2090,-829,-569
583862,592,1469,1990,2196,-833,-539
583878,654,1508,2078,2308,-838,-525
583894,754,1458,2056,2313,-825,-515
583911,677,1408,2068,2334,-829,-520
583927,668,1385,2074,2365,-832,-526
583960,536,1254,2005,2328,-840,-555
583978,449,1200,1944,2298,-831,-566
583995,431,1171,1903,2288,-837,-581
584010,318,1079,1844,2237,-824,-599
584027,361,1124,1906,2303,-820,-589
584044,403,1135,1898,2321,-816,-588
584076,165,917,1709,2219,-833,-627
584094,99,841,1650,2176,-821,-651
584111,142,915,1672,2209,-826,-645
584128,164,942,1659,2209,-815,-653
584144,167,908,1648,2202,-818,-656
584160,221,927,1690,2239,-816,-659
584192,142,773,1520,2190,-821,-693
584209,139,828,1535,2234,-823,-675
584226,84,769,1457,2164,-814,-710
584243,53,743,1441,2134,-814,-711
584261,77,741,1393,2120,-811,-717
584276,82,760,1385,2108,-819,-714
584309,109,732,1298,2056,-823,-729
584326,84,677,1187,1992,-811,-750
584344,-31,556,1055,1886,-819,-775
584360,-27,547,960,1857,-812,-779
584377,31,583,944,1836,-820,-784
584394,123,610,904,1813,-811,-786
584426,277,605,828,1808,-814,-782
584443,422,671,853,1836,-818,-771
584459,524,698,839,1844,-812,-772
584477,643,752,828,1864,-818,-747
584493,774,822,863,1888,-817,-740
584510,871,845,845,1894,-816,-732
584543,1204,918,853,1957,-826,-696
584559,1255,967,833,1962,-824,-695
584576,1591,1097,922,2058,-813,-658
584596,1785,1182,960,2125,-821,-621
584610,1899,1147,913,2095,-809,-619
584626,1985,1134,878,2044,-828,-623
584658,2177,1156,813,2015,-813,-589
584675,2252,1105,726,1972,-813,-584
584692,2274,1011,653,1884,-812,-599
584709,2358,982,613,1850,-812,-587
584726,2551,1050,675,1885,-812,-565
584743,2727,1145,691,1909,-812,-541
584775,3055,1221,665,1916,-812,-487
584793,3178,1272,671,1890,-812,-473
584809,3231,1149,592,1812,-812,-464
584825,3254,1134,511,1768,-812,-465
584842,3516,1211,541,1837,-812,-434
584859,3689,1282,558,1878,-812,-400
584876,3830,1312,540,1858,-812,-386
584907,4077,1424,540,1852,-812,-329
584924,4231,1440,556,1872,-812,-301
584942,4346,1492,568,1876,-812,-290
584958,4512,1541,542,1869,-812,-233
584975,4618,1551,500,1836,-812,-226
584992,4716,1577,544,1868,-812,-198
585024,4754,1433,351,1695,-812,-194
585042,4808,1442,308,1665,-812,-180
585058,4835,1406,270,1622,-812,-161
585075,4822,1393,178,1561,-812,-145
585091,4779,1294,105,1467,-810,-152
585109,4808,1359,141,1502,-809,-109
585140,4980,1429,137,1485,-811,-69
585158,5133,1504,195,1529,-809,-38
585174,5259,1599,251,1568,-808,10
585192,5259,1673,284,1610,-808,29
585208,5211,1676,273,1591,-808,65
585225,5153,1712,297,1594,-808,79
585258,5142,1597,214,1496,-808,94
585275,5236,1578,199,1478,-808,122
585291,5384,1603,198,1493,-808,138
585308,5383,1695,228,1556,-808,183
585325,5358,1727,219,1607,-808,200
585341,5348,1899,314,1685,-808,257
585373,5275,1730,199,1531,-807,266
585391,5365,1801,291,1578,-806,293
585408,5501,1831,333,1607,-808,318
585424,5558,1814,360,1604,-809,336
585442,5451,1796,376,1614,-808,346
585458,5409,1838,325,1568,-808,374
585490,5233,1709,312,1516,-807,392
585508,5190,1675,294,1474,-809,390
585524,5294,1761,386,1513,-809,418
585541,5393,1781,417,1494,-795,439
585558,5397,1784,439,1494,-800,445
585574,5298,1786,440,1515,-796,462
585607,5156,1814,470,1533,-793,486
585624,5166,1841,496,1537,-804,518
585640,5124,1773,448,1461,-809,507
585657,5198,1773,467,1494,-789,524
585674,5348,1862,574,1578,-798,555
585691,5286,1863,582,1550,-783,568
585722,5059,1807,597,1532,-789,580
585740,4973,1756,514,1480,-783,579
585757,4929,1696,474,1426,-793,578
585774,4850,1634,392,1359,-790,569
585790,4812,1599,357,1315,-796,565
585806,4737,1578,348,1296,-779,568
585839,4641,1564,349,1301,-780,591
585857,4493,1482,210,1181,-784,573
585873,4361,1383,196,1124,-796,561
585890,4204,1356,146,1085,-790,558
585906,4094,1320,127,1038,-779,546
585923,4084,1373,165,1068,-786,561
585955,3905,1315,112,1006,-785,553
585973,3900,1363,173,1040,-786,575
585990,3870,1440,259,1118,-785,580
586007,3905,1473,319,1138,-782,606
586023,3883,1513,312,1169,-782,618
586040,3798,1459,263,1166,-786,617
586072,3536,1268,148,1077,-785,594
586090,3401,1216,91,1022,-782,587
586105,3250,1165,69,974,-783,581
586123,3198,1108,23,941,-781,588
586139,3038,1086,27,936,-787,565
586156,2951,1099,19,929,-783,568
586188,2953,1216,147,1036,-783,580
586205,2987,1278,234,1094,-785,601
586222,2973,1310,285,1123,-780,611
586240,2928,1297,280,1122,-780,611
586256,2892,1342,385,1213,-779,607
586273,2968,1409,420,1250,-780,639
586304,2879,1429,468,1285,-780,648
586321,2799,1433,458,1274,-780,639
586339,2787,1424,499,1309,-779,646
586356,2663,1355,484,1243,-779,636
586371,2642,1384,508,1286,-782,636
586389,2481,1266,409,1197,-782,609
586420,2362,1324,498,1252,-783,615
586437,2337,1324,523,1254,-782,617
586455,2245,1264,465,1221,-782,608
586473,2172,1235,457,1209,-784,595
586490,2141,1231,512,1210,-781,607
586506,2113,1316,607,1287,-781,621
586538,2028,1347,651,1329,-780,614
586555,2044,1359,674,1333,-780,612
586571,2137,1473,781,1464,-785,651
586588,2119,1463,811,1471,-781,651
586605,2140,1485,853,1508,-780,661
586622,1974,1341,789,1426,-784,651
586655,1586,1048,532,1171,-781,584
586671,1244,928,425,1064,-782,534
586689,1235,1001,507,1121,-782,537
586705,1123,954,454,1063,-784,517
586722,1100,1000,509,1104,-781,521
586738,1031,987,507,1099,-784,526
586770,791,884,401,1003,-784,487
586788,700,867,392,997,-779,477
586804,640,887,419,995,-783,468
586821,463,793,338,924,-779,443
586838,421,818,347,946,-784,437
586854,403,821,360,942,-780,439
586886,356,860,392,971,-782,429
586904,271,831,414,943,-781,430
586921,254,881,438,978,-778,422
586937,182,854,448,986,-783,414
586954,174,897,489,1016,-781,424
586970,149,900,509,1038,-782,421
587003,30,867,508,1014,-783,408
587021,57,899,597,1077,-782,418
587037,69,988,648,1125,-784,411
587054,116,1042,720,1159,-781,420
587070,132,1078,755,1195,-785,426
587087,156,1103,784,1207,-782,419
587120,101,1121,799,1209,-782,420
587137,83,1115,799,1223,-782,417
587154,69,1125,836,1256,-783,415
587170,29,1105,790,1195,-781,412
587188,-107,960,732,1151,-784,375
587204,-345,864,664,1082,-785,352
587236,-606,670,535,942,-784,307
587253,-712,627,490,879,-775,288
587270,-813,584,426,834,-780,275
587286,-1064,408,292,674,-780,235
587304,-1266,223,93,526,-783,196
587320,-1431,178,61,488,-783,155
587352,-1607,148,19,445,-778,120
587369,-1686,125,-4,425,-783,103
587386,-1639,243,73,497,-782,118
587403,-1658,248,67,494,-783,114
587420,-1522,441,260,687,-782,143
587436,-1439,585,354,760,-788,155
587469,-1324,660,465,832,-784,168
587486,-1370,625,464,811,-784,160
587503,-1370,630,506,857,-786,163
587520,-1377,659,534,881,-784,162
587536,-1366,698,567,899,-784,164
587553,-1483,606,504,868,-781,141
587585,-1504,632,544,901,-780,133
587602,-1583,567,517,857,-783,115
587619,-1532,637,523,892,-785,120
587636,-1561,604,532,889,-781,112
587652,-1682,519,448,794,-786,92
587669,-1770,446,348,776,-776,85
587701,-1956,370,323,681,-782,42
587719,-1932,443,390,745,-782,39
587735,-1839,505,463,799,-783,43
587752,-1806,561,505,859,-783,59
587768,-1768,599,544,888,-778,66
587786,-1790,677,532,889,-782,58
587818,-1772,707,587,889,-780,49
587836,-1799,683,547,845,-783,43
587852,-1852,651,566,852,-781,29
587868,-1870,613,561,843,-781,22
587885,-1874,612,555,844,-785,23
587901,-1855,640,573,861,-775,24
587934,-1703,786,718,973,-782,48
587951,-1676,799,756,991,-782,54
587968,-1731,760,734,956,-783,34
587985,-1910,590,590,818,-782,-7
588002,-2029,479,504,763,-782,-29
588019,-2145,413,432,703,-783,-55
588050,-2248,352,399,641,-782,-77
588067,-2220,380,423,649,-779,-78
588085,-2287,344,412,674,-781,-86
588101,-2270,344,393,658,-782,-82
588117,-2349,308,351,631,-780,-109
588135,-2293,398,425,715,-781,-100
588168,-2205,451,503,742,-782,-93
588184,-2307,380,438,673,-782,-122
588200,-2280,412,475,686,-782,-115
588218,-2258,437,477,712,-783,-119
588234,-2254,440,476,716,-780,-128
588251,-2331,305,357,636,-782,-160
588284,-2636,105,212,476,-779,-217
588301,-2666,126,226,486,-780,-231
588318,-2607,213,270,525,-781,-223
588335,-2616,224,252,518,-783,-237
588351,-2614,228,328,583,-778,-242
588368,-2511,351,409,641,-780,-228
588399,-2213,542,596,794,-776,-179
588417,-2186,525,593,829,-780,-171
588434,-2170,538,611,816,-783,-182
588450,-2198,493,590,838,-781,-174
588468,-2194,485,568,818,-781,-186
588483,-2235,446,566,827,-779,-194
588516,-2064,651,737,990,-781,-156
588533,-2018,623,729,1026,-779,-153
588550,-2076,570,697,986,-781,-166
588567,-2116,543,695,969,-781,-175
588584,-2105,533,703,962,-780,-184
588601,-2066,581,717,988,-780,-179
588632,-2172,480,644,902,-779,-206
588649,-2175,434,635,910,-777,-222
588666,-2318,316,522,824,-779,-259
588683,-2362,296,516,821,-778,-260
588700,-2446,217,435,764,-778,-275
588717,-2539,173,401,706,-778,-296
588749,-2774,-11,182,511,-778,-368
588766,-2807,-31,170,486,-778,-391
588783,-2912,-91,110,396,-778,-419
588800,-2943,-93,96,385,-778,-435
588817,-3063,-166,0,299,-778,-466
588833,-2999,-94,56,383,-779,-461
588865,-2877,40,145,501,-778,-435
588883,-2832,42,171,504,-776,-447
588899,-2840,70,165,530,-781,-444
588916,-2753,136,214,561,-778,-441
588933,-2699,158,252,588,-779,-441
588948,-2698,171,254,584,-780,-449
588981,-2534,300,353,696,-777,-421
588998,-2461,367,415,739,-777,-420
589016,-2406,408,499,816,-776,-418
589032,-2381,389,474,796,-777,-416
589049,-2390,364,472,803,-777,-419
589067,-2435,317,426,775,-777,-435
589098,-2457,288,452,788,-776,-450
589115,-2510,227,417,751,-776,-462
589132,-2494,242,448,779,-777,-465
589149,-2461,268,491,817,-777,-467
589165,-2453,261,466,812,-777,-487
589182,-2457,259,454,818,-777,-485
589214,-2593,145,400,790,-778,-517
589231,-2680,53,361,733,-779,-532
589249,-2694,41,389,757,-778,-550
589266,-2753,8,338,736,-778,-552
589282,-2776,-7,299,714,-778,-580
589299,-2837,-80,258,686,-778,-595
589330,-2915,-107,280,715,-778,-618
589347,-2900,-97,295,788,-778,-616
589365,-2876,-73,315,864,-781,-629
589381,-2837,-65,308,921,-776,-617
589399,-2894,-109,240,881,-781,-646
589414,-2940,-179,169,875,-778,-652
589447,-3118,-347,60,792,-779,-714
589464,-3106,-314,79,837,-778,-720
589482,-3201,-381,8,782,-780,-749
589498,-3166,-357,40,841,-779,-742
589515,-3164,-362,32,847,-779,-748
589532,-3185,-406,-20,866,-777,-770
589564,-3107,-365,-15,897,-779,-763
589581,-3054,-327,-19,932,-778,-767
589598,-3077,-376,-45,915,-778,-783
589615,-3092,-403,-109,885,-780,-795
589631,-3100,-417,-129,917,-777,-798
589648,-3101,-439,-198,862,-778,-811
589681,-3022,-396,-202,928,-778,-826
589697,-2914,-372,-186,988,-778,-804
589715,-2790,-373,-171,1012,-778,-799
589731,-2749,-401,-194,1019,-779,-797
589748,-2660,-389,-208,1044,-781,-789
589764,-2574,-351,-188,1059,-778,-777
589781,-2579,-425,-298,1008,-778,-803
589813,-2460,-451,-356,1004,-777,-811
589831,-2370,-421,-350,1037,-777,-797
589846,-2169,-383,-336,1076,-777,-795
589864,-1963,-288,-292,1145,-777,-757
589881,-1815,-241,-271,1172,-778,-743
589897,-1714,-247,-312,1187,-777,-734
589929,-1461,-262,-376,1186,-777,-727
589946,-1352,-253,-448,1159,-776,-717
589962,-1267,-259,-489,1137,-777,-722
589979,-1037,-223,-514,1176,-777,-690
589997,-915,-228,-599,1150,-777,-683
590014,-734,-164,-728,1181,-777,-669
590031,-540,-113,-1139,1217,-777,-640
590062,-238,-98,-1222,1178,-777,-618
590080,-34,-51,-1132,1237,-777,-588
590096,193,86,-1062,1288,-777,-537
590113,435,37,-1082,1249,-777,-522
590129,588,74,-1069,1246,-777,-510
590147,729,52,-1077,1226,-777,-495
590178,1036,108,-1032,1219,-777,-444
590196,1213,169,-979,1233,-777,-421
590212,1396,195,-915,1257,-777,-395
590230,1736,301,-822,1315,-777,-335
590247,1894,314,-812,1320,-777,-309
590263,2061,383,-766,1331,-777,-273
590295,2196,282,-835,1172,-776,-260
590313,2299,229,-845,1148,-776,-237
590329,2453,286,-827,1147,-777,-209
590346,2615,379,-799,1149,-776,-182
590362,2857,414,-787,1146,-778,-126
590379,3092,556,-692,1214,-771,-78
590411,3478,672,-590,1249,-785,-1
590429,3569,655,-620,1241,-760,22
590446,3642,645,-637,1155,-770,42
590462,3749,634,-636,1137,-760,70
590479,3825,668,-610,1113,-778,82
590496,4054,738,-582,1126,-775,140
590528,4314,842,-506,1148,-762,210
590544,4365,819,-535,1122,-760,237
590562,4492,883,-501,1114,-759,270
590580,4619,952,-445,1153,-759,308
590596,4677,976,-403,1156,-763,354
590612,4765,992,-395,1141,-767,374
590644,5028,1088,-352,1081,-755,442
590662,5098,1058,-353,1053,-750,456
590679,5074,1068,-348,1045,-753,485
590695,5076,1077,-347,1014,-752,520
590711,5103,1162,-295,1050,-750,558
590729,5165,1201,-263,1044,-751,588
590760,5318,1211,-250,1010,-750,642
590777,5472,1199,-251,991,-750,658
590795,5419,1239,-225,1002,-746,686
590811,5340,1246,-196,996,-747,710
590829,5331,1268,-154,989,-748,733
590845,5267,1209,-216,917,-750,741
590877,5302,1217,-205,918,-740,767
590895,5510,1280,-170,937,-740,817
590911,5565,1348,-109,1022,-740,861
590928,5462,1345,-74,1011,-740,877
590945,5309,1270,-157,917,-740,877
590962,5250,1249,-182,908,-740,883
590994,5285,1333,-134,942,-740,926
591011,5341,1363,-136,957,-740,944
591028,5453,1302,-135,937,-740,958
591044,5376,1269,-170,896,-741,957
591061,5234,1257,-270,879,-741,965
591078,5170,1263,-510,908,-731,983
591110,5188,1382,-569,991,-734,1042
591128,5233,1415,-526,1003,-739,1066
591143,5279,1374,-536,975,-737,1058
591161,5356,1372,-511,980,-737,1069
591177,5255,1380,-507,970,-737,1081
591196,5192,1350,-523,961,-737,1088
591226,5028,1400,-463,973,-724,1115
591243,4989,1370,-467,941,-740,1116
591261,5014,1395,-432,958,-737,1115
591277,5052,1399,-387,950,-726,1129
591294,5019,1444,-375,967,-725,1134
591311,4944,1407,-352,969,-726,1147
591343,4734,1346,-404,924,-722,1144
591360,4673,1324,-366,926,-727,1156
591376,4647,1319,-364,930,-728,1151
591394,4558,1295,-357,922,-727,1152
591411,4556,1357,-316,953,-721,1167
591426,4542,1391,-242,980,-725,1175
591459,4417,1398,-236,1012,-724,1192
591477,4335,1385,-224,1017,-719,1204
591493,4264,1385,-206,1022,-722,1206
591509,4222,1382,-153,1027,-722,1212
591527,4161,1388,-117,1039,-724,1215
591544,4043,1349,-140,1001,-721,1221
591575,3798,1276,-135,992,-719,1217
591592,3777,1322,-82,1014,-724,1234
591610,3713,1317,-70,1020,-722,1225
591626,3670,1340,18,1060,-722,1238
591643,3663,1360,96,1083,-723,1239
591659,3569,1351,113,1103,-723,1248
591691,3341,1295,104,1101,-719,1238
591709,3229,1236,81,1106,-722,1241
591725,3116,1213,61,1083,-721,1225
591743,3030,1176,37,1022,-721,1213
591760,2999,1226,145,1148,-721,1227
591776,3007,1287,162,1167,-721,1245
591793,2924,1289,216,1178,-721,1241
591824,2662,1206,212,1116,-721,1229
591841,2518,1142,169,1084,-721,1212
591858,2502,1186,254,1132,-721,1220
591876,2418,1169,233,1113,-722,1200
591893,2346,1125,307,1132,-721,1199
591910,2341,1152,316,1123,-721,1185
591925,2294,1175,373,1170,-721,1187
591957,2193,1208,449,1186,-721,1195
591975,2168,1219,473,1209,-719,1210
591991,2060,1186,458,1196,-720,1191
592009,1940,1149,462,1181,-720,1176
592026,1841,1158,505,1194,-725,1165
592041,1806,1172,506,1200,-720,1159
592076,1610,1129,435,1145,-718,1136
592093,1521,1131,477,1215,-721,1133
592109,1480,1106,470,1230,-723,1131
592125,1399,1107,501,1219,-725,1122
592142,1327,1062,497,1188,-724,1111
592159,1319,1136,580,1259,-724,1122
592190,1123,1064,504,1205,-720,1093
592208,954,1002,463,1135,-724,1061
592224,865,997,443,1139,-724,1050
592242,742,929,365,1092,-725,1020
592259,642,892,304,1089,-730,1013
592275,522,895,256,1068,-723,992
592292,513,932,305,1173,-723,991
592324,412,974,224,1144,-725,992
592341,312,930,218,1142,-726,976
592357,257,946,231,1157,-727,968
592375,182,910,200,1132,-723,949
592391,65,859,143,1084,-727,928
592408,-47,818,93,1036,-727,897
592440,-288,726,55,972,-743,853
592457,-360,716,62,972,-721,840
592475,-368,763,123,1009,-740,839
592491,-401,763,144,1026,-727,835
592508,-430,758,180,1030,-734,829
592525,-514,718,158,985,-747,800
592556,-784,619,109,881,-741,749
592574,-906,515,19,809,-746,729
592591,-1041,494,17,800,-732,692
592607,-1106,483,-4,812,-750,688
592624,-1135,523,42,832,-740,678
592641,-1131,571,117,861,-742,675
592672,-1248,542,122,843,-742,637
592691,-1275,536,166,867,-744,629
592707,-1298,530,145,840,-744,607
592723,-1424,438,80,773,-743,593
592739,-1552,408,60,743,-746,563
592757,-1596,411,74,745,-746,543
592789,-1702,407,147,711,-746,495
592807,-1718,436,199,741,-746,496
592823,-1736,452,244,745,-746,484
592840,-1787,413,278,751,-746,462
592856,-1795,434,291,757,-746,455
592873,-1818,440,310,734,-746,443
592906,-1857,493,365,780,-746,422
592923,-1870,489,409,784,-746,413
592940,-1889,492,410,817,-746,402
592957,-1940,469,438,814,-746,385
592973,-1947,503,471,824,-746,386
592990,-1958,537,499,830,-746,381
593022,-1944,572,566,916,-746,368
593039,-1980,581,581,916,-746,356
593055,-2085,522,527,885,-746,340
593072,-2096,523,550,889,-746,334
593090,-2166,473,509,850,-746,314
593106,-2211,415,492,838,-746,314
593139,-2267,470,570,885,-746,297
593156,-2184,545,646,976,-746,305
593173,-2226,537,673,973,-746,292
593189,-2252,522,682,957,-746,280
593206,-2285,495,670,946,-746,267
593223,-2389,418,593,870,-746,245
593254,-2513,312,552,810,-746,213
593272,-2586,309,572,809,-746,183
593289,-2583,338,599,822,-746,174
593305,-2530,413,684,895,-746,188
593323,-2572,377,673,879,-746,180
593339,-2562,399,721,900,-746,170
593372,-2644,343,662,829,-746,146
593389,-2733,275,689,833,-746,128
593405,-2773,274,721,820,-746,104
593423,-2755,267,775,871,-746,102
593439,-2765,300,821,888,-746,99
593455,-2803,282,821,884,-746,84
593488,-2800,318,879,901,-747,74
593506,-2780,317,862,906,-744,62
593522,-2819,366,930,958,-746,67
593538,-2791,361,962,980,-746,55
593556,-2771,373,972,998,-746,56
593572,-2879,275,905,930,-746,22
593604,-3019,227,823,849,-747,-25
593621,-3045,245,860,838,-744,-41
593638,-2971,329,938,931,-746,-22
593654,-2976,309,916,933,-746,-33
593672,-2959,344,967,974,-746,-23
593688,-2961,342,960,975,-744,-41
593720,-3041,265,875,899,-746,-83
593737,-3065,240,843,887,-747,-95
593754,-3107,223,808,866,-746,-108
593772,-3150,171,777,848,-746,-124
593788,-3158,196,762,850,-746,-137
593805,-3161,203,739,885,-746,-138
593837,-3044,302,800,952,-746,-137
593853,-3074,263,749,949,-746,-149
593872,-3040,290,735,925,-746,-142
593888,-3114,180,638,868,-746,-173
593904,-3178,104,569,838,-746,-195
593921,-3221,100,527,830,-746,-214
593953,-3199,162,538,842,-745,-228
593971,-3138,204,549,851,-745,-234
593987,-3078,250,588,899,-744,-228
594004,-3066,240,557,905,-744,-241
594021,-3021,234,549,901,-744,-240
594038,-3074,200,516,892,-744,-251
594069,-3110,156,444,865,-744,-277
594087,-3083,182,450,868,-744,-291
594103,-3090,149,392,863,-744,-306
594121,-3039,169,385,867,-744,-307
594138,-3013,190,400,884,-744,-313
594153,-2987,196,411,901,-744,-311
594186,-2996,163,379,874,-744,-332
594204,-2933,201,418,926,-746,-325
594219,-2873,208,407,944,-744,-326
594236,-2907,204,352,898,-741,-344
594253,-2952,115,247,819,-741,-370
594270,-3050,73,145,766,-742,-387
594302,-3037,79,87,811,-748,-404
594319,-2949,175,37,842,-749,-400
594337,-2842,284,39,903,-748,-380
594352,-2827,243,-1,879,-748,-387
594370,-2809,248,-35,866,-748,-392
594386,-2851,187,-88,824,-748,-418
594419,-2802,228,-69,868,-748,-424
594436,-2786,210,-86,842,-748,-431
594453,-2755,225,-89,858,-748,-451
594470,-2674,267,-66,907,-748,-434
594487,-2597,318,-16,941,-748,-431
594503,-2557,309,26,953,-748,-425
594535,-2574,294,97,928,-748,-443
594553,-2626,266,108,918,-748,-465
594570,-2545,264,138,938,-748,-459
594585,-2484,302,204,972,-748,-451
594603,-2491,279,190,930,-748,-459
594620,-2424,315,234,959,-748,-458
594652,-2419,278,218,944,-748,-476
594668,-2352,311,267,952,-748,-483
594686,-2414,322,267,953,-749,-497
594702,-2323,333,289,976,-749,-481
594719,-2315,325,348,1009,-743,-488
594735,-2297,310,362,1000,-745,-490
594768,-2247,324,391,1006,-744,-500
594786,-2289,271,381,968,-750,-514
594802,-2259,289,378,918,-725,-518
594819,-2264,246,408,915,-746,-527
594835,-2317,192,378,870,-745,-550
594852,-2333,192,368,853,-742,-553
594869,-2322,198,372,870,-742,-561
594887,-2273,233,418,923,-736,-547
594903,-2244,225,411,912,-744,-556
594920,-2267,177,420,913,-746,-570
594937,-2249,165,422,929,-743,-580
594953,-2246,162,401,939,-744,-580
594970,-2237,169,392,916,-746,-584
595001,-2218,127,339,924,-741,-589
595019,-2183,161,363,970,-740,-597
595035,-2173,177,382,999,-740,-593
595052,-2226,116,316,938,-740,-616
595072,-2220,98,314,943,-745,-623
595085,-2250,90,293,943,-745,-633
595117,-2354,-20,217,903,-735,-669
595134,-2337,-22,200,905,-740,-684
595152,-2280,19,236,962,-738,-677
595167,-2215,28,259,985,-746,-678
595186,-2159,69,262,986,-745,-674
595202,-2147,44,223,983,-748,-679
595233,-2114,16,218,994,-745,-701
595250,-2121,-22,208,988,-733,-709
595267,-2089,-20,190,991,-737,-726
595284,-2146,-100,109,939,-747,-741
595300,-2106,-79,77,934,-728,-742
595317,-2145,-139,12,893,-727,-768
595349,-1929,11,105,976,-745,-754
595366,-1885,-42,26,943,-727,-759
595384,-1867,-33,17,948,-742,-766
595400,-1838,-49,14,926,-742,-765
595418,-1756,-4,22,945,-741,-770
595434,-1729,-26,14,940,-744,-770
595466,-1644,9,4,953,-741,-781
595484,-1537,16,-13,967,-743,-773
595500,-1471,37,-21,969,-729,-778
595518,-1408,30,-28,957,-745,-781
595534,-1377,23,-65,927,-737,-786
595551,-1353,42,-84,1030,-748,-789
595583,-1172,120,-8,1140,-737,-770
595601,-1066,166,-7,1124,-738,-761
595617,-1049,122,-24,1143,-746,-765
595633,-1028,95,-67,1105,-740,-778
595650,-1040,87,-98,1089,-728,-780
595667,-933,137,-52,1128,-733,-770
595699,-785,189,-18,1162,-742,-760
595715,-729,214,-1,1200,-738,-750
595732,-682,230,-9,1196,-739,-749
595750,-658,188,-52,1197,-741,-752
595767,-628,175,-55,1174,-730,-759
595783,-528,233,5,1194,-734,-746
595815,-462,183,-11,1177,-733,-762
595832,-440,185,-13,1148,-734,-751
595849,-349,239,36,1199,-742,-740
595866,-192,319,187,1308,-726,-710
595883,12,472,272,1375,-731,-677
595900,43,440,248,1342,-732,-672
595932,85,396,233,1320,-730,-674
595949,74,376,214,1287,-731,-675
595966,138,394,279,1309,-729,-668
595983,213,461,317,1366,-727,-649
596000,284,506,347,1357,-731,-636
596015,324,559,426,1414,-734,-616
596049,543,612,500,1486,-741,-591
596066,666,659,573,1539,-730,-563
596083,650,649,551,1517,-736,-573
596100,667,649,594,1517,-747,-557
596117,708,660,586,1495,-724,-561
596132,706,629,535,1463,-741,-568
596164,676,641,571,1475,-744,-557
596181,738,642,570,1482,-743,-552
596199,867,730,664,1548,-724,-518
596216,883,736,679,1551,-729,-509
596233,993,791,755,1589,-735,-489
596248,924,731,740,1554,-739,-497
596281,873,705,678,1531,-734,-493
596299,909,695,685,1533,-735,-487
596314,832,670,629,1478,-728,-496
596332,865,696,672,1507,-724,-485
596349,894,772,708,1511,-727,-480
596366,962,844,762,1561,-726,-460
596398,1047,840,835,1576,-723,-433
596415,1008,845,836,1581,-728,-441
596431,953,794,794,1559,-728,-450
596448,890,737,741,1525,-724,-452
596465,790,681,690,1460,-731,-471
596482,732,648,641,1416,-719,-477
596514,781,717,714,1440,-729,-462
596531,766,710,692,1410,-721,-462
596548,726,707,704,1418,-736,-458
596565,750,708,696,1448,-733,-449
596583,609,626,620,1362,-735,-466
596600,571,609,607,1323,-723,-462
596631,410,520,547,1203,-725,-470
596648,308,458,497,1115,-743,-489
596665,263,454,470,1104,-726,-506
596681,219,447,467,1098,-732,-505
596698,220,499,491,1116,-729,-498
596714,220,494,485,1133,-729,-499
596747,244,543,526,1166,-722,-483
596765,221,541,542,1133,-731,-475
596781,245,561,563,1136,-723,-482
596797,249,577,579,1140,-726,-471
596815,222,579,565,1138,-724,-486
596832,295,648,606,1194,-723,-464
596863,443,794,781,1300,-725,-425
596880,543,864,900,1387,-722,-396
596897,591,880,939,1420,-721,-378
596914,573,869,998,1410,-723,-388
596930,615,870,1007,1440,-720,-366
596948,581,846,997,1440,-724,-369
596979,592,911,1025,1428,-726,-359
596996,599,971,1049,1458,-720,-347
597013,700,1057,1170,1547,-724,-324
597030,700,1074,1174,1573,-724,-312
597047,751,1122,1301,1662,-723,-297
597064,768,1129,1329,1670,-720,-279
597096,841,1187,1386,1710,-721,-259
597114,781,1160,1347,1683,-721,-266
597130,730,1154,1365,1670,-721,-258
597147,624,1056,1332,1616,-722,-277
597164,511,957,1212,1501,-721,-290
597180,446,911,1240,1491,-720,-306
597212,388,924,1279,1497,-719,-302
597230,333,900,1221,1453,-718,-300
597247,286,885,1192,1426,-722,-312
597263,130,768,1113,1314,-718,-343
597279,44,711,1070,1302,-722,-349
597296,-73,630,997,1214,-723,-366
597328,-215,547,899,1122,-721,-396
597346,-328,503,870,1094,-717,-416
597362,-273,566,686,1127,-721,-404
597379,-196,642,641,1163,-718,-393
597396,-259,620,635,1151,-722,-394
597413,-312,574,601,1110,-720,-404
597445,-487,449,468,1000,-721,-432
597462,-595,381,438,967,-720,-450
597479,-734,321,358,897,-723,-484
597497,-798,282,354,881,-721,-486
597513,-852,300,313,810,-714,-504
597530,-843,329,352,835,-729,-504
597561,-818,373,383,840,-720,-506
597579,-834,371,407,857,-722,-496
597596,-843,394,436,896,-719,-497
597612,-829,451,468,914,-719,-483
597629,-830,444,489,936,-718,-480
597646,-908,361,446,883,-719,-482
597678,-967,339,432,842,-719,-495
597696,-986,338,393,828,-719,-507
597712,-1012,383,418,862,-719,-515
597730,-968,431,437,876,-718,-506
597746,-958,478,495,921,-719,-496
597762,-1022,420,462,891,-717,-502
597794,-1054,423,470,932,-717,-503
597811,-1050,409,501,921,-719,-498
597829,-1043,390,476,883,-718,-498
597845,-1035,409,513,897,-718,-505
597861,-999,401,492,852,-718,-508
597879,-1118,339,434,809,-720,-520
597911,-1188,346,441,784,-720,-537
597927,-1252,304,435,770,-721,-544
597945,-1335,273,410,756,-715,-551
597961,-1364,255,367,747,-720,-565
597978,-1361,268,360,746,-718,-567
597995,-1347,274,430,765,-715,-572
598027,-1425,259,404,710,-716,-576
598045,-1504,230,347,698,-719,-587
598061,-1525,214,341,680,-717,-591
598079,-1502,264,363,678,-716,-610
598095,-1507,228,326,642,-719,-607
598112,-1538,224,341,619,-716,-624
598143,-1627,175,304,607,-718,-626
598160,-1686,91,249,552,-720,-645
598177,-1808,39,159,471,-712,-660
598195,-1931,-69,64,400,-716,-686
598212,-2050,-149,-50,293,-715,-713
598228,-2089,-184,-50,263,-717,-728
598260,-2092,-111,-16,288,-713,-732
598277,-2140,-143,-55,276,-714,-742
598293,-2054,-60,22,338,-714,-716
598311,-2076,-85,-15,303,-714,-736
598328,-2110,-96,-49,272,-714,-745
598344,-2105,-103,-75,252,-713,-760
598376,-2114,-57,-57,267,-721,-765
598394,-2151,-51,-57,279,-714,-768
598410,-2146,-28,-47,287,-717,-770
598427,-2122,-14,-42,288,-714,-775
598444,-2051,71,16,336,-716,-760
598460,-2015,101,75,371,-714,-749
598492,-2007,107,107,361,-715,-753
598509,-2000,150,132,417,-718,-746
598526,-1991,123,148,433,-716,-747
598544,-1991,108,154,445,-713,-749
598560,-1916,151,195,454,-714,-744
598577,-1855,190,232,490,-714,-740
598609,-1624,367,411,633,-714,-697
598627,-1547,417,490,703,-714,-678
598643,-1535,427,518,753,-717,-664
598660,-1436,491,586,793,-713,-651
598677,-1478,420,545,741,-715,-662
598693,-1504,403,539,738,-713,-657
598759,-1231,618,750,942,-716,-612
598776,-1127,689,866,1026,-717,-584
598793,-1036,729,914,1087,-715,-576
598810,-1028,699,921,1098,-717,-577
598827,-1039,708,915,1077,-715,-576
598843,-1014,698,926,1096,-711,-576
598875,-1075,598,866,1071,-717,-580
598893,-1148,552,857,1028,-717,-596
598909,-1163,540,852,1017,-714,-589
598926,-1149,539,849,992,-714,-606
598943,-1175,502,849,992,-713,-602
598959,-1173,490,857,982,-716,-612
598991,-1155,511,857,1019,-714,-593
599008,-1167,494,846,1000,-714,-594
599026,-1216,420,814,1003,-713,-611
599043,-1211,473,830,1016,-716,-606
599059,-1231,448,811,1023,-707,-609
599076,-1199,498,826,1026,-714,-603
599108,-1067,609,940,1138,-716,-579
599126,-1020,640,1006,1217,-702,-566
599141,-973,664,1002,1230,-718,-558
599159,-970,650,1032,1250,-712,-554
599175,-1004,632,975,1226,-710,-555
599193,-1047,595,914,1179,-717,-565
599224,-1102,551,888,1155,-715,-570
599242,-1017,587,939,1219,-716,-558
599258,-986,644,977,1245,-701,-551
599276,-898,722,1081,1323,-715,-529
599292,-871,744,1088,1335,-715,-515
599309,-885,710,1043,1309,-712,-521
599341,-873,678,1042,1276,-701,-534
599358,-918,637,1039,1264,-718,-535
599375,-911,637,1021,1264,-709,-537
599392,-970,584,986,1214,-713,-542
599409,-1013,570,947,1184,-713,-550
599425,-1040,518,914,1151,-707,-550
599457,-1076,499,904,1133,-717,-560
599474,-1103,473,869,1114,-716,-560
599491,-1142,438,864,1119,-699,-560
599508,-1123,448,849,1107,-707,-563
599524,-1214,382,790,1038,-689,-583
599542,-1241,332,753,1005,-703,-589
599573,-1294,290,706,970,-697,-612
599590,-1353,333,716,988,-697,-612
599607,-1275,351,736,1008,-697,-603
599623,-1271,360,748,1006,-696,-596
599641,-1251,397,763,1023,-698,-586
599657,-1238,408,775,1036,-696,-582
599675,-1263,394,791,1042,-695,-582
599706,-1424,254,642,921,-692,-616
599724,-1465,236,593,877,-698,-627
599741,-1426,273,618,897,-694,-626
599757,-1435,265,608,903,-690,-626
599773,-1375,340,673,958,-696,-621
599791,-1301,431,780,1043,-694,-600
599823,-1178,495,807,1118,-700,-574
599840,-1265,447,767,1034,-695,-611
599857,-1273,411,754,1071,-699,-591
599873,-1302,394,746,1032,-690,-616
599891,-1317,388,723,1054,-711,-602
599907,-1363,359,685,1000,-693,-619
599939,-1412,351,674,990,-689,-620
599957,-1362,391,724,1005,-697,-621
599974,-1351,365,728,1045,-695,-598
599990,-1341,403,739,1007,-694,-619
600007,-1352,366,727,1048,-695,-607
600023,-1391,361,702,1007,-691,-623
600056,-1488,233,633,970,-691,-637
600073,-1513,245,640,992,-693,-628
600089,-1550,212,602,974,-692,-643
600106,-1562,231,594,957,-689,-645
600123,-1573,194,573,955,-692,-651
600140,-1559,257,605,982,-692,-646
600172,-1537,290,645,1040,-688,-637
600190,-1578,291,658,1058,-693,-649
600207,-1533,332,598,1012,-689,-629
600222,-1569,252,606,1045,-694,-646
600239,-1637,229,553,996,-692,-662
600256,-1664,189,533,993,-691,-665
600288,-1653,212,557,997,-692,-662
600305,-1710,204,540,964,-687,-679
600323,-1685,230,548,1005,-690,-664
600340,-1639,255,582,1045,-691,-668
600356,-1651,267,586,1045,-691,-680
600373,-1565,333,646,1129,-687,-641
600405,-1567,317,632,1132,-688,-645
600421,-1612,273,591,1116,-688,-664
600438,-1707,188,517,1036,-688,-672
600457,-1771,131,481,1033,-687,-695
600472,-1732,158,478,1053,-694,-688
600489,-1668,216,512,1095,-692,-684
600521,-1619,272,571,1160,-690,-667
600539,-1626,272,567,1153,-689,-672
600556,-1677,212,546,1153,-689,-673
600572,-1736,210,490,1071,-690,-695
600589,-1757,190,416,1043,-690,-712
600605,-1785,122,388,1015,-691,-714
600637,-1867,57,329,980,-689,-732
600654,-1893,31,283,956,-685,-746
600672,-1771,138,371,1067,-691,-720
600687,-1713,182,401,1100,-688,-713
600705,-1696,198,396,1103,-690,-716
600722,-1715,164,344,1101,-688,-719
600755,-1716,138,302,1044,-692,-737
600772,-1763,115,262,1035,-687,-740
600788,-1691,195,320,1076,-684,-731
600805,-1654,213,350,1110,-691,-719
600822,-1607,250,379,1132,-688,-704
600839,-1532,264,373,1157,-689,-702
600870,-1420,327,407,1186,-691,-697
600887,-1368,332,408,1186,-689,-690
600904,-1305,340,434,1207,-687,-690
600920,-1368,264,364,1134,-693,-702
600938,-1384,260,350,1130,-686,-708
600954,-1264,346,446,1221,-692,-686
600986,-412,991,1026,1767,-691,-517
601004,-1177,408,519,1366,-690,-692
601022,-1191,265,388,1207,-690,-683
601038,-1137,298,392,1231,-687,-669
601054,-1157,235,354,1160,-686,-696
601071,-1163,234,334,1148,-685,-690
601103,-1161,224,294,1120,-688,-701
601121,-1139,224,327,1196,-687,-702
601138,-1061,234,261,1124,-687,-695
601153,-1147,212,222,1083,-688,-711
601170,-1221,135,160,1010,-685,-731
601188,-1145,172,209,1057,-688,-718
601219,-1065,228,218,1067,-688,-711
601237,-1070,215,190,1051,-687,-725
601254,-1111,160,106,996,-687,-732
601271,-1076,183,127,1015,-684,-733
601287,-1057,223,151,1051,-684,-732
601303,-1062,212,134,1024,-689,-740
601336,-1163,105,17,941,-689,-768
601354,-1212,47,-14,910,-687,-763
601369,-1193,71,-13,910,-689,-776
601387,-1138,158,38,950,-688,-768
601404,-1028,204,74,980,-681,-754
601420,-981,198,89,958,-688,-762
601453,-936,202,89,981,-688,-750
601470,-1025,104,-15,907,-686,-775
601487,-1146,-17,-138,801,-688,-803
601504,-1185,-47,-131,776,-687,-814
601521,-1321,-193,-283,628,-684,-855
601537,-1331,-194,-309,573,-684,-864
601569,-1391,-200,-346,512,-684,-887
601587,-1425,-225,-391,478,-684,-896
601603,-1475,-247,-427,419,-683,-920
601620,-1479,-279,-468,403,-686,-914
601637,-1525,-300,-541,312,-685,-937
601654,-1606,-387,-583,275,-686,-964
601685,-1524,-245,-514,331,-685,-961
601702,-1441,-257,-493,331,-684,-944
601719,-1357,-183,-428,376,-687,-936
601737,-1322,-143,-436,417,-687,-921
601754,-1310,-163,-452,354,-685,-934
601770,-1347,-213,-488,308,-684,-943
601802,-1385,-297,-536,274,-683,-955
601819,-1510,-357,-592,190,-683,-990
601836,-1598,-401,-681,129,-685,-995
601853,-1621,-418,-705,92,-681,-1014
601869,-1613,-392,-685,63,-682,-1015
601886,-1599,-383,-698,87,-683,-1015
601919,-1482,-253,-571,205,-685,-999
601936,-1406,-185,-553,222,-681,-973
601953,-1426,-215,-586,200,-686,-981
601970,-1417,-244,-569,192,-681,-982
601985,-1504,-323,-647,141,-683,-996
602002,-1467,-311,-630,140,-673,-997
602034,-1431,-264,-606,137,-681,-994
602052,-1396,-221,-535,194,-683,-990
602068,-1325,-137,-527,208,-682,-975
602085,-1220,-52,-448,267,-681,-965
602102,-1115,5,-390,319,-681,-949
602119,-950,100,-294,423,-681,-918
602151,-849,111,-241,464,-681,-894
602169,-806,127,-219,475,-681,-888
602185,-820,108,-166,498,-681,-889
602202,-788,124,-160,497,-679,-877
602218,-747,133,-131,506,-680,-867
602236,-719,154,-128,522,-681,-873
602268,-711,140,-98,512,-684,-865
602285,-693,126,-102,530,-682,-856
602302,-572,250,-15,595,-683,-832
602319,-604,184,-15,573,-683,-841
602335,-576,174,-15,572,-673,-823
602352,-655,142,-49,549,-680,-837
602383,-573,163,-17,532,-681,-826
602400,-514,225,32,573,-675,-819
602418,-467,245,84,621,-662,-800
602435,-407,292,97,652,-680,-789
602451,-421,278,113,673,-665,-778
602467,-418,241,127,625,-665,-787
602501,-441,182,107,606,-665,-790
602517,-424,222,133,639,-665,-771
602535,-426,199,111,620,-671,-774
602554,-367,269,197,648,-664,-769
602568,-341,284,197,660,-673,-760
602584,-272,375,297,745,-683,-741
602616,-47,519,442,872,-664,-689
602634,2,547,485,937,-671,-664
602651,-8,534,466,929,-666,-663
602667,37,546,502,956,-667,-652
602684,-8,507,510,963,-666,-653
602701,3,482,480,934,-684,-646
602733,49,548,525,980,-663,-630
602750,-28,464,501,932,-665,-637
602767,92,554,596,1010,-666,-616
602784,80,528,599,996,-665,-614
602800,89,549,629,1021,-676,-594
602817,145,589,697,1054,-683,-597
602850,174,563,667,1032,-664,-576
602867,152,562,681,1027,-664,-586
602884,107,536,667,1012,-666,-581
602900,189,598,750,1068,-663,-561
602917,184,584,750,1080,-664,-556
602934,261,645,802,1120,-670,-548
602966,409,756,894,1208,-669,-509
602983,407,697,862,1178,-663,-492
602999,408,695,864,1193,-668,-487
603017,402,665,857,1205,-663,-487
603033,387,651,875,1186,-666,-488
603050,171,471,733,1057,-663,-533
603082,-59,318,594,928,-657,-557
603099,184,579,807,1090,-664,-518
603116,77,462,642,953,-660,-530
603132,63,435,695,1003,-662,-539
603150,102,496,724,1040,-662,-521
603166,-6,426,652,949,-664,-545
603183,4,410,654,965,-666,-541
603201,35,462,706,1018,-661,-532
603218,0,374,639,942,-664,-544
603234,-73,363,635,921,-662,-544
603250,-70,398,643,931,-661,-538
603267,-55,399,651,933,-661,-539
603284,-131,373,611,900,-662,-544
603315,-152,368,605,898,-662,-552
603332,-137,383,716,989,-660,-545
603348,-4,512,739,1023,-660,-521
603366,-59,484,683,970,-665,-516
603382,-56,480,696,985,-662,-519
603399,-23,496,735,995,-665,-508
603431,-34,490,757,993,-656,-511
603449,-32,523,764,1020,-663,-496
603466,21,558,762,1005,-664,-489
603483,-65,453,722,981,-658,-497
603499,-60,511,746,995,-662,-503
603516,-119,497,707,978,-663,-510
603547,22,585,807,1050,-662,-485
603564,-41,539,738,1011,-658,-490
603581,-80,503,732,983,-658,-493
603598,-47,518,790,1013,-657,-484
603614,-185,412,681,924,-657,-501
603632,-201,401,665,891,-656,-503
603664,-141,492,728,941,-654,-490
603682,-82,542,772,989,-652,-481
603698,20,621,868,1077,-653,-455
603715,40,649,881,1063,-653,-455
603731,58,633,888,1075,-653,-455
603749,50,629,853,1050,-653,-442
603780,-28,490,758,988,-653,-465
603798,-133,459,755,961,-653,-477
603813,-71,519,809,989,-654,-466
603831,-56,547,828,1011,-663,-456
603848,-30,586,841,1019,-661,-452
603865,-42,559,835,1010,-659,-454
603897,-7,596,874,1060,-658,-449
603914,9,641,867,1054,-663,-442
603930,-34,589,851,1030,-657,-436
603948,-41,591,832,1008,-657,-448
603965,-100,570,796,990,-654,-453
603981,-140,542,768,950,-657,-459
604013,-69,594,868,1080,-660,-439
604030,-62,519,791,1035,-658,-453
604049,-128,571,833,1059,-653,-447
604066,-102,595,830,1072,-655,-439
604084,-119,615,800,1030,-656,-429
604100,-188,557,784,982,-656,-444
604129,-215,538,787,980,-657,-458
604147,-200,544,761,968,-660,-450
604164,-269,523,740,962,-656,-461
604179,-245,544,755,1012,-659,-445
604197,-160,572,790,1022,-654,-432
604214,-153,582,803,1036,-657,-428
604245,-119,622,830,1039,-660,-422
604263,-91,631,876,1080,-654,-414
604279,-76,607,873,1092,-657,-411
604297,-125,556,817,1040,-658,-423
604313,-152,535,809,1022,-657,-428
604330,-206,509,778,998,-659,-430
604362,-157,591,771,1042,-653,-431
604379,-247,518,679,986,-659,-433
604396,-208,556,708,1015,-657,-432
604412,-175,562,692,1055,-653,-430
604429,-164,599,677,1076,-656,-422
604447,-150,556,644,1066,-653,-425
604479,-237,541,333,1018,-654,-433
604496,-356,432,192,928,-654,-463
604513,-388,423,158,946,-655,-462
604530,-401,412,173,957,-654,-466
604547,-363,503,242,1022,-656,-453
604563,-247,573,274,1084,-654,-435
604595,-225,612,343,1127,-652,-417
604612,-237,588,364,1162,-655,-414
604628,-265,567,350,1158,-653,-418
604645,-321,513,334,1135,-655,-430
604663,-305,538,333,1123,-650,-427
604679,-352,513,305,1115,-651,-434
604711,-415,494,273,1060,-655,-450
604728,-473,509,298,1097,-652,-445
604746,-374,620,384,1187,-654,-416
604762,-367,612,410,1201,-655,-418
604779,-367,621,413,1203,-655,-416
604795,-425,571,378,1188,-654,-429
604828,-600,447,287,1102,-651,-459
604845,-657,377,234,1047,-654,-473
604862,-749,367,226,1046,-651,-481
604879,-815,324,191,1003,-641,-495
604896,-821,334,202,1025,-636,-496
604912,-813,375,225,1027,-634,-494
604944,-702,483,343,1152,-658,-474
604961,-696,462,313,1120,-650,-485
604978,-709,466,360,1143,-651,-485
604995,-703,462,355,1185,-651,-481
605012,-664,453,377,1222,-652,-467
605028,-688,460,365,1199,-654,-475
605061,-698,450,365,1215,-657,-486
605078,-754,430,341,1191,-656,-499
605095,-709,508,402,1249,-648,-489
605112,-599,563,434,1283,-662,-473
605129,-571,589,468,1307,-641,-469
605145,-556,579,468,1311,-637,-465
605177,-680,454,350,1229,-636,-502
605194,-690,437,348,1214,-637,-512
605211,-667,459,349,1241,-653,-506
605228,-672,471,334,1248,-653,-496
605244,-664,464,346,1238,-648,-497
605261,-650,473,347,1245,-652,-504
605294,-701,444,316,1216,-655,-514
605312,-663,466,343,1260,-637,-507
605328,-638,477,331,1229,-648,-502
605344,-649,449,300,1215,-645,-502
605361,-653,430,322,1199,-657,-507
605378,-736,414,273,1145,-639,-519
605394,-705,418,272,1167,-646,-518
605411,-721,403,244,1138,-629,-523
605428,-734,389,215,1121,-652,-525
605444,-768,353,188,1076,-648,-544
605461,-732,397,265,1141,-650,-530
605478,-678,453,288,1144,-647,-523
605495,-654,488,323,1176,-631,-510
605526,-585,518,346,1193,-633,-499
605544,-610,473,318,1175,-636,-508
605561,-602,491,306,1152,-638,-509
605577,-642,455,284,1128,-642,-511
605594,-668,433,284,1128,-636,-509
605611,-637,453,309,1142,-645,-511
605642,-505,530,391,1209,-649,-485
605659,-467,532,427,1242,-634,-466
605676,-435,560,451,1240,-639,-473
605694,-414,557,446,1237,-638,-464
605710,-448,516,436,1212,-645,-476
605727,-443,494,440,1197,-637,-464
605759,-432,475,429,1199,-631,-465
605776,-429,457,434,1176,-632,-473
605793,-360,515,487,1241,-634,-456
605809,-356,515,482,1209,-634,-461
605827,-268,606,556,1298,-633,-439
605843,-180,618,598,1301,-633,-418
605876,-171,618,577,1272,-634,-407
605893,-209,574,565,1268,-635,-410
605909,-227,548,557,1255,-636,-419
605926,-246,527,548,1258,-631,-417
605943,-183,591,581,1285,-631,-402
605960,-159,596,584,1261,-636,-400
605992,-61,670,655,1319,-637,-377
606009,8,719,716,1375,-635,-359
606026,39,699,708,1368,-634,-341
606043,-35,632,648,1313,-630,-368
606060,-11,656,677,1325,-637,-357
606076,-52,613,648,1288,-636,-363
606108,-116,555,576,1249,-633,-367
606126,8,697,681,1342,-635,-350
606142,33,694,660,1331,-631,-332
606158,126,761,737,1393,-629,-322
606176,66,717,694,1352,-629,-323
606192,122,748,748,1371,-637,-316
606224,11,662,684,1302,-634,-320
606241,-15,654,673,1290,-632,-329
606259,-19,653,669,1259,-632,-326
606275,3,623,647,1243,-630,-318
606292,36,671,666,1284,-637,-318
606309,25,659,670,1293,-626,-304
606341,169,760,762,1378,-630,-279
606359,196,775,755,1364,-631,-271
606374,149,712,722,1326,-632,-275
606392,101,662,683,1261,-631,-286
606409,94,715,722,1305,-628,-281
606426,188,730,756,1341,-629,-260
606458,144,724,723,1293,-629,-264
606475,246,786,777,1334,-630,-252
606492,279,817,794,1359,-630,-243
606509,319,816,787,1344,-625,-230
606525,333,829,823,1378,-628,-226
606543,295,775,789,1346,-632,-227
606574,302,743,786,1298,-624,-229
606591,328,772,804,1324,-628,-215
606608,327,776,803,1313,-627,-217
606624,380,766,808,1326,-627,-200
606642,392,796,836,1330,-626,-205
606659,415,850,898,1375,-627,-199
606690,491,849,889,1375,-629,-178
606707,506,862,908,1389,-629,-172
606723,515,838,904,1373,-628,-171
606741,483,847,899,1358,-625,-172
606757,504,838,910,1368,-629,-166
606774,440,818,868,1329,-625,-177
606806,410,764,839,1298,-630,-177
606824,420,800,863,1328,-627,-162
606841,416,829,858,1332,-627,-165
606858,467,876,914,1358,-627,-155
606874,488,877,917,1365,-629,-137
606891,449,859,890,1307,-624,-142
606922,411,829,893,1299,-624,-150
606939,349,750,846,1298,-626,-141
606956,318,730,829,1241,-628,-160
606974,314,729,832,1241,-629,-148
606991,367,780,846,1278,-626,-147
607007,393,836,904,1302,-628,-133
607024,405,833,920,1321,-623,-130
607056,411,808,903,1308,-624,-136
607074,436,785,889,1279,-626,-126
607090,411,789,897,1259,-626,-115
607107,339,733,841,1236,-625,-129
607124,349,747,860,1245,-629,-122
607140,339,769,863,1238,-622,-119
607173,315,751,815,1200,-625,-130
607190,318,768,832,1210,-627,-130
607206,329,759,824,1208,-621,-126
607223,336,766,821,1195,-625,-115
607239,298,778,810,1187,-624,-125
607256,246,729,776,1142,-626,-132
607288,207,686,749,1122,-626,-139
607306,189,672,732,1098,-624,-135
607323,191,708,774,1103,-626,-139
607339,194,702,749,1076,-623,-148
607356,194,713,733,1093,-626,-135
607372,216,735,781,1107,-623,-140
607390,206,718,765,1109,-623,-138
607407,237,756,803,1150,-623,-118
607424,192,707,760,1114,-624,-136
607441,113,627,713,1048,-623,-145
607457,108,655,725,1088,-625,-142
607475,98,649,737,1061,-624,-142
607490,117,668,720,1060,-624,-144
607521,84,695,719,1072,-623,-144
607539,58,708,731,1080,-626,-144
607555,116,750,750,1119,-623,-132
607572,63,682,716,1063,-623,-141
607589,-24,621,651,1019,-626,-157
607606,-92,561,605,972,-622,-167
607638,-172,531,595,941,-622,-168
607656,-151,556,637,970,-622,-161
607673,-111,592,651,1008,-627,-146
607688,-121,596,647,968,-618,-169
607706,-106,614,657,994,-624,-154
607722,-27,665,722,1029,-624,-145
607755,-134,621,672,961,-623,-161
607772,-193,577,626,925,-623,-169
607789,-245,512,611,897,-623,-181
607807,-251,527,620,907,-621,-175
607822,-229,528,626,919,-624,-173
607839,-155,604,669,970,-622,-163
607870,-176,588,645,935,-624,-175
607887,-215,574,628,932,-623,-177
607904,-180,607,651,966,-623,-163
607922,-173,606,676,983,-623,-167
607938,-250,501,586,906,-624,-172
607955,-283,480,593,912,-619,-175
607987,-333,431,554,885,-622,-190
608005,-372,423,530,835,-621,-200
608021,-268,526,622,923,-622,-171
608038,-226,575,653,952,-621,-168
608055,-249,526,623,937,-620,-173
608072,-254,525,590,925,-613,-179
608103,-294,478,591,923,-614,-183
608121,-300,535,630,955,-617,-169
608138,-273,510,616,935,-622,-193
608154,-347,450,569,901,-623,-193
608171,-352,423,589,905,-617,-195
608188,-367,418,586,904,-598,-207
608220,-385,427,595,921,-595,-202
608237,-346,497,626,959,-618,-194
608254,-365,483,601,950,-612,-196
608271,-363,467,598,944,-621,-197
608288,-404,451,565,935,-620,-200
608304,-456,383,542,908,-621,-203
608336,-491,414,494,859,-619,-221
608354,-443,451,537,893,-612,-221
608370,-376,518,590,943,-599,-213
608387,-357,504,582,942,-625,-205
608404,-371,490,581,924,-596,-218
608421,-380,445,558,924,-629,-213
608453,-396,443,540,939,-604,-220
608471,-453,372,500,885,-610,-235
608487,-422,414,507,914,-612,-228
608503,-412,464,562,948,-611,-228
608520,-335,508,597,965,-602,-206
608536,-303,518,610,1006,-606,-210
608554,-336,478,576,977,-604,-224
608570,-372,448,539,955,-607,-224
608588,-347,460,559,974,-603,-228
608604,-304,467,591,985,-603,-225
608621,-255,529,597,1006,-603,-214
608637,-276,480,576,968,-610,-223
608654,-350,419,536,919,-616,-233
608685,-350,399,502,921,-605,-235
608702,-258,457,522,949,-603,-226
608720,-234,445,548,940,-602,-225
608737,-208,471,563,979,-601,-213
608754,-164,471,589,995,-601,-209
608769,-147,472,587,997,-601,-214
608801,-255,399,511,906,-601,-243
608818,-307,354,457,862,-601,-255
608835,-454,262,373,799,-601,-269
608852,-556,204,287,738,-601,-301
608870,-424,348,406,818,-600,-276
608885,-407,373,422,830,-609,-273
608918,-298,498,555,957,-602,-253
608935,-266,483,546,932,-603,-249
608951,-332,411,476,883,-604,-261
608968,-416,337,415,836,-607,-280
608986,-529,270,319,746,-606,-299
609002,-547,279,309,728,-602,-311
609035,-523,364,405,817,-605,-292
609052,-416,410,460,867,-601,-283
609068,-370,448,504,886,-603,-267
609086,-334,458,513,914,-602,-266
609103,-352,467,489,884,-600,-272
609119,-364,457,456,856,-605,-282
609152,-441,371,383,782,-603,-288
609169,-481,350,389,798,-602,-299
609185,-483,386,390,835,-602,-286
609202,-436,386,404,828,-601,-288
609219,-453,408,385,836,-603,-286
609235,-459,388,379,810,-601,-288
609267,-412,416,415,866,-605,-282
609284,-328,517,504,915,-600,-267
609301,-304,497,469,886,-602,-268
609318,-337,493,482,890,-602,-273
609335,-376,446,432,839,-601,-272
609351,-382,444,422,853,-601,-289
609384,-444,414,392,802,-602,-297
609401,-453,395,396,790,-602,-300
609418,-476,397,395,813,-606,-295
609435,-393,530,466,875,-601,-273
609451,-311,562,497,912,-600,-267
609468,-314,527,490,893,-604,-263
609500,-368,476,465,873,-597,-274
609518,-350,491,489,853,-598,-279
609534,-384,496,463,827,-604,-278
609551,-383,501,485,858,-602,-284
609568,-352,512,490,862,-603,-275
609584,-221,613,583,941,-603,-254
609617,-264,567,563,925,-601,-256
609634,-234,584,591,957,-604,-256
609651,-213,612,610,987,-599,-245
609668,-172,654,681,1014,-605,-233
609684,-153,657,670,1004,-603,-234
609701,-173,594,647,984,-599,-239
609732,-165,605,669,988,-594,-247
609749,-173,574,647,995,-604,-238
609767,-262,503,572,915,-597,-254
609784,-372,413,512,844,-597,-273
609801,-360,476,563,875,-599,-265
609817,-351,448,538,842,-597,-276
609849,-517,331,431,754,-594,-296
609867,-463,392,492,796,-602,-288
609884,-387,486,543,843,-597,-275
609901,-236,601,630,902,-595,-257
609917,-199,618,666,949,-602,-240
609934,-165,674,720,985,-598,-223
609965,-89,711,798,1041,-598,-202
609983,-27,752,825,1064,-599,-205
609999,14,842,890,1115,-599,-188
610017,144,914,969,1195,-597,-163
610033,307,1051,1110,1336,-602,-135
610050,548,1215,1286,1478,-603,-84
610083,780,1302,1447,1615,-599,-39
610100,757,1162,1370,1543,-601,-59
610117,442,933,1214,1402,-598,-81
610134,319,789,1115,1309,-600,-98
610150,6,516,853,1093,-594,-149
610166,-253,329,693,911,-595,-196
610199,-290,382,777,963,-592,-202
610216,-174,544,917,1078,-600,-183
610233,-121,514,902,1070,-596,-173
610249,-28,589,987,1148,-597,-161
610267,10,623,1028,1183,-599,-159
610283,69,704,1102,1227,-601,-142
610315,137,748,1198,1313,-606,-123
610333,483,1032,1587,1570,-602,-68
610350,528,796,1330,1432,-604,-55
610366,-351,203,820,965,-604,-221
610383,-144,484,1076,1201,-602,-180
610399,413,991,1514,1617,-607,-64
610431,348,839,1450,1539,-603,-66
610448,560,1034,1614,1694,-604,-41
610465,-467,-6,722,899,-595,-194
610482,-1287,87,754,950,-598,-363
610499,-2558,-1702,-862,-527,-589,-558
610516,-2915,-1760,-985,-634,-591,-655
610547,-2028,-746,-273,34,-594,-523
610564,-1976,-647,-301,24,-591,-510
610581,-1961,-531,-283,54,-594,-515
610599,-2127,-744,-605,-229,-595,-532
610616,-2441,-744,-690,-293,-589,-603
610632,-2452,-577,-656,-259,-589,-613
610664,-1948,-150,-285,117,-595,-531
610682,-2747,-912,-916,-458,-578,-682
610698,-3370,-1394,-1375,-907,-574,-799
610715,-3920,-1729,-1616,-1111,-570,-892
610732,-3984,-1677,-1876,-1362,-565,-900
610748,-3456,-6,-384,43,-577,-635
610780,-915,1008,519,943,-596,-392
610798,-901,918,531,951,-601,-379
610815,-710,989,641,1073,-595,-350
610830,-571,1000,727,1174,-598,-327
610847,-576,929,690,1164,-595,-333
610865,-496,961,693,1213,-595,-317
610897,-300,1075,844,1349,-595,-287
610914,-128,1166,979,1485,-596,-252
610930,41,1261,1082,1596,-594,-223
610948,310,1467,1277,1833,-599,-170
610965,723,1777,1546,2094,-597,-99
610980,893,1842,1653,2228,-600,-60
611014,586,1408,1369,2011,-593,-120
611031,590,1347,1283,1949,-592,-112
611047,596,1334,1278,1941,-599,-114
611064,806,1478,1392,2076,-598,-78
611081,1252,1823,1695,2404,-599,7
611097,1796,2220,2027,2751,-603,100
611129,4223,4201,3780,4390,-624,556
611147,5618,5224,5009,5419,-620,991
611163,5787,5133,5005,5511,-620,1020
611181,4984,4034,4095,4766,-601,803
611197,3625,2603,2934,3768,-614,511
611214,2620,1720,2206,3114,-604,314
611246,876,281,843,1947,-595,-30
611263,325,-63,427,1573,-602,-136
611281,1407,1004,1170,2257,-599,60
611297,1288,908,1018,2140,-602,26
611313,1431,1060,1070,2186,-594,49
611331,1738,1347,1289,2400,-600,107
611363,1540,1093,994,2165,-594,57
611380,1090,627,379,1654,-595,-42
611396,798,344,266,1549,-594,-111
611413,516,165,-39,1290,-592,-171
611430,521,222,-97,1257,-592,-168
611447,719,364,2,1341,-591,-141
611480,1085,651,122,1499,-591,-80
611497,1286,789,248,1568,-591,-47
611514,1631,1027,506,1854,-594,11
611530,2011,1393,654,2015,-590,129
611547,2321,1449,711,2068,-571,155
611564,2400,1416,680,2021,-585,171
611595,2281,1184,451,1804,-582,131
611613,2351,1191,429,1818,-593,138
611629,2387,1145,377,1778,-581,153
611647,2405,1171,353,1758,-575,154
611663,2543,1238,354,1765,-571,186
611679,2743,1304,414,1801,-588,226
611697,2771,1254,337,1788,-572,232
611714,2523,903,47,1550,-584,177
611731,2096,517,-346,1256,-569,103
611747,1664,158,-732,890,-573,18
611764,1649,260,-750,849,-571,5
611781,1853,393,-702,907,-572,46
611797,1547,96,-1005,656,-572,-13
611828,-605,-1783,-2834,-976,-572,-445
611846,-1621,-2535,-3668,-1752,-573,-647
611863,-2462,-3149,-4364,-2394,-570,-833
611880,-2783,-3247,-4596,-2623,-593,-919
611896,-2589,-2900,-4487,-2507,-584,-893
611912,-2294,-2566,-4395,-2405,-580,-849
611944,-824,-888,-3173,-1269,-586,-579
611961,95,-418,-2778,-886,-583,-399
611979,513,-73,-2581,-659,-577,-323
611996,776,32,-2439,-549,-573,-265
612012,1017,180,-2336,-407,-572,-217
612028,1388,455,-2067,-183,-573,-143
612061,2853,1481,-1106,684,-575,137
612079,2835,1322,-1158,608,-571,139
612096,2662,1105,-1312,440,-572,118
612112,2501,857,-1457,269,-572,89
612129,2418,746,-1524,197,-573,79
612145,2254,583,-1630,63,-575,54
612178,2191,487,-1699,-78,-577,49
612195,2240,715,-1497,66,-594,54
612211,2492,778,-1387,122,-591,115
612229,2870,1089,-1054,415,-591,206
612245,2594,778,-1264,172,-593,170
612262,2209,374,-1575,-159,-571,108
612294,598,-1036,-2832,-1329,-563,-196
612311,-842,-2249,-4504,-2987,-595,-417
612329,-3924,-4716,-5733,-4495,-573,-949
612346,-7178,-7080,-7052,-6892,-559,-2874
612361,-3669,-3090,-5368,-3823,-566,-1126
612378,-1939,-1732,-4439,-3019,-573,-912
612411,-2459,-2477,-4969,-3565,-566,-858
612428,-3444,-3187,-3672,-2310,-566,-1098
612445,375,282,-3025,-1823,-567,-363
612461,-23,-254,-3068,-1789,-572,-403
612482,214,-187,-2859,-1694,-581,-382
612511,3799,2670,-102,804,-591,297
612544,4417,2762,395,1184,-595,424
612561,4175,2367,218,977,-597,387
612579,3884,1906,-11,764,-596,335
612594,3535,1513,-212,520,-596,288
612610,3366,1334,-329,408,-596,270
612628,3195,1163,-404,303,-596,258
612645,3408,1353,-172,452,-596,300
612661,3126,1062,-395,226,-596,242
612677,3307,1231,-176,334,-596,278
612694,2815,743,-685,-216,-596,201
612711,2513,503,-734,-248,-596,135
612728,2690,694,-554,-115,-596,165
612745,2857,840,-413,-17,-596,206
612761,3119,1078,-157,121,-596,257
612778,3266,1218,-23,217,-596,303
612794,3308,1246,59,213,-596,299
612811,3438,1330,253,373,-596,331
612828,3399,1272,24,168,-598,338
612845,3053,776,-186,-9,-599,287
612861,2651,588,-302,-138,-578,235
612893,1404,-407,-1184,-1000,-571,52
612910,1263,-420,-1215,-1011,-570,13
612927,2133,470,-452,-356,-567,168
612943,2580,914,-65,-30,-587,252
612960,2848,1147,318,315,-590,302
612977,3011,1196,303,285,-593,342
613008,3173,1075,320,267,-572,376
613025,2699,925,231,169,-577,325
613043,2631,832,206,139,-570,318
613060,2557,783,172,110,-572,306
613076,2385,678,70,-1,-572,283
613094,2177,502,-59,-123,-572,256
613125,1872,316,-198,-248,-572,212
613143,1770,245,-272,-294,-572,198
613160,1643,203,-317,-370,-572,188
613176,1481,75,-431,-435,-572,171
613193,1151,-176,-637,-641,-572,104
613209,942,-309,-776,-735,-573,86
613242,198,-1001,-1435,-1444,-570,-40
613259,-231,-1294,-1732,-1747,-570,-165
613276,-681,-1401,-1886,-1890,-562,-221
613292,-1057,-1609,-2134,-2116,-562,-289
613309,-1764,-2152,-2690,-2610,-564,-433
613325,-2729,-2911,-3392,-3254,-565,-629
613357,-5068,-4563,-5081,-4780,-553,-1113
613375,-5643,-4970,-5693,-5306,-543,-1237
613391,-6261,-5136,-5969,-5576,-541,-1410
613409,-6240,-5048,-6022,-5641,-539,-1453
613426,-5854,-4397,-5589,-5218,-541,-1353
613442,-4805,-3327,-4769,-4476,-547,-1134
613474,-2970,-1786,-3497,-3301,-564,-799
613492,-2179,-925,-2739,-2584,-562,-658
613509,-1270,435,-1483,-1466,-566,-503
613526,3149,3292,1126,909,-575,295
613542,4834,4323,2271,1952,-575,603
613558,4654,3762,2017,1752,-572,603
613591,2471,1374,245,87,-572,217
613607,1948,816,-129,-305,-572,121
613624,721,-321,-1118,-1179,-572,-95
613641,347,-614,-1335,-1323,-568,-155
613658,717,47,-910,-925,-569,-44
613675,1756,601,-456,-513,-571,67
613707,2527,1167,28,-52,-570,194
613724,4215,2607,1324,1140,-572,484
613741,6128,4176,2755,2482,-572,875
613758,6463,4350,3328,3017,-573,992
613775,6547,3693,2683,2457,-569,1081
613790,4863,2067,1360,1235,-570,678
613823,2726,238,-318,-254,-571,304
613840,2875,462,-171,-147,-569,316
613857,3311,823,88,137,-584,384
613875,3268,700,-517,-361,-580,390
613891,2476,-47,-801,-687,-573,253
613908,2677,499,-433,-316,-572,278
613940,4559,1882,623,656,-575,617
613958,5827,2969,1597,1534,-574,836
613974,6573,4312,2804,2706,-588,1170
613991,6967,5705,4186,4023,-568,1591
614008,6980,6246,5350,5083,-569,1800
614024,6976,6243,5355,5119,-571,2095
614056,6829,4277,3612,3473,-574,1609
614074,6597,3179,2685,2612,-573,1407
614089,6404,2519,2079,2162,-570,1319
614107,6420,2331,1890,1950,-570,1273
614124,5270,757,455,699,-565,1036
614140,3962,-277,-593,-258,-539,808
614174,3251,-233,-1004,-613,-541,703
614190,3281,-260,-1179,-832,-542,710
614208,3781,326,-750,-499,-542,816
614224,4028,621,-581,-338,-541,877
614241,4291,830,-401,-215,-542,928
614257,1235,-2016,-2876,-2500,-538,381
614290,3347,404,-524,-391,-537,767
614306,5033,2769,921,894,-537,1070
614322,6365,3491,1631,1529,-541,1404
614340,6491,3781,2048,1826,-541,1500
614357,6506,3736,2128,1855,-540,1535
614374,6487,3319,1908,1611,-540,1516
614406,6093,2286,1178,851,-541,1397
614423,5394,1629,291,103,-537,1288
614440,4667,547,-451,-516,-499,1151
614456,2984,-367,-1320,-1280,-500,983
614472,1979,-1116,-2037,-1945,-502,795
614490,420,-2334,-3207,-3005,-472,568
614522,-865,-2938,-4015,-3825,-511,180
614539,-1130,-2935,-4188,-4006,-534,96
614556,-1076,-2533,-3988,-3840,-506,118
614572,-927,-2156,-3777,-3678,-538,151
614589,-181,-1507,-3302,-3230,-530,257
614606,283,-1050,-2930,-2944,-543,330
614638,-1636,-2726,-4412,-4310,-540,-61
614656,-2978,-3761,-5363,-5195,-536,-357
614672,-3252,-3730,-5481,-5287,-530,-404
614689,-2913,-2741,-4791,-4655,-530,-345
614706,-1804,-2123,-4297,-4222,-530,-106
614723,-906,-1307,-3590,-3613,-536,70
614755,1139,494,-1979,-2173,-542,488
614771,2704,1842,-707,-1021,-542,798
614790,3967,2757,813,336,-542,1045
614806,5380,3808,1838,1265,-543,1292
614822,6252,4884,2685,2049,-530,1513
614839,6550,5242,3232,2539,-531,1763
614871,6421,4251,2804,2130,-531,1713
614889,6298,3660,2396,1735,-531,1627
614906,6111,3291,2202,1559,-531,1593
614922,5599,2742,1607,995,-529,1501
614939,4821,2010,658,85,-535,1381
614956,3560,799,163,-342,-541,1153
614987,2705,438,-256,-724,-532,1052
615004,2974,844,59,-451,-536,1105
615022,3393,1333,430,-97,-535,1198
615039,3945,1768,876,314,-530,1311
615055,4165,1949,1147,589,-531,1348
615072,4315,2195,1307,747,-531,1390
615103,5010,2779,1896,1310,-530,1529
615121,6198,3819,2898,2232,-524,1766
615137,6115,3780,2938,2296,-512,1797
615155,5146,2536,1973,1422,-534,1583
615172,4913,2400,1925,1381,-533,1549
615187,5090,2557,2081,1544,-535,1592
615221,4694,1251,1109,585,-535,1588
615238,4265,1893,1664,1121,-535,1496
615254,3583,1336,1169,661,-535,1377
615271,3625,1425,1224,719,-535,1402
615288,3733,1644,1386,866,-535,1427
615304,4028,1987,1657,1142,-535,1496
615336,4320,2219,1909,1392,-535,1561
615354,3971,1835,1644,1117,-535,1517
615370,3747,1741,1609,1100,-535,1494
615388,3472,1542,1453,938,-535,1451
615404,3143,1293,1229,768,-535,1408
615421,2781,996,982,544,-535,1350
615453,2119,550,520,152,-535,1232
615471,1870,441,323,-61,-535,1182
615488,1672,279,208,-139,-535,1141
615504,1422,292,140,-209,-535,1132
615520,1280,194,16,-311,-535,1103
615537,1048,62,-123,-419,-535,1067
615569,1224,311,-15,-252,-535,1096
615587,1035,174,-35,-259,-535,1051
615603,1392,503,108,-122,-535,1116
615620,1638,881,421,165,-535,1179
615636,2013,1077,572,328,-535,1231
615654,2194,1228,684,465,-535,1264
615686,2066,1071,548,388,-535,1252
615702,1950,901,402,240,-535,1214
615719,1814,790,256,156,-535,1201
615737,1747,707,184,109,-536,1184
615754,1843,793,222,173,-536,1200
615770,1936,815,240,220,-529,1213
615802,1669,609,87,15,-532,1173
615820,1841,784,207,138,-523,1188
615836,2069,947,361,290,-520,1227
615852,2368,1170,551,469,-525,1273
615870,2561,1275,706,620,-528,1307
615886,2937,1541,929,800,-513,1373
615919,3292,1755,1150,1000,-511,1431
615935,3598,1958,1366,1190,-519,1482
615952,3719,1989,1428,1230,-507,1500
615970,3700,1871,1350,1142,-508,1502
615986,3623,1753,1261,1064,-510,1486
616002,3575,1660,1177,998,-508,1489
616034,3526,1604,1173,842,-510,1488
616052,3537,1576,1187,840,-507,1510
616069,3525,1564,1156,781,-505,1514
616086,3550,1552,1150,804,-502,1530
616102,3562,1551,1115,728,-511,1493
616118,3751,1720,1285,866,-511,1534
616151,3917,1781,1346,1009,-510,1559
616169,3893,1766,1364,1031,-510,1559
616185,3833,1742,1335,973,-510,1567
616203,3927,1818,1408,1057,-511,1588
616219,4096,1965,1527,1121,-511,1621
616236,4211,2039,1608,1238,-504,1634
616268,4238,1979,1601,1186,-499,1634
616285,4155,1889,1541,1159,-501,1627
616302,4479,2192,1771,1386,-500,1693
616318,4713,2350,1974,1541,-501,1747
616335,4965,2515,2128,1690,-501,1788
616352,4990,2488,2174,1710,-499,1819
616384,4870,2377,2104,1653,-497,1819
616402,4826,2377,2125,1650,-494,1825
616418,4865,2382,2148,1669,-503,1840
616436,4704,2216,2045,1559,-496,1807
616452,4499,2005,1855,1410,-500,1775
616469,4243,1751,1654,1238,-501,1717
616501,3696,1391,1307,885,-501,1663
616519,3551,1321,1185,746,-499,1620
616535,3493,1335,1181,727,-511,1618
616551,3579,1467,1274,786,-509,1626
616568,3680,1588,1353,887,-508,1632
616584,3846,1791,1481,1023,-511,1679
616617,4093,2031,1722,1254,-518,1729
616634,4229,2144,1842,1365,-530,1748
616652,4337,2228,2086,1585,-528,1769
616668,4585,2424,2177,1655,-531,1805
616684,4536,2355,2136,1658,-516,1824
616701,4561,2402,2217,1711,-509,1852
616733,4620,2524,2337,1820,-509,1888
616751,4393,2292,2181,1731,-508,1886
616768,4250,2231,2123,1693,-506,1882
616785,4239,2226,2150,1776,-508,1884
616801,4318,2349,2228,1891,-508,1914
616818,4383,2421,2294,1973,-508,1938
616850,4450,2496,2393,2068,-503,1978
616867,4344,2434,2342,2017,-500,1979
616884,4150,2295,2222,1935,-501,1971
616901,3823,2044,1961,1701,-500,1919
616918,3551,1721,1781,1545,-498,1875
616934,3277,1549,1642,1424,-502,1829
616966,2598,1191,1262,1143,-498,1746
616984,2330,1056,1098,1025,-498,1697
617001,2097,978,991,949,-498,1685
617017,1859,849,831,791,-498,1635
617034,1692,782,695,716,-499,1604
617050,1614,776,613,715,-503,1597
617083,1424,798,381,709,-502,1575
617100,1287,726,230,647,-502,1547
617117,1223,752,248,664,-502,1527
617134,1139,728,230,664,-502,1532
617150,1031,725,184,633,-502,1503
617167,1020,758,254,670,-502,1519
617199,860,693,238,597,-502,1486
617216,704,675,216,579,-508,1462
617233,684,702,257,611,-508,1464
617250,620,741,291,642,-508,1446
617267,756,873,420,770,-507,1474
617283,806,958,487,821,-508,1487
617315,769,1012,600,921,-502,1490
617332,659,848,545,802,-512,1485
617349,488,833,519,797,-510,1447
617365,431,798,533,773,-509,1435
617383,366,760,551,786,-500,1434
617400,226,699,498,743,-502,1406
617432,-46,534,389,611,-507,1355
617449,-160,442,288,565,-507,1337
617466,-383,239,154,437,-507,1311
617483,-668,138,91,373,-507,1265
617500,-860,65,-4,294,-507,1235
617516,-1077,-71,-98,190,-506,1202
617549,-1982,-703,-686,-312,-500,1061
617566,-1301,4,-138,160,-511,1149
617582,-1643,-437,-474,-122,-510,1105
617600,-2159,-615,-660,-275,-509,1021
617616,-2443,-799,-807,-446,-509,970
617632,-2281,-560,-607,-274,-509,985
617665,-2365,-551,-581,-228,-509,956
617681,-2322,-453,-482,-165,-508,955
617699,-2233,-296,-196,113,-509,967
617716,-1979,-42,-55,208,-513,1010
617732,-1910,65,29,294,-526,1014
617749,-1916,41,-42,331,-503,1011
617781,-2070,-63,-62,346,-516,979
617798,-2103,-67,-38,362,-531,964
617815,-2106,-34,3,421,-529,970
617832,-2217,-95,-58,364,-526,945
617849,-2318,-124,-56,350,-521,919
617865,-2345,-143,-64,364,-523,909
617898,-2590,-295,-171,299,-515,864
617915,-2726,-380,-221,232,-529,839
617932,-2867,-471,-285,195,-529,816
617948,-3033,-573,-306,132,-515,793
617965,-3062,-544,-238,163,-512,767
617982,-3118,-502,-211,195,-517,762
618013,-3264,-581,-246,169,-511,720
618030,-3456,-696,-339,77,-531,679
618047,-3675,-848,-479,-17,-520,639
618064,-3685,-796,-396,56,-531,639
618081,-3741,-762,-361,76,-530,618
618098,-3816,-825,-421,66,-528,601
618130,-3948,-807,-351,122,-529,564
618148,-3904,-748,-313,169,-531,559
618164,-3860,-688,-214,255,-527,564
618181,-3819,-609,-119,338,-529,562
618198,-3732,-554,8,436,-530,561
618214,-3414,-263,291,703,-533,612
618247,-2225,813,1897,2107,-533,795
618264,-70,2626,3085,3160,-539,1169
618281,580,3010,3561,3548,-529,1300
618298,3,2284,3122,3141,-533,1209
618314,-488,1745,2802,2878,-533,1112
618330,-1200,1055,2298,2436,-530,996
618363,-2269,150,1590,1838,-531,812
618381,-2847,-343,774,1152,-526,708
618397,-3771,-1010,521,955,-532,545
618414,-3979,-1068,417,848,-530,485
618431,-3781,-782,651,1047,-531,524
618447,-3578,-540,853,1228,-528,541
618479,-3676,-563,828,1209,-529,520
618496,-3893,-708,685,1111,-530,471
618514,-4118,-854,551,1005,-529,429
618530,-4080,-723,657,1080,-529,418
618547,-4067,-700,704,1132,-529,415
618563,-3969,-573,820,1220,-529,414
618596,-3798,-357,981,1410,-529,440
618614,-3751,-299,1050,1484,-529,445
618630,-3746,-285,1073,1497,-529,439
618647,-3797,-369,1043,1509,-529,423
618664,-3852,-393,1048,1515,-531,404
618680,-3861,-392,1059,1522,-533,382
618712,-4104,-585,908,1391,-530,329
618730,-4299,-706,776,1291,-529,278
618745,-4478,-848,668,1193,-529,244
618763,-4618,-914,597,1164,-529,209
618779,-4600,-870,597,1174,-529,211
618796,-4639,-864,630,1172,-529,176
618828,-4732,-919,594,1152,-529,145
618846,-4857,-1009,492,1066,-532,109
618862,-4948,-1052,419,1026,-526,78
618878,-5006,-1030,422,1000,-530,53
618896,-4964,-993,458,1056,-524,59
618913,-5030,-1106,392,998,-530,30
618944,-5415,-1334,163,808,-533,-72
618961,-5584,-1432,37,697,-505,-105
618981,-5702,-1512,-28,631,-527,-145
618996,-5803,-1600,-130,553,-513,-176
619011,-5920,-1725,-274,443,-535,-229
619029,-5537,-1295,94,801,-525,-142
619061,-5679,-1330,1,762,-529,-196
619079,-5760,-1390,-45,697,-536,-234
619095,-5867,-1497,-123,600,-522,-273
619112,-5980,-1715,-315,433,-506,-329
619129,-6196,-2186,-745,48,-511,-444
619146,-5927,-1102,150,882,-529,-368
619178,-5266,-715,584,1230,-529,-217
619195,-5049,-650,680,1306,-532,-197
619211,-5039,-686,655,1299,-532,-212
619229,-5120,-768,594,1274,-531,-230
619245,-5255,-874,507,1197,-528,-263
619262,-5279,-927,526,1232,-528,-279
619294,-5184,-818,600,1305,-529,-282
619311,-5070,-732,703,1401,-532,-270
619328,-5124,-823,660,1351,-529,-305
619345,-5194,-877,629,1309,-528,-329
619362,-5247,-948,600,1275,-530,-340
619379,-5348,-1020,530,1214,-532,-369
619411,-5466,-1152,435,1145,-532,-421
619428,-5388,-1063,553,1239,-528,-415
619445,-5385,-1053,518,1220,-527,-436
619461,-5427,-1089,466,1187,-536,-459
619478,-5481,-1128,433,1155,-510,-481
619495,-5533,-1167,394,1134,-535,-502
619527,-5544,-1201,373,1074,-521,-540
619543,-5583,-1246,347,1047,-526,-564
619562,-5605,-1266,334,1038,-530,-575
619577,-5675,-1292,356,1047,-525,-594
619594,-5657,-1277,374,1044,-530,-613
619611,-5643,-1260,362,1056,-508,-610
619643,-5606,-1246,369,1045,-515,-635
619661,-5637,-1291,321,990,-534,-660
619677,-5666,-1305,310,990,-516,-693
619694,-5684,-1366,245,940,-527,-694
619711,-5827,-1418,175,868,-520,-744
619728,-5794,-1452,151,878,-510,-754
619760,-5624,-1243,299,1021,-517,-740
619777,-5598,-1219,340,1057,-531,-743
619794,-5573,-1193,288,1056,-523,-753
619811,-5647,-1260,272,1048,-517,-773
619827,-5595,-1246,291,1066,-520,-775
619844,-5566,-1229,305,1077,-517,-779
619876,-5531,-1243,285,1052,-521,-806
619894,-5517,-1240,275,1034,-514,-814
619911,-5552,-1281,261,996,-520,-833
619927,-5575,-1311,218,983,-521,-851
619944,-5631,-1329,174,966,-513,-870
619960,-5661,-1373,118,931,-520,-902
619992,-5802,-1495,-13,822,-511,-953
620009,-5696,-1395,45,898,-513,-939
620025,-5695,-1405,28,869,-519,-955
620042,-5695,-1408,52,864,-514,-969
620060,-5671,-1388,51,896,-514,-965
620077,-5679,-1415,55,912,-514,-985
620109,-5642,-1425,3,874,-516,-1012
620126,-5620,-1408,5,893,-512,-1021
620143,-5670,-1442,-56,866,-516,-1026
620160,-5644,-1418,-28,859,-516,-1050
620177,-5652,-1412,-40,849,-513,-1052
620193,-5584,-1371,31,950,-510,-1062
620226,-5505,-1333,59,934,-509,-1068
620243,-5542,-1407,1,903,-512,-1080
620258,-5543,-1420,-3,896,-511,-1089
620276,-5493,-1371,40,954,-516,-1083
620293,-5501,-1382,13,948,-515,-1106
620310,-5570,-1465,-24,898,-511,-1112
620341,-5564,-1446,-42,909,-509,-1138
620358,-5524,-1410,-24,979,-517,-1137
620376,-5470,-1403,-6,974,-514,-1146
620392,-5529,-1421,-50,949,-516,-1168
620409,-5479,-1402,-34,968,-515,-1169
620425,-5527,-1455,-69,942,-510,-1184
620443,-5507,-1447,-39,971,-529,-1197
620475,-5473,-1444,-73,1005,-510,-1200
620492,-5429,-1418,-67,1017,-507,-1208
620509,-5459,-1434,-98,987,-511,-1222
620526,-5394,-1386,-55,1048,-511,-1224
620542,-5342,-1357,-17,1089,-511,-1207
620559,-5335,-1410,-52,1085,-510,-1228
620591,-5269,-1379,-65,1117,-505,-1228
620608,-5247,-1395,-82,1105,-511,-1245
620624,-5189,-1322,-20,1150,-509,-1237
620642,-5141,-1331,-66,1150,-513,-1248
620657,-5066,-1292,-38,1206,-510,-1242
620675,-5113,-1367,-107,1161,-508,-1269
620707,-5078,-1360,-153,1181,-511,-1276
620724,-4986,-1316,-105,1220,-508,-1273
620741,-4960,-1341,-160,1193,-513,-1285
620759,-4915,-1320,-157,1217,-510,-1288
620775,-4798,-1273,-130,1243,-508,-1284
620792,-4736,-1276,-161,1256,-508,-1292
620856,-4584,-1321,-252,1262,-509,-1319
620874,-4530,-1280,-209,1281,-508,-1317
620891,-4359,-1203,-170,1304,-510,-1317
620908,-4244,-1159,-132,1362,-511,-1298
620925,-4219,-1195,-196,1327,-513,-1316
620941,-4180,-1207,-230,1334,-510,-1317
620974,-4040,-1174,-241,1342,-509,-1321
620991,-3936,-1115,-166,1385,-508,-1311
621007,-3889,-1113,-229,1341,-507,-1315
621024,-3895,-1126,-253,1331,-510,-1339
621041,-3727,-1054,-191,1407,-510,-1315
621058,-3609,-1029,-180,1404,-510,-1320
621089,-3474,-1016,-220,1391,-507,-1328
621107,-3328,-937,-188,1448,-511,-1294
621123,-3275,-916,-193,1452,-511,-1305
621141,-3166,-870,-164,1462,-508,-1300
621157,-3118,-828,-131,1521,-511,-1284
621174,-2958,-814,-116,1535,-508,-1283
621206,-2792,-789,-100,1540,-509,-1274
621224,-2662,-703,-47,1615,-508,-1251
621241,-2583,-677,-10,1603,-507,-1252
621257,-2508,-624,-1,1607,-507,-1247
621274,-2416,-612,13,1645,-509,-1241
621290,-2320,-530,14,1667,-509,-1227
621323,-2155,-543,11,1649,-506,-1225
621340,-2045,-481,30,1672,-505,-1209
621357,-1991,-483,22,1675,-505,-1197
621374,-1963,-481,32,1665,-504,-1208
621390,-1871,-403,56,1690,-509,-1188
621407,-1811,-403,70,1682,-512,-1190
621440,-1627,-393,116,1709,-510,-1170
621457,-1616,-421,73,1685,-503,-1172
621473,-1580,-404,112,1698,-504,-1164
621490,-1514,-380,120,1694,-509,-1162
621507,-1390,-260,143,1715,-507,-1151
621523,-1359,-267,166,1731,-508,-1148
621556,-1289,-305,157,1700,-503,-1139
621573,-1209,-248,175,1730,-513,-1132
621589,-1198,-275,142,1688,-506,-1130
621607,-1120,-222,174,1721,-507,-1131
621623,-1130,-264,138,1684,-507,-1135
621640,-1050,-214,187,1723,-507,-1129
621673,-955,-137,246,1768,-508,-1111
621689,-887,-132,236,1731,-502,-1099
621706,-844,-138,229,1753,-510,-1093
621723,-841,-161,205,1727,-501,-1103
621739,-786,-111,225,1723,-505,-1094
621756,-743,-59,277,1755,-509,-1082
621789,-739,-96,232,1740,-505,-1084
621806,-723,-102,252,1724,-505,-1081
621823,-662,-84,269,1739,-500,-1074
621839,-553,-14,323,1765,-510,-1068
621856,-466,28,368,1802,-504,-1046
621873,-476,15,345,1762,-510,-1051
621904,-449,27,298,1747,-511,-1065
621922,-486,-14,269,1694,-503,-1071
621938,-447,1,298,1729,-500,-1060
621956,-432,-11,321,1721,-503,-1057
621972,-381,-12,346,1731,-501,-1043
621989,-365,-8,344,1726,-504,-1055
622021,-307,30,333,1712,-502,-1044
622038,-291,64,343,1702,-507,-1035
622056,-347,19,327,1673,-503,-1046
622072,-320,30,319,1689,-505,-1036
622089,-336,25,296,1677,-502,-1044
622105,-256,109,347,1716,-508,-1020
622137,-231,98,348,1684,-507,-1016
622156,-227,79,362,1666,-507,-1025
622172,-218,107,357,1649,-507,-1029
622189,-241,86,334,1619,-499,-1037
622205,-268,44,320,1607,-499,-1038
622221,-258,63,337,1591,-501,-1041
622254,-334,7,304,1550,-501,-1047
622272,-277,80,317,1587,-500,-1040
622288,-351,39,265,1535,-507,-1043
622306,-332,64,285,1531,-499,-1043
622321,-373,44,292,1544,-508,-1048
622338,-279,137,330,1580,-501,-1033
622371,-330,102,288,1547,-498,-1042
622388,-341,86,294,1549,-497,-1043
622404,-416,39,265,1496,-509,-1045
622421,-478,-5,206,1439,-510,-1070
622438,-535,-58,148,1391,-499,-1073
622454,-563,-76,203,1417,-504,-1083
622486,-583,-32,174,1373,-500,-1078
622503,-612,-66,111,1335,-500,-1087
622520,-686,-98,77,1269,-500,-1107
622538,-707,-103,73,1239,-504,-1109
622554,-743,-104,38,1252,-506,-1104
622571,-740,-98,58,1256,-504,-1123
622602,-768,-89,22,1228,-501,-1118
622620,-792,-111,1,1192,-504,-1117
622636,-854,-127,-35,1151,-497,-1135
622654,-895,-133,-68,1122,-508,-1131
622670,-914,-140,-66,1094,-505,-1148
622687,-968,-168,-133,1056,-499,-1162
622720,-1017,-158,-140,1049,-498,-1167
622737,-995,-154,-132,1056,-502,-1165
622753,-1024,-170,-173,1031,-503,-1164
622770,-1095,-215,-263,983,-502,-1175
622787,-1094,-200,-286,983,-502,-1183
622804,-1146,-199,-379,948,-502,-1188
622835,-1091,-96,-391,1011,-502,-1177
622853,-1101,-108,-332,1016,-502,-1172
622869,-1061,-63,-305,1058,-502,-1163
622887,-1096,-70,-296,1039,-502,-1166
622903,-1156,-115,-336,999,-502,-1180
622920,-1168,-118,-326,993,-502,-1186
622952,-1039,5,-163,1092,-502,-1159
622969,-1059,-5,-140,1074,-504,-1165
622986,-1082,-42,-158,1063,-498,-1166
623003,-1072,-19,-104,1062,-500,-1162
623019,-990,55,-50,1105,-500,-1149
623036,-996,75,-48,1103,-500,-1137
623068,-1111,-22,-75,1031,-500,-1163
623086,-1167,-64,-77,1011,-500,-1169
623103,-1096,-12,-42,1040,-500,-1168
623119,-1091,-3,-5,1062,-500,-1165
623137,-1147,-29,-16,1022,-500,-1165
623153,-1108,2,-4,1043,-500,-1162
623184,-1211,-74,-62,953,-500,-1193
623202,-1340,-176,-135,856,-500,-1195
623218,-1337,-154,-124,876,-500,-1213
623236,-1317,-110,-139,853,-500,-1194
623252,-1331,-65,-62,910,-500,-1200
623269,-1287,-43,-44,895,-500,-1194
623301,-1279,-49,-16,915,-501,-1188
623319,-1238,-21,30,968,-497,-1175
623335,-1274,-8,35,955,-500,-1189
623352,-1334,-57,-7,887,-500,-1196
623369,-1274,-9,36,923,-499,-1194
623385,-1295,-51,-17,866,-503,-1195
623417,-1512,-194,-162,750,-501,-1223
623434,-1517,-189,-151,749,-500,-1227
623451,-1517,-165,-109,767,-500,-1229
623469,-1485,-141,-101,808,-500,-1220
623485,-1465,-126,-56,793,-500,-1223
623502,-1453,-95,-52,790,-498,-1221
623534,-1460,-88,-93,750,-498,-1225
623550,-1516,-126,-109,739,-498,-1223
623567,-1541,-137,-114,737,-498,-1230
623585,-1500,-89,-59,783,-498,-1224
623601,-1499,-86,-31,802,-498,-1219
623619,-1539,-118,-82,747,-498,-1223
623651,-1615,-105,-81,744,-499,-1243
623668,-1527,-86,-52,734,-497,-1228
623684,-1535,-106,-113,731,-500,-1237
623701,-1512,-59,-64,750,-497,-1224
623718,-1484,-37,-32,786,-501,-1215
623735,-1471,-30,-1,823,-498,-1202
623767,-1517,-55,-33,758,-499,-1224
623785,-1519,-94,-93,724,-498,-1226
623801,-1569,-79,-52,723,-498,-1224
623818,-1561,-75,-48,715,-498,-1228
623834,-1495,-46,-2,769,-498,-1216
623851,-1523,-74,-31,746,-498,-1220
623883,-1583,-96,-53,756,-502,-1223
623901,-1539,-44,13,771,-498,-1210
623918,-1504,-11,49,771,-498,-1213
623934,-1505,-45,29,772,-498,-1214
623951,-1569,-68,2,747,-499,-1222
623968,-1586,-60,-3,752,-499,-1222
623984,-1601,-41,16,750,-498,-1223
624001,-1583,-46,11,771,-499,-1224
624018,-1541,-20,31,775,-498,-1215
624035,-1590,-67,12,742,-496,-1222
624051,-1629,-98,-18,715,-500,-1222
624068,-1612,-82,9,734,-499,-1225
624085,-1576,-31,42,761,-498,-1221
624116,-1636,-85,8,762,-496,-1238
624132,-1658,-99,-7,726,-500,-1236
624149,-1639,-75,18,762,-500,-1236
624167,-1657,-90,-9,732,-501,-1227
624183,-1683,-105,-11,714,-500,-1239
624200,-1684,-98,-5,738,-500,-1239
624232,-1691,-106,10,754,-500,-1232
624250,-1696,-118,3,751,-500,-1237
624267,-1728,-116,6,744,-500,-1236
624284,-1690,-79,38,748,-500,-1224
624300,-1704,-95,73,776,-500,-1230
624316,-1687,-76,51,784,-500,-1221
624333,-1681,-57,61,808,-500,-1216
624350,-1696,-45,79,796,-500,-1221
624367,-1691,-48,94,812,-500,-1221
624383,-1646,-31,124,822,-500,-1212
624400,-1639,-22,132,826,-500,-1205
624417,-1651,-26,75,810,-500,-1220
624433,-1689,-21,110,826,-498,-1213
624465,-1672,-31,100,828,-487,-1216
624482,-1622,31,147,868,-488,-1188
624500,-1623,9,162,868,-490,-1200
624516,-1572,50,190,897,-487,-1192
624533,-1573,4,170,890,-495,-1186
624549,-1570,17,174,895,-501,-1183
624582,-1541,18,180,891,-500,-1181
624599,-1535,15,198,915,-504,-1181
624614,-1502,32,201,925,-501,-1169
624632,-1457,69,257,970,-494,-1164
624648,-1457,65,243,971,-499,-1164
624666,-1462,63,282,984,-489,-1164
624698,-1396,68,292,1008,-492,-1141
624716,-1380,67,292,1001,-493,-1147
624733,-1342,76,304,998,-499,-1146
624749,-1332,93,330,1003,-499,-1146
624766,-1312,115,307,999,-491,-1138
624782,-1315,136,336,1028,-496,-1132
624815,-1207,198,418,1101,-500,-1111
624832,-1191,195,414,1098,-498,-1111
624848,-1166,199,435,1098,-494,-1106
624865,-1119,218,469,1124,-495,-1101
624882,-1094,233,469,1123,-491,-1102
624899,-1072,232,500,1149,-501,-1092
624931,-1034,254,514,1162,-498,-1080
624948,-1038,245,492,1147,-492,-1085
624965,-1012,264,534,1156,-493,-1081
624981,-979,247,548,1155,-485,-1070
624998,-830,366,635,1238,-486,-1053
625015,-863,311,597,1198,-494,-1059
625047,-795,348,632,1230,-489,-1041
625064,-766,357,630,1243,-486,-1042
625082,-796,325,612,1200,-495,-1044
625099,-758,338,644,1222,-487,-1040
625115,-750,339,654,1222,-485,-1041
625131,-738,344,681,1250,-492,-1037
625163,-649,369,698,1263,-492,-1028
625181,-607,399,713,1300,-484,-1005
625197,-621,376,665,1270,-485,-1017
625215,-622,359,652,1251,-506,-1007
625231,-641,359,620,1243,-499,-1017
625248,-597,391,680,1237,-475,-1006
625280,-546,396,698,1296,-477,-1004
625298,-537,381,687,1262,-502,-1004
625315,-494,425,708,1289,-482,-995
625331,-469,433,728,1285,-486,-1000
625348,-443,439,734,1251,-480,-987
625365,-464,407,706,1235,-491,-993
625396,-516,370,661,1190,-477,-1002
625414,-436,417,731,1233,-485,-985
625431,-414,441,731,1250,-480,-983
625447,-442,403,717,1243,-488,-985
625464,-444,414,719,1232,-487,-981
625481,-469,387,703,1238,-486,-993
625513,-407,426,697,1221,-476,-978
625530,-401,418,705,1212,-498,-984
625547,-400,432,701,1227,-475,-975
625564,-372,422,720,1221,-485,-971
625581,-401,405,689,1184,-479,-984
625597,-405,397,692,1177,-476,-984
625629,-379,382,670,1167,-480,-981
625646,-369,425,698,1203,-477,-968
625664,-388,395,673,1169,-491,-978
625681,-369,415,699,1193,-476,-969
625697,-336,427,728,1197,-483,-962
625714,-300,449,722,1203,-481,-971
625746,-330,419,749,1179,-483,-972
625763,-319,413,719,1148,-475,-964
625780,-325,410,700,1172,-479,-968
625797,-347,389,691,1161,-477,-970
625813,-322,427,696,1183,-483,-961
625830,-275,439,707,1184,-479,-956
625861,-306,410,693,1147,-480,-970
625879,-351,345,628,1097,-484,-974
625895,-401,324,588,1064,-476,-981
625912,-360,382,630,1091,-479,-983
625928,-403,350,593,1073,-482,-980
625946,-392,345,606,1049,-477,-988
625978,-370,361,606,1076,-477,-981
625996,-371,336,553,1016,-482,-985
626012,-399,327,599,1047,-482,-986
626030,-377,344,570,1044,-490,-984
626046,-374,361,607,1029,-476,-986
626063,-448,291,532,995,-486,-1001
626094,-396,342,569,1014,-483,-995
626112,-352,398,598,1040,-478,-989
626129,-363,368,583,1025,-480,-982
626145,-347,402,609,1059,-479,-982
626163,-344,406,601,1052,-484,-973
626179,-367,400,593,1047,-479,-976
626211,-444,336,529,961,-481,-999
626228,-416,382,567,1001,-479,-989
626246,-486,316,517,954,-480,-997
626262,-480,342,546,966,-470,-994
626279,-466,330,506,931,-482,-1002
626295,-515,302,475,913,-478,-1011
626328,-642,212,347,798,-474,-1033
626345,-486,364,468,907,-481,-1006
626361,-501,377,477,940,-479,-998
626378,-427,434,545,958,-476,-983
626396,-460,436,552,964,-478,-991
626412,-434,432,558,984,-478,-982
626444,-477,391,525,960,-478,-982
626462,-445,400,521,974,-478,-978
626479,-488,382,521,917,-479,-985
626495,-474,386,540,939,-476,-987
626512,-502,397,537,930,-478,-990
626529,-488,399,533,955,-478,-992
626561,-495,386,510,941,-480,-980
626578,-529,373,517,946,-480,-984
626595,-541,381,514,941,-481,-974
626611,-569,340,513,907,-480,-993
626628,-576,369,506,908,-479,-990
626644,-573,360,522,928,-478,-985
626677,-627,371,454,884,-478,-988
626694,-636,372,444,872,-476,-986
626711,-624,391,473,886,-478,-978
626728,-696,330,409,835,-478,-990
626744,-679,361,455,875,-478,-986
626761,-653,372,448,902,-479,-975
626793,-634,408,494,925,-481,-967
626810,-576,433,524,946,-476,-962
626826,-606,418,515,946,-477,-958
626844,-618,426,495,929,-476,-958
626860,-615,420,499,945,-476,-948
626877,-614,432,486,933,-477,-957
626910,-581,434,483,962,-477,-946
626927,-578,460,496,982,-477,-928
626944,-557,452,504,976,-481,-917
626960,-586,415,474,973,-474,-924
626977,-594,427,477,967,-481,-916
626994,-545,451,529,1025,-481,-906
627026,-573,413,493,989,-478,-923
627043,-663,338,414,921,-477,-939
627061,-587,427,483,953,-474,-918
627076,-523,456,499,1005,-479,-906
627093,-466,500,560,1029,-473,-880
627110,-479,510,542,1023,-479,-880
627142,-404,551,600,1070,-476,-870
627159,-325,614,637,1106,-472,-851
627177,-339,581,606,1050,-476,-852
627193,-370,532,600,1050,-473,-854
627210,-335,544,600,1093,-475,-845
627226,-338,547,566,1100,-470,-839
627258,-284,566,602,1107,-476,-830
627276,-265,581,632,1095,-471,-830
627292,-255,593,630,1101,-478,-835
627309,-208,576,632,1105,-475,-822
627326,-203,625,633,1081,-477,-829
627343,-145,634,625,1098,-479,-816
627375,-65,680,723,1184,-477,-784
627392,47,776,788,1274,-476,-756
627409,13,714,761,1227,-476,-778
627426,28,706,789,1258,-473,-757
627443,62,691,746,1217,-473,-753
627459,12,696,787,1240,-475,-756
627491,71,728,804,1260,-481,-748
627508,104,710,789,1256,-477,-742
627525,67,699,769,1229,-474,-758
627543,148,766,831,1292,-478,-730
627558,118,724,766,1263,-478,-728
627575,150,723,785,1285,-477,-717
627608,147,716,801,1279,-471,-719
627625,189,740,820,1291,-479,-715
627642,147,708,799,1248,-476,-720
627659,173,739,807,1285,-479,-703
627675,162,724,793,1288,-469,-700
627692,139,700,774,1255,-479,-706
627725,196,727,799,1292,-473,-685
627742,217,743,825,1286,-475,-684
627759,268,788,852,1361,-473,-662
627776,275,794,857,1320,-478,-676
627792,254,756,832,1311,-472,-673
627809,259,775,858,1342,-477,-664
627841,220,706,794,1264,-475,-666
627858,213,717,807,1264,-476,-666
627875,269,766,831,1305,-472,-662
627891,334,782,880,1342,-475,-644
627908,388,840,922,1391,-470,-635
627925,332,798,883,1360,-476,-642
627957,313,793,853,1317,-479,-633
627975,284,738,813,1275,-476,-630
627991,215,732,837,1282,-474,-643
628008,277,745,837,1320,-476,-628
628024,377,828,928,1358,-473,-611
628041,383,829,926,1371,-475,-604
628074,413,864,912,1381,-477,-595
628091,460,885,881,1334,-473,-596
628108,379,814,879,1316,-477,-613
628124,388,833,906,1344,-479,-597
628141,449,857,937,1367,-471,-587
628158,481,884,961,1417,-473,-573
628190,469,861,970,1401,-474,-565
628207,497,880,991,1425,-472,-564
628223,499,910,984,1399,-474,-560
628241,504,915,981,1426,-474,-555
628257,461,882,944,1380,-471,-564
628274,419,856,936,1368,-473,-561
628306,482,883,986,1389,-473,-550
628324,469,896,971,1368,-479,-546
628340,481,887,971,1392,-477,-538
628358,483,887,986,1394,-478,-536
628374,474,887,979,1386,-467,-539
628390,454,887,969,1381,-469,-536
628423,458,854,950,1369,-471,-537
628441,454,865,952,1372,-471,-530
628457,473,892,979,1391,-472,-522
628474,494,907,1035,1403,-474,-508
628491,524,907,1015,1390,-474,-503
628507,478,913,1032,1398,-472,-510
628539,468,869,1008,1369,-469,-519
628556,455,852,998,1368,-469,-506
628573,455,867,1016,1367,-470,-504
628590,500,902,1049,1400,-471,-491
628606,510,901,1031,1374,-473,-489
628624,495,906,1014,1385,-473,-492
628655,494,890,990,1370,-473,-490
628673,481,872,970,1334,-466,-490
628690,456,854,950,1313,-476,-503
628707,452,831,928,1313,-467,-499
628723,513,888,987,1332,-473,-482
628740,492,876,994,1341,-471,-497
628773,581,955,1026,1381,-469,-469
628789,526,917,1023,1376,-470,-471
628806,522,911,1003,1345,-469,-468
628823,488,881,993,1334,-470,-464
628840,496,869,978,1324,-470,-473
628857,494,890,952,1312,-472,-470
628888,494,903,980,1333,-468,-459
628905,486,909,1012,1350,-468,-451
628922,508,924,1021,1350,-472,-446
628939,434,886,967,1319,-472,-451
628955,456,886,954,1328,-470,-450
628973,484,896,981,1337,-467,-439
629005,457,880,982,1319,-467,-440
629022,432,885,1015,1355,-472,-446
629038,498,925,1004,1324,-468,-425
629056,444,918,1011,1353,-473,-428
629072,412,875,988,1327,-475,-437
629089,400,869,953,1316,-474,-439
629106,453,892,988,1341,-473,-426
629137,417,852,986,1314,-469,-417
629154,432,875,1002,1345,-471,-427
629171,433,910,1045,1348,-471,-414
629188,467,932,1022,1375,-471,-413
629205,467,920,1016,1401,-471,-405
629222,401,874,992,1370,-471,-405
629254,393,852,988,1368,-471,-403
629272,340,833,955,1357,-470,-408
629289,317,844,936,1336,-470,-410
629305,300,846,929,1349,-472,-408
629321,323,833,930,1338,-468,-413
629338,225,796,883,1293,-470,-419
629370,257,812,925,1322,-471,-413
629388,234,801,930,1314,-471,-406
629404,183,775,907,1310,-469,-416
629420,185,786,934,1328,-472,-407
629438,140,754,888,1308,-469,-412
629454,121,776,912,1308,-468,-414
629487,6,710,807,1284,-468,-420
629505,9,721,815,1293,-468,-413
629520,-42,655,775,1254,-455,-424
629538,-64,655,775,1257,-458,-433
629555,-151,613,718,1214,-461,-449
629571,-151,689,785,1268,-458,-446
629604,-163,660,746,1270,-468,-433
629621,-193,632,715,1246,-471,-439
629637,-234,622,708,1274,-465,-437
629654,-275,590,659,1250,-459,-444
629672,-318,571,614,1241,-456,-460
629687,-379,514,577,1191,-458,-459
629719,-400,563,613,1250,-466,-458
629736,-377,575,590,1275,-466,-443
629753,-474,502,524,1214,-455,-465
629771,-464,543,540,1246,-458,-464
629787,-518,490,493,1211,-467,-478
629803,-522,476,470,1221,-467,-481
629836,-475,527,454,1211,-470,-468
629853,-516,499,443,1226,-459,-477
629870,-508,495,431,1206,-468,-479
629887,-531,463,383,1206,-468,-498
629903,-481,520,419,1231,-468,-482
629919,-457,538,429,1251,-468,-480
629953,-488,495,387,1250,-468,-487
629970,-471,502,404,1257,-464,-482
629987,-451,514,398,1285,-454,-474
630003,-459,503,384,1244,-468,-477
630020,-435,511,368,1226,-472,-493
630037,-424,480,366,1222,-458,-492
630069,-362,544,397,1279,-456,-473
630086,-418,483,331,1229,-466,-494
630102,-364,496,325,1227,-466,-476
630119,-387,480,325,1223,-456,-481
630136,-365,473,316,1223,-458,-479
630153,-373,473,292,1198,-468,-496
630185,-311,490,276,1220,-469,-494
630203,-254,520,221,1202,-455,-473
630219,-358,458,167,1118,-468,-492
630237,-401,397,94,1080,-457,-515
630253,-323,465,160,1151,-457,-499
630269,-301,467,157,1142,-458,-503
630302,-332,422,90,1110,-458,-505
630319,-358,382,63,1064,-458,-512
630335,-375,366,29,1052,-458,-515
630352,-384,356,-3,1014,-458,-516
630369,-404,345,-5,1007,-458,-522
630385,-378,357,-11,1002,-458,-529
630418,-372,364,-33,983,-458,-524
630436,-352,351,-39,981,-458,-522
630453,-409,304,-93,946,-458,-534
630469,-401,299,-132,906,-458,-535
630486,-411,291,-129,860,-458,-537
630502,-378,298,-146,851,-458,-541
630534,-330,333,-153,882,-458,-535
630551,-379,281,-221,821,-458,-549
630569,-320,316,-176,858,-458,-547
630586,-341,293,-196,825,-458,-546
630602,-327,273,-241,783,-458,-555
630619,-361,240,-278,753,-458,-555
630650,-386,263,-283,735,-458,-568
630668,-403,241,-331,711,-458,-576
630684,-340,282,-303,727,-458,-569
630702,-375,253,-326,711,-458,-569
630719,-386,228,-343,688,-458,-576
630735,-424,223,-394,645,-457,-575
630767,-461,203,-424,572,-454,-596
630785,-423,236,-408,587,-468,-597
630800,-431,218,-422,588,-463,-597
630818,-428,224,-429,589,-471,-599
630835,-415,217,-401,589,-469,-588
630850,-376,251,-380,601,-467,-584
630884,-388,256,-427,554,-460,-590
630900,-422,211,-468,495,-465,-598
630918,-376,268,-419,529,-455,-600
630933,-333,305,-379,558,-457,-597
630950,-268,357,-306,610,-459,-568
630968,-287,335,-306,604,-464,-572
631000,-227,366,-276,593,-454,-562
631017,-238,373,-263,598,-460,-565
631035,-183,413,-223,633,-462,-545
631051,-228,357,-262,578,-458,-559
631068,-146,426,-210,635,-460,-541
631084,-148,439,-180,644,-459,-536
631116,-91,452,-147,666,-459,-525
631134,-59,472,-135,663,-458,-523
631150,-52,481,-109,699,-459,-512
631167,-91,433,-152,649,-455,-522
631184,-44,469,-101,692,-464,-514
631201,-3,499,-62,706,-459,-506
631233,53,522,-26,734,-455,-480
631250,106,568,25,767,-458,-472
631267,88,552,18,748,-459,-471
631284,98,560,24,748,-456,-475
631300,63,532,-2,745,-461,-477
631317,41,514,8,709,-463,-474
631349,135,574,102,777,-456,-443
631366,238,628,162,822,-459,-438
631384,182,606,120,772,-457,-439
631400,234,644,150,803,-461,-433
631417,218,623,144,786,-460,-430
631434,243,665,200,847,-461,-409
631465,213,623,180,829,-454,-413
631483,255,625,210,836,-466,-404
631499,265,665,215,818,-457,-404
631517,278,659,257,838,-459,-397
631533,285,658,244,845,-451,-389
631550,258,672,254,847,-456,-391
631582,251,647,260,835,-460,-386
631600,242,626,285,846,-458,-384
631617,265,655,293,863,-459,-376
631632,271,666,316,869,-443,-369
631650,303,702,358,912,-458,-359
631666,280,693,348,888,-462,-356
631698,304,699,367,881,-460,-357
631715,258,672,359,895,-458,-349
631733,202,644,330,858,-455,-363
631750,217,652,374,856,-449,-355
631766,262,693,392,881,-455,-342
631783,250,684,436,873,-451,-342
631815,236,673,407,857,-452,-350
631832,206,676,403,876,-459,-345
631849,256,720,455,902,-455,-344
631866,249,706,462,898,-462,-331
631882,222,710,453,880,-455,-331
631900,229,715,471,890,-445,-328
631931,264,720,503,927,-446,-314
631948,280,744,536,946,-449,-316
631966,260,725,541,958,-461,-310
631982,242,732,541,923,-444,-308
631999,244,744,515,910,-451,-309
632016,185,684,499,873,-452,-316
632048,208,701,540,924,-455,-304
632065,175,726,598,946,-461,-293
632082,199,734,596,942,-455,-300
632098,315,794,686,1026,-457,-265
632115,218,754,617,941,-457,-285
632131,257,751,648,988,-462,-271
632164,231,743,660,989,-449,-270
632181,184,748,689,1012,-450,-287
632198,262,791,692,989,-459,-255
632215,207,763,669,999,-447,-262
632232,181,753,653,971,-449,-270
632248,279,840,725,1049,-453,-245
632280,233,791,716,1023,-451,-251
632298,208,769,694,991,-449,-253
632314,139,730,673,971,-470,-260
632331,111,722,676,976,-456,-254
632348,117,759,706,1039,-454,-254
632364,80,737,706,1010,-459,-256
632397,45,737,688,1011,-447,-256
632414,23,711,680,1012,-450,-250
632431,-11,703,667,1018,-447,-261
632448,-34,688,664,1011,-451,-247
632465,-96,666,632,1012,-451,-271
632481,-117,672,652,978,-448,-271
632513,-143,664,664,1008,-450,-265
632530,-125,709,685,1048,-449,-244
632548,-87,734,712,1070,-449,-255
632564,-136,705,700,1040,-448,-249
632581,-120,701,677,1039,-445,-249
632597,-161,701,697,1053,-453,-256
632629,-172,696,688,1082,-447,-239
632647,-196,678,653,1065,-449,-241
632663,-188,667,649,1078,-447,-241
632681,-212,622,648,1068,-447,-243
632697,-179,666,629,1081,-451,-246
632714,-208,612,599,1045,-446,-252
632745,-222,628,586,1040,-447,-244
632762,-277,640,584,1054,-446,-247
632779,-298,611,531,1031,-449,-260
632797,-316,618,534,1028,-447,-255
632812,-303,627,556,1044,-452,-256
632830,-300,629,566,1060,-449,-252
632863,-321,593,544,1074,-449,-249
632881,-301,596,508,1044,-448,-253
632897,-299,605,531,1086,-444,-246
632913,-352,580,488,1032,-449,-260
632930,-377,570,473,1038,-449,-266
632946,-337,578,472,1038,-449,-259
632979,-367,551,439,1018,-447,-265
632996,-382,599,443,1029,-445,-267
633012,-441,543,384,1000,-449,-277
633030,-451,523,393,1003,-447,-278
633046,-489,489,377,967,-446,-288
633063,-399,533,440,1052,-447,-272
633095,-446,521,417,1020,-442,-286
633112,-466,506,315,929,-442,-292
633129,-516,518,357,989,-447,-296
633146,-590,425,279,920,-446,-306
633163,-620,411,281,943,-447,-311
633180,-619,405,280,942,-449,-311
633211,-657,398,273,942,-447,-323
633229,-618,449,284,941,-447,-318
633245,-656,391,252,937,-445,-327
633262,-692,380,229,891,-446,-341
633279,-705,358,224,918,-447,-342
633296,-691,383,221,931,-448,-348
633328,-729,335,194,934,-448,-358
633346,-711,370,179,936,-446,-350
633362,-695,384,180,941,-445,-356
633378,-716,395,173,951,-443,-353
633395,-677,396,196,996,-446,-345
633413,-676,371,182,989,-446,-349
633444,-677,353,136,997,-447,-361
633461,-680,362,130,1002,-447,-361
633478,-672,340,116,985,-448,-371
633496,-632,380,145,1013,-444,-360
633513,-583,400,180,1112,-448,-351
633530,-562,372,139,1068,-445,-358
633560,-503,410,115,1067,-444,-358
633578,-462,403,108,1101,-447,-355
633594,-433,407,119,1100,-450,-359
633611,-456,359,65,1082,-452,-364
633627,-402,381,96,1111,-446,-358
633644,-379,373,90,1141,-446,-344
633677,-407,288,-14,1061,-448,-372
633695,-371,295,-47,1062,-448,-367
633712,-383,261,-101,1006,-447,-388
633728,-426,204,-183,965,-442,-396
633745,-481,162,-259,897,-446,-409
633762,-452,159,-233,923,-444,-407
633793,-356,138,-329,863,-444,-402
633811,-333,139,-351,866,-443,-409
633827,-247,166,-334,891,-445,-396
633844,-213,167,-360,877,-444,-401
633861,-153,192,-354,880,-444,-399
633878,-113,201,-375,850,-444,-387
633910,-34,170,-459,792,-445,-382
633927,-16,150,-478,774,-445,-389
633944,16,166,-493,773,-444,-396
633961,116,209,-488,786,-442,-378
633978,187,238,-474,792,-449,-375
633994,249,273,-494,795,-434,-365
634026,303,241,-547,740,-440,-363
634044,415,256,-514,777,-446,-343
634060,462,284,-534,763,-444,-341
634077,555,291,-543,765,-444,-341
634094,601,300,-538,761,-441,-331
634110,618,289,-547,728,-447,-337
634142,736,307,-540,730,-442,-323
634159,816,356,-515,747,-446,-307
634177,885,362,-532,741,-447,-293
634193,951,335,-521,746,-449,-281
634210,1049,421,-496,758,-443,-273
634227,1069,379,-510,745,-439,-270
634259,1076,340,-576,682,-442,-264
634276,1131,368,-572,687,-445,-250
634293,1205,397,-536,698,-444,-242
634310,1263,394,-519,697,-446,-236
634326,1308,401,-527,700,-444,-229
634343,1410,471,-453,760,-442,-215
634375,1620,578,-382,824,-434,-170
634393,1662,577,-384,836,-446,-162
634410,1661,590,-341,858,-445,-152
634426,1751,667,-304,881,-446,-136
634443,1757,610,-329,858,-446,-141
634459,1809,628,-302,859,-447,-125
634492,1959,725,-204,937,-444,-90
634509,2004,763,-172,969,-444,-74
634526,2070,820,-119,1001,-436,-49
634543,2120,851,-73,1020,-447,-39
634560,2120,815,-94,981,-442,-30
634578,2135,790,-100,975,-442,-25
634609,1852,558,-286,751,-437,-66
634626,1875,570,-279,771,-438,-71
634643,2043,746,-127,912,-446,-20
634660,2072,758,-85,928,-439,-12
634676,2145,820,-17,997,-444,1
634692,2230,869,16,1011,-442,23
634724,2213,894,51,1014,-437,19
634741,2252,880,55,998,-438,37
634758,2260,894,104,1009,-440,49
634776,2298,936,125,1043,-446,59
634792,2298,923,132,1040,-441,71
634808,2269,906,125,1046,-443,71
634841,2306,954,227,1063,-437,83
634858,2306,975,245,1071,-437,92
634875,2330,980,263,1085,-440,95
634892,2306,974,255,1055,-446,102
634909,2313,992,310,1078,-443,114
634925,2232,903,237,1018,-440,104
634957,2281,971,315,1100,-438,136
634975,2298,1009,357,1113,-439,145
634991,2293,1005,384,1120,-448,154
635008,2204,957,322,1049,-439,152
635025,2110,893,279,1013,-441,132
635042,2109,908,290,1028,-440,143
635075,2091,917,312,1040,-439,150
635091,2060,933,305,1056,-436,149
635108,2064,958,316,1060,-439,173
635126,2067,965,320,1066,-437,177
635141,1979,882,255,1007,-443,158
635158,1968,897,286,1001,-437,170
635190,1948,937,297,1019,-436,176
635207,1932,956,267,1022,-424,176
635225,1943,993,209,1048,-435,190
635241,1909,976,40,1027,-444,179
635258,1914,995,35,1060,-430,188
635274,1826,964,-11,1027,-439,192
635306,1795,969,16,1052,-445,198
635324,1784,994,110,1100,-440,195
635340,1863,1106,137,1121,-436,210
635358,1896,1148,235,1241,-433,227
635374,2040,1270,270,1291,-433,250
635391,2017,1260,307,1323,-432,275
635422,1956,1235,335,1314,-437,279
635440,1998,1257,408,1357,-438,296
635456,1968,1252,417,1359,-445,301
635473,2031,1306,487,1387,-440,315
635491,2029,1310,554,1416,-439,320
635508,1870,1189,452,1335,-434,304
635539,1850,1217,496,1377,-440,324
635557,1873,1237,546,1402,-433,326
635574,1890,1249,573,1400,-445,330
635591,1828,1208,589,1367,-424,327
635607,1759,1200,685,1430,-430,323
635623,1915,1411,779,1525,-428,350
635656,1917,1388,890,1582,-442,379
635673,1904,1383,937,1574,-426,384
635690,1803,1302,885,1516,-446,372
635705,1678,1233,856,1452,-427,358
635723,1549,1144,793,1395,-430,330
635740,1482,1091,709,1306,-427,333
635772,1451,975,621,1235,-429,335
635789,1150,948,594,1208,-430,295
635806,1465,1274,875,1441,-440,348
