TIME,AF3,F7,F3,F4,F8,AF4
3359999,1691,597,326,925,-356,247
3360034,1610,563,346,868,-399,198
3360051,1564,551,355,871,-478,153
3360067,1532,551,362,865,-524,134
3360084,1502,554,368,843,-576,99
3360100,1460,536,390,811,-647,56
3360117,1472,535,393,829,-643,59
3360149,1508,568,396,865,-548,116
3360167,1516,558,394,865,-526,124
3360184,1511,539,405,873,-519,128
3360200,1499,571,391,873,-500,145
3360217,1489,649,385,888,-485,155
3360233,1375,550,452,855,-578,99
3360265,1457,620,427,878,-536,144
3360283,1496,607,417,887,-541,167
3360300,1509,589,427,874,-510,183
3360317,1448,586,430,875,-527,163
3360334,1442,565,435,879,-529,156
3360350,1443,536,427,876,-539,119
3360383,1531,474,431,876,-610,104
3360401,1512,512,421,881,-604,126
3360418,1482,554,402,881,-596,150
3360435,1441,593,407,871,-617,144
3360452,1390,589,402,846,-549,114
3360468,1366,540,402,863,-576,103
3360500,1307,463,401,871,-585,80
3360517,1270,479,400,887,-604,66
3360533,1249,519,394,877,-603,59
3360550,1223,530,394,868,-599,46
3360566,1198,568,405,867,-628,39
3360583,1187,554,408,872,-633,36
3360600,1094,552,403,861,-639,30
3360631,1066,592,423,857,-684,11
3360648,1120,608,430,851,-684,0
3360666,1147,543,408,865,-715,-23
3360682,1178,499,422,842,-693,22
3360699,1066,480,424,867,-711,-8
3360716,1004,460,430,854,-694,-30
3360749,1090,362,443,860,-718,-42
3360766,1097,343,454,863,-707,-35
3360783,1114,333,452,874,-682,-9
3360799,1123,274,441,882,-671,-5
3360816,1118,253,443,876,-659,-3
3360832,1110,260,441,870,-645,-15
3360864,1118,276,432,864,-624,6
3360882,1119,305,422,865,-612,1
3360898,1117,296,419,871,-599,8
3360915,1122,304,418,875,-604,20
3360932,1060,322,405,880,-554,15
3360948,1014,281,480,840,-591,-1
3360981,980,233,441,849,-613,-22
3360999,1001,275,427,868,-593,8
3361015,1004,266,431,861,-588,8
3361031,998,235,441,870,-612,9
3361049,997,236,453,886,-630,14
3361065,969,177,460,859,-682,-32
3361081,973,191,460,855,-676,-7
3361114,1121,186,458,870,-657,-32
3361132,1116,184,448,878,-633,-23
3361147,1068,127,486,850,-671,-70
3361165,1093,176,445,880,-626,-21
3361181,1050,170,472,852,-636,-49
3361198,1065,198,467,860,-612,-30
3361230,1059,226,461,871,-564,-25
3361248,1052,214,459,879,-560,-7
3361263,1045,228,462,880,-535,-7
3361281,1044,241,451,865,-526,3
3361297,1048,258,453,854,-538,-6
3361314,1075,269,455,869,-538,9
3361331,1100,283,465,861,-571,25
3361363,1088,274,488,868,-603,27
3361381,1078,324,446,881,-551,20
3361398,1049,291,478,870,-582,-20
3361414,1055,338,440,880,-551,14
3361430,1003,312,456,871,-582,-16
3361447,1018,350,455,884,-582,-14
3361464,1015,395,457,874,-574,-17
3361645,974,537,422,887,-558,-20
3361664,918,612,427,858,-565,-47
3361680,918,612,427,858,-565,-47
3361697,918,612,427,858,-565,-47
3361713,918,612,427,858,-565,-47
3361730,918,612,427,858,-565,-47
3361746,918,612,427,858,-565,-47
3361778,918,612,427,858,-565,-47
3361797,918,612,427,858,-565,-47
3361813,918,612,427,858,-565,-47
3361830,918,612,427,858,-565,-47
3361846,918,612,427,858,-565,-47
3361863,918,612,427,858,-565,-47
3361879,918,612,427,858,-565,-47
3361912,918,612,427,858,-565,-47
3361930,918,612,427,858,-565,-47
3361946,918,612,427,858,-565,-47
3361963,918,612,427,858,-565,-47
3361980,918,612,427,858,-565,-47
3361996,918,612,427,858,-565,-47
3362013,918,612,427,858,-565,-47
3362044,918,612,427,858,-565,-47
3362063,918,612,427,858,-565,-47
3362079,918,612,427,858,-565,-47
3362096,918,612,427,858,-565,-47
3362112,918,612,427,858,-565,-47
3362128,918,612,427,858,-565,-47
3362161,898,636,428,861,-556,-36
3362179,838,681,440,852,-612,-46
3362195,834,658,437,863,-567,-24
3362212,797,673,453,863,-587,-43
3362228,747,800,441,875,-529,-11
3362245,696,853,436,873,-531,-29
3362277,684,1009,432,862,-521,9
3362295,680,1032,416,869,-490,-20
3362311,654,1019,410,862,-519,-36
3362329,660,1051,423,874,-511,-42
3362345,657,1032,414,873,-491,-48
3362362,693,1022,412,881,-474,-35
3362394,677,984,420,877,-478,-24
3362411,664,961,424,872,-478,-57
3362428,658,928,427,868,-483,-59
3362445,651,923,413,878,-458,-38
3362462,668,894,409,891,-446,-19
3362477,671,906,410,883,-453,-32
3362510,642,870,430,866,-460,-41
3362528,654,865,433,872,-460,-14
3362545,678,856,431,864,-462,0
3362561,693,881,441,870,-465,6
3362578,708,905,428,869,-460,11
3362595,706,910,434,870,-450,9
3362627,596,885,444,865,-438,-12
3362644,557,886,441,875,-428,-22
3362661,558,882,434,873,-427,-19
3362678,530,886,435,874,-416,-30
3362694,508,879,437,867,-442,-45
3362711,482,886,441,880,-434,-27
3362743,441,863,442,871,-424,-32
3362760,445,870,433,877,-415,-27
3362778,442,858,437,871,-414,-22
3362794,434,847,448,885,-407,-15
3362811,407,817,437,877,-428,-33
3362827,432,822,446,885,-387,-13
3362859,424,860,433,882,-402,-1
3362877,410,855,438,876,-421,-22
3362894,429,864,440,884,-399,1
3362910,429,859,441,879,-400,1
3362927,429,859,441,879,-400,1
3362944,429,859,441,879,-400,1
3362960,429,859,441,879,-400,1
3362992,429,859,441,879,-400,1
3363010,429,859,441,879,-400,1
3363028,372,910,446,878,-409,-26
3363044,388,934,435,872,-417,-14
3363060,405,921,443,872,-426,-16
3363078,404,908,447,875,-455,-21
3363094,395,906,445,871,-459,-13
3363125,403,914,443,875,-449,-15
3363143,410,916,438,876,-436,-3
3363160,393,895,443,873,-442,-18
3363176,406,911,438,879,-436,-10
3363192,420,917,426,886,-409,-9
3363210,423,917,425,880,-422,-16
3363242,434,913,428,875,-428,-14
3363259,415,913,435,864,-440,-43
3363276,417,919,434,872,-453,-36
3363292,399,927,437,866,-485,-51
3363309,407,937,421,867,-485,-38
3363326,406,920,430,867,-500,-36
3363358,410,881,437,852,-503,-51
3363376,407,909,440,858,-510,-47
3363393,394,889,439,850,-518,-37
3363409,405,886,436,870,-496,-36
3363426,403,870,432,857,-535,-41
3363443,393,868,437,870,-515,-65
3363475,371,853,432,860,-522,-40
3363492,386,863,436,857,-535,-59
3363509,374,851,436,830,-529,-49
3363526,375,871,430,843,-573,-70
3363542,369,867,439,838,-555,-62
3363559,359,860,441,841,-577,-84
3363591,349,860,437,839,-593,-94
3363609,374,871,435,836,-579,-87
3363625,368,843,436,830,-608,-102
3363642,357,864,433,835,-593,-94
3363659,345,863,434,825,-594,-108
3363675,336,856,435,831,-596,-96
3363707,329,846,439,835,-642,-119
3363724,338,860,441,824,-689,-102
3363741,348,857,439,834,-694,-123
3363758,346,871,440,826,-686,-113
3363775,318,835,434,834,-694,-131
3363792,336,833,435,828,-665,-108
3363824,335,828,441,834,-712,-117
3363841,349,844,435,832,-699,-108
3363858,333,830,431,825,-672,-109
3363874,313,862,428,832,-644,-106
3363891,289,853,428,836,-658,-114
3363908,293,860,438,838,-662,-111
3363940,290,845,432,829,-678,-110
3363958,293,853,441,825,-688,-108
3363975,279,851,440,806,-733,-134
3363991,282,856,443,817,-726,-135
3364007,275,851,441,819,-738,-136
3364024,289,848,432,815,-719,-148
3364056,302,823,431,813,-721,-149
3364073,337,834,442,812,-744,-145
3364090,328,805,435,820,-720,-157
3364108,347,790,438,823,-719,-153
3364124,336,794,439,822,-738,-149
3364141,299,776,444,810,-724,-173
3364173,310,766,445,819,-722,-162
3364191,330,753,441,807,-724,-164
3364207,331,757,441,821,-720,-155
3364224,332,767,442,814,-724,-157
3364240,320,730,448,820,-699,-174
3364257,345,657,449,824,-689,-159
3364289,354,657,447,812,-675,-170
3364307,343,665,437,802,-689,-170
3364323,313,624,441,790,-734,-211
3364340,208,520,434,700,-858,-323
3364357,261,503,428,695,-894,-250
3364374,210,554,425,732,-838,-296
3364406,243,553,430,742,-830,-275
3364423,274,610,429,763,-809,-253
3364440,146,473,430,677,-928,-370
3364457,41,374,429,602,-1043,-468
3364474,88,434,444,659,-1009,-424
3364490,127,543,450,760,-883,-357
3364522,200,562,437,727,-875,-282
3364539,217,566,438,729,-875,-304
3364556,229,588,438,750,-862,-296
3364573,204,554,449,731,-878,-291
3364590,189,574,448,741,-873,-290
3364607,176,559,456,752,-874,-282
3364639,184,586,449,765,-869,-269
3364656,186,599,443,762,-889,-275
3364673,187,585,454,754,-888,-275
3364690,188,613,452,754,-911,-276
3364707,186,593,450,753,-885,-277
3364723,202,608,450,762,-871,-272
3364755,193,585,448,753,-882,-275
3364773,196,577,446,766,-852,-276
3364790,195,578,449,756,-877,-288
3364806,187,586,451,758,-870,-272
3364823,216,606,443,766,-846,-262
3364840,182,584,442,745,-868,-281
3364871,185,559,449,754,-856,-277
3364889,202,586,449,769,-848,-273
3364905,226,568,436,757,-837,-269
3364922,258,566,439,770,-817,-253
3364939,300,562,431,765,-801,-243
3364956,334,581,441,758,-798,-233
3364988,367,576,433,764,-799,-214
3365005,338,564,432,758,-784,-223
3365022,318,555,430,759,-784,-232
3365039,289,545,430,761,-773,-244
3365055,290,546,428,774,-772,-245
3365072,279,547,427,765,-778,-248
3365104,257,528,441,757,-793,-266
3365122,259,532,433,778,-784,-257
3365138,258,551,433,769,-763,-258
3365155,255,569,432,777,-756,-261
3365172,258,576,430,787,-762,-249
3365188,259,593,431,770,-776,-249
3365221,245,579,432,753,-763,-252
3365238,240,591,436,756,-760,-242
3365255,248,602,433,770,-749,-238
3365272,251,594,430,782,-739,-232
3365288,273,579,430,768,-738,-217
3365305,262,569,432,768,-715,-229
3365337,248,565,432,773,-706,-225
3365354,243,551,427,771,-715,-240
3365370,244,536,440,759,-726,-249
3365388,253,533,440,766,-712,-228
3365404,269,547,439,777,-699,-219
3365421,301,592,433,808,-659,-176
3365454,320,628,433,833,-606,-136
3365471,341,611,435,832,-597,-122
3365488,363,654,432,867,-558,-98
3365505,357,662,427,850,-542,-93
3365521,365,678,416,853,-535,-101
3365538,329,601,415,896,-609,-167
3365570,672,915,425,1010,-241,192
3365587,496,844,423,916,-367,32
3365604,366,716,434,816,-510,-100
3365621,387,725,434,845,-501,-89
3365638,398,775,440,856,-494,-80
3365654,399,814,440,841,-538,-98
3365686,414,864,436,830,-651,-126
3365704,397,870,433,828,-640,-125
3365720,403,871,442,825,-635,-115
3365737,397,862,436,817,-650,-135
3365754,405,881,437,810,-647,-132
3365771,416,892,436,813,-652,-143
3365803,436,921,436,804,-663,-149
3365821,435,924,440,798,-664,-152
3365836,435,899,441,795,-682,-151
3365853,441,886,442,804,-669,-151
3365870,433,866,456,802,-675,-172
3365887,430,866,454,808,-666,-157
3365919,377,860,453,796,-659,-172
3365937,370,846,445,797,-651,-175
3365953,378,859,443,792,-626,-168
3365970,382,884,443,804,-624,-171
3365986,384,853,439,799,-632,-173
3366004,379,856,443,802,-629,-171
3366035,400,859,446,800,-638,-172
3366053,404,862,440,803,-672,-168
3366069,405,871,444,796,-624,-179
3366087,359,836,441,785,-577,-199
3366103,336,805,445,784,-539,-193
3366119,313,797,440,789,-532,-204
3366152,37,843,438,821,-463,-165
3366170,56,854,424,813,-452,-156
3366185,24,822,441,802,-465,-173
3366203,29,809,450,786,-466,-176
3366219,30,837,440,789,-465,-184
3366236,59,830,446,793,-439,-163
3366268,54,830,454,777,-456,-178
3366285,61,814,447,796,-433,-162
3366301,62,832,448,799,-446,-162
3366319,57,828,448,805,-442,-160
3366336,56,890,439,794,-452,-168
3366352,60,864,437,796,-452,-168
3366385,78,854,435,809,-467,-148
3366403,96,866,434,812,-448,-147
3366419,85,854,437,803,-443,-152
3366436,84,857,437,802,-443,-149
3366452,91,856,436,807,-440,-146
3366469,96,838,437,814,-440,-138
3366501,-7,872,440,804,-435,-128
3366519,-4,894,433,808,-440,-131
3366534,17,917,435,820,-421,-112
3366552,33,909,429,817,-409,-84
3366569,50,903,438,819,-397,-62
3366585,49,897,440,820,-395,-51
3366618,-66,957,439,819,-378,-32
3366635,-91,968,440,815,-402,-47
3366652,-109,950,438,813,-395,-54
3366668,-100,970,438,819,-391,-57
3366685,-90,962,440,812,-383,-61
3366702,-88,983,436,816,-387,-56
3366734,-73,979,439,803,-393,-56
3366751,-70,955,438,813,-408,-53
3366768,-59,920,435,812,-408,-68
3366784,-45,953,441,801,-420,-54
3366802,-18,943,437,814,-423,-48
3366818,-5,957,442,813,-427,-52
3366850,24,954,435,807,-432,-50
3366868,56,960,436,798,-413,-32
3366884,1,898,438,785,-469,-88
3366901,-6,869,432,763,-504,-128
3366918,26,887,435,797,-462,-88
3366934,-66,799,430,722,-577,-189
3366966,-77,800,421,734,-569,-186
3366984,33,907,420,804,-443,-77
3367000,-38,841,423,732,-532,-163
3367017,-8,806,420,724,-572,-179
3367034,-29,803,425,758,-557,-158
3367051,-41,768,417,710,-609,-204
3367083,-14,748,424,738,-615,-179
3367101,-12,733,428,741,-605,-173
3367116,-5,760,431,762,-588,-160
3367133,61,826,426,797,-524,-100
3367150,115,875,417,817,-449,-41
3367167,95,851,424,796,-485,-64
3367199,30,793,432,748,-562,-150
3367217,18,787,431,758,-569,-148
3367233,13,776,429,756,-586,-152
3367251,58,824,424,820,-524,-103
3367267,111,872,427,823,-464,-64
3367283,101,859,422,802,-480,-83
3367316,1,756,418,732,-624,-186
3367332,46,808,423,774,-568,-136
3367349,53,831,425,782,-537,-105
3367367,91,892,429,820,-485,-66
3367383,115,929,433,824,-440,-33
3367399,119,916,421,831,-449,-29
3367432,30,832,422,744,-587,-139
3367449,-6,802,426,737,-611,-157
3367467,17,833,428,764,-605,-121
3367483,23,831,429,765,-592,-128
3367500,51,879,430,800,-535,-73
3367517,41,873,429,811,-561,-84
3367548,-1,797,424,731,-638,-166
3367566,15,873,426,780,-615,-112
3367583,12,869,421,789,-616,-107
3367599,84,925,412,845,-534,-26
3367616,108,973,422,851,-504,-11
3367632,164,1022,427,889,-422,58
3367665,104,896,426,788,-552,-46
3367682,80,866,419,784,-606,-97
3367699,114,872,417,797,-591,-98
3367715,77,823,420,767,-636,-138
3367733,292,1040,430,923,-402,84
3367749,346,1111,431,974,-296,147
3367781,329,1087,430,916,-354,97
3367798,247,1009,431,849,-438,14
3367816,260,1000,431,839,-436,-3
3367832,256,1004,432,838,-441,-2
3367849,261,1013,429,833,-492,6
3367866,253,1008,436,828,-545,-11
3367898,248,1006,443,823,-538,-5
3367915,268,1025,429,835,-507,-3
3367932,280,1014,426,828,-531,8
3367948,283,1013,432,827,-539,-4
3367965,283,1006,430,824,-542,-3
3367982,287,1008,435,828,-537,-4
3368014,318,1037,421,834,-493,18
3368031,340,1047,414,835,-480,41
3368048,342,1052,407,824,-455,32
3368065,349,1029,405,818,-431,31
3368081,332,1006,416,810,-434,26
3368098,327,997,416,825,-416,36
3368130,276,1007,413,812,-420,-7
3368147,271,1014,398,817,-440,-6
3368164,275,1009,402,827,-432,5
3368181,253,988,403,823,-464,-9
3368198,264,1006,404,824,-463,-3
3368214,260,1000,402,823,-454,-10
3368247,270,1007,401,819,-451,-18
3368265,252,996,396,805,-466,-34
3368282,248,981,402,807,-484,-31
3368298,241,983,400,798,-496,-29
3368314,232,962,404,800,-527,-46
3368331,221,950,412,802,-526,-40
3368364,221,934,419,798,-536,-39
3368381,239,959,413,803,-534,-41
3368398,213,956,409,816,-534,-39
3368414,207,946,426,798,-541,-55
3368431,208,920,422,802,-554,-46
3368448,198,934,421,815,-538,-41
3368479,213,950,421,824,-562,-31
3368496,211,938,425,800,-557,-27
3368514,222,934,425,796,-564,-38
3368530,227,913,424,804,-552,-34
3368547,257,933,410,806,-561,-19
3368564,304,952,420,812,-549,0
3368596,341,957,425,810,-569,5
3368614,370,962,415,811,-545,15
3368630,362,928,416,810,-562,9
3368647,340,924,417,817,-548,3
3368664,321,939,419,817,-516,-6
3368680,306,917,419,814,-536,-22
3368713,287,905,425,822,-551,-22
3368730,296,911,416,821,-551,-15
3368747,312,925,409,829,-533,-13
3368763,310,916,410,815,-534,-13
3368780,328,927,411,823,-532,4
3368797,337,916,407,810,-545,-10
3368829,314,897,412,810,-548,-17
3368846,326,901,412,811,-549,-8
3368863,304,917,415,806,-549,-18
3368880,315,903,406,805,-537,-4
3368896,311,893,409,814,-540,-9
3368913,307,874,410,800,-550,-28
3368945,311,846,420,804,-571,-28
3368963,314,849,419,806,-576,-32
3368980,306,833,426,808,-565,-26
3368996,302,844,429,808,-551,-29
3369013,285,826,433,794,-552,-34
3369029,303,836,428,812,-529,-25
3369061,329,841,410,815,-499,-19
3369079,340,848,419,816,-481,3
3369095,341,849,414,813,-491,0
3369113,338,860,411,803,-496,-8
3369129,348,859,414,810,-474,5
3369145,334,852,412,808,-507,-12
3369178,341,861,406,810,-477,-16
3369196,349,862,408,808,-479,-2
3369211,345,863,409,808,-484,-5
3369228,356,859,412,814,-479,13
3369245,347,860,405,804,-480,10
3369262,349,867,413,803,-496,-1
3369295,345,869,410,803,-498,-10
3369312,342,872,407,806,-497,-11
3369329,344,879,403,807,-481,-4
3369345,329,872,410,806,-493,-3
3369362,321,866,425,803,-524,-11
3369378,317,866,417,804,-517,-27
3369411,335,831,423,809,-508,-4
3369427,322,831,408,811,-500,-14
3369445,333,830,410,806,-499,-21
3369462,341,841,400,809,-496,-4
3369477,344,835,409,802,-494,-12
3369495,350,811,418,793,-496,-17
3369527,341,833,416,802,-479,-18
3369543,338,801,415,803,-486,-35
3369561,362,821,412,807,-460,-5
3369577,346,802,417,811,-469,-9
3369595,348,794,417,813,-475,2
3369612,333,784,427,807,-486,0
3369644,334,783,428,813,-476,6
3369661,321,768,427,807,-480,-5
3369678,330,783,430,806,-485,-4
3369695,318,757,429,812,-484,-20
3369711,322,775,430,812,-472,3
3369728,318,773,428,806,-476,-5
3369745,316,758,434,817,-485,2
3369793,308,764,434,798,-477,-29
3369811,302,754,440,807,-460,-16
3369826,315,764,433,789,-480,-33
3369844,305,751,435,797,-471,-22
3369861,309,732,438,804,-470,-15
3369877,322,735,439,801,-467,-9
3369894,313,721,437,798,-458,-12
3369926,326,716,433,810,-454,6
3369943,332,698,428,805,-438,9
3369961,337,698,433,812,-425,32
3369977,329,687,429,803,-427,20
3369994,336,701,424,814,-414,29
3370010,321,702,426,805,-418,26
3370042,295,702,428,801,-424,25
3370059,302,693,429,811,-418,33
3370076,301,696,429,801,-414,25
3370094,308,696,422,816,-404,27
3370110,299,699,422,806,-402,23
3370127,300,713,422,798,-416,15
3370159,275,703,428,799,-431,-6
3370177,263,705,425,801,-417,-6
3370193,247,683,433,799,-436,-10
3370210,255,672,431,790,-446,-7
3370227,266,644,434,804,-450,-5
3370243,269,584,440,803,-468,2
3370275,260,535,450,786,-481,-14
3370293,290,534,453,802,-440,1
3370309,288,531,457,803,-476,-13
3370326,298,537,448,815,-464,-4
3370343,310,548,447,799,-468,-3
3370360,310,572,440,785,-438,4
3370392,301,574,447,807,-440,-1
3370410,293,561,455,786,-440,-17
3370426,290,553,452,803,-441,-11
3370442,288,570,443,794,-433,-19
3370459,294,566,445,791,-414,-9
3370476,316,568,436,801,-423,5
3370508,305,566,442,805,-387,-1
3370526,311,553,437,805,-368,4
3370542,324,551,440,794,-372,0
3370559,326,554,442,815,-368,10
3370575,342,567,439,805,-347,19
3370593,339,577,437,803,-354,17
3370624,372,611,430,818,-318,25
3370642,352,620,425,801,-329,9
3370659,364,630,422,798,-310,7
3370676,369,644,428,788,-306,1
3370692,368,650,435,795,-332,3
3370708,368,625,428,803,-325,14
3370741,341,605,436,800,-361,-2
3370759,337,604,434,784,-388,-18
3370774,326,595,438,786,-381,-27
3370792,322,575,450,776,-390,-29
3370809,319,592,452,775,-406,-33
3370824,290,554,456,771,-419,-46
3370858,274,560,469,769,-443,-76
3370875,239,540,469,782,-442,-87
3370892,258,541,473,779,-477,-102
3370908,225,536,481,761,-474,-114
3370925,222,513,490,772,-505,-130
3370942,219,536,498,752,-503,-127
3370973,171,484,501,761,-554,-155
3370990,173,491,509,766,-548,-147
3371007,185,525,517,777,-537,-141
3371025,94,416,527,693,-677,-245
3371041,-51,261,525,588,-838,-397
3371058,-737,-527,525,592,-1753,-1165
3371091,-80,266,551,690,-879,-377
3371107,-66,193,569,651,-947,-440
3371125,-53,221,567,665,-927,-418
3371141,-28,219,560,671,-900,-393
3371158,-25,245,558,668,-884,-395
3371174,-8,280,568,681,-893,-389
3371206,-4,297,560,706,-863,-379
3371224,30,351,541,716,-840,-356
3371240,25,355,539,724,-827,-346
3371257,59,391,516,739,-792,-327
3371274,57,404,511,733,-782,-331
3371291,69,395,513,740,-759,-318
3371323,53,383,512,723,-756,-336
3371341,57,391,500,726,-718,-318
3371357,57,410,489,731,-719,-332
3371374,65,423,481,735,-715,-307
3371391,61,424,478,733,-730,-323
3371407,65,424,477,735,-777,-326
3371443,62,400,465,737,-784,-332
3371457,43,380,475,716,-796,-340
3371474,28,326,469,715,-839,-366
3371490,5,321,469,723,-852,-367
3371507,4,307,462,705,-878,-392
3371524,10,302,478,728,-856,-379
3371540,11,338,457,726,-879,-387
3371572,12,341,458,733,-860,-373
3371590,35,357,458,729,-848,-374
3371607,18,350,462,727,-868,-381
3371624,19,370,462,719,-880,-400
3371640,17,376,465,728,-877,-376
3371657,22,404,467,724,-891,-395
3371673,21,433,467,730,-885,-385
3371705,1,486,471,722,-891,-413
3371722,-3,529,465,729,-887,-412
3371740,-18,571,457,726,-907,-416
3371756,-16,559,461,730,-924,-412
3371774,-44,582,474,729,-919,-434
3371789,-37,598,461,732,-909,-437
3371806,-54,605,464,720,-915,-434
3371871,-58,621,458,728,-927,-463
3371888,-74,612,457,732,-931,-447
3371905,-116,608,452,725,-919,-447
3371922,-116,610,448,721,-919,-447
3371939,-116,610,448,721,-919,-447
3371956,-116,610,448,721,-919,-447
3371988,-116,610,448,721,-919,-447
3372005,-116,610,448,721,-919,-447
3372022,-116,610,448,721,-919,-447
3372039,-116,610,448,721,-919,-447
3372055,-116,610,448,721,-919,-447
3372072,-116,610,448,721,-919,-447
3372104,-116,610,448,721,-919,-447
3372122,-116,610,448,721,-919,-447
3372138,-116,610,448,721,-919,-447
3372155,-116,610,448,721,-919,-447
3372172,-116,610,448,721,-919,-447
3372188,-116,610,448,721,-919,-447
3372220,-116,610,448,721,-919,-447
3372238,-116,610,448,721,-919,-447
3372255,-116,610,448,721,-919,-447
3372272,-116,610,448,721,-919,-447
3372288,-116,610,448,721,-919,-447
3372305,-116,610,448,721,-919,-447
3372337,-116,610,448,721,-919,-447
3372353,-116,610,448,721,-919,-447
3372371,-116,610,448,721,-919,-447
3372388,-116,610,448,721,-919,-447
3372404,-116,610,448,721,-919,-447
3372420,-116,610,448,721,-919,-447
3372453,-94,629,433,733,-905,-463
3372471,-70,599,442,728,-922,-487
3372486,-93,549,449,742,-916,-474
3372504,-48,513,454,715,-932,-513
3372520,-19,480,469,725,-938,-519
3372538,52,456,465,725,-960,-539
3372570,81,467,453,715,-937,-538
3372587,102,470,447,712,-941,-564
3372604,149,459,442,713,-928,-559
3372621,161,434,447,714,-933,-566
3372637,188,446,451,711,-923,-567
3372654,193,440,452,713,-913,-564
3372687,176,461,448,724,-910,-564
3372704,162,449,447,726,-896,-561
3372720,140,458,444,735,-892,-545
3372737,119,460,446,733,-867,-568
3372754,126,468,443,731,-875,-564
3372770,114,473,447,708,-868,-587
3372802,94,463,445,726,-861,-589
3372820,76,449,449,735,-840,-575
3372836,49,471,446,731,-841,-576
3372853,43,469,443,740,-845,-576
3372870,58,477,445,738,-826,-559
3372887,50,479,444,741,-822,-566
3372919,22,474,442,733,-814,-572
3372939,21,486,437,727,-791,-565
3372953,19,494,445,736,-844,-566
3372969,26,492,448,741,-858,-553
3372987,29,489,446,730,-872,-555
3373003,69,499,443,742,-843,-535
3373035,118,490,448,730,-875,-561
3373053,163,472,458,724,-895,-560
3373069,200,460,451,727,-877,-543
3373085,226,466,443,719,-877,-541
3373103,243,472,443,729,-858,-547
3373120,239,457,443,731,-867,-534
3373152,215,437,443,733,-862,-530
3373170,219,439,444,727,-861,-532
3373186,217,448,438,729,-822,-525
3373203,215,442,443,721,-833,-525
3373219,216,452,442,728,-845,-532
3373235,220,447,456,735,-853,-530
3373252,211,436,455,738,-841,-530
3373284,215,439,447,732,-822,-528
3373302,215,439,447,732,-822,-528
3373318,215,439,447,732,-822,-528
3373336,215,439,447,732,-822,-528
3373352,215,439,447,732,-822,-528
3373369,215,439,447,732,-822,-528
3373386,215,439,447,732,-822,-528
3373417,215,439,447,732,-822,-528
3373435,215,439,447,732,-822,-528
3373452,215,439,447,732,-822,-528
3373468,215,439,447,732,-822,-528
3373485,215,439,447,732,-822,-528
3373502,215,439,447,732,-822,-528
3373519,215,439,447,732,-822,-528
3373551,215,439,447,732,-822,-528
3373568,215,439,447,732,-822,-528
3373585,215,439,447,732,-822,-528
3373602,215,439,447,732,-822,-528
3373618,215,439,447,732,-822,-528
3373635,215,439,447,732,-822,-528
3373652,215,439,447,732,-822,-528
3373684,215,439,447,732,-822,-528
3373702,215,439,447,732,-822,-528
3373717,215,439,447,732,-822,-528
3373735,215,439,447,732,-822,-528
3373751,215,439,447,732,-822,-528
3373768,215,439,447,732,-822,-528
3373800,215,439,447,732,-822,-528
3373818,215,439,447,732,-822,-528
3373834,215,439,447,732,-822,-528
3373850,215,439,447,732,-822,-528
3373867,215,439,447,732,-822,-528
3373884,215,439,447,732,-822,-528
3373901,215,439,447,732,-822,-528
3373933,215,439,447,732,-822,-528
3373951,215,439,447,732,-822,-528
3373968,215,439,447,732,-822,-528
3373984,215,439,447,732,-822,-528
3374001,215,439,447,732,-822,-528
3374017,215,439,447,732,-822,-528
3374049,215,439,447,732,-822,-528
3374066,215,439,447,732,-822,-528
3374083,215,439,447,732,-822,-528
3374101,215,439,447,732,-822,-528
3374117,213,426,451,747,-800,-504
3374134,180,476,444,730,-794,-537
3374166,120,482,456,737,-717,-506
3374184,54,485,444,745,-671,-472
3374200,17,471,437,764,-609,-440
3374217,253,470,447,768,-642,-463
3374234,183,473,437,790,-635,-478
3374250,145,477,448,784,-650,-504
3374283,121,478,458,764,-689,-527
3374300,117,459,457,766,-673,-512
3374317,117,464,450,775,-669,-508
3374334,133,489,446,792,-654,-497
3374350,162,519,441,817,-617,-440
3374367,175,549,446,817,-563,-435
3374398,189,586,443,849,-528,-407
3374415,174,599,444,841,-509,-388
3374433,179,609,442,834,-497,-388
3374450,210,665,436,880,-440,-328
3374466,176,615,437,838,-485,-366
3374483,139,603,447,892,-509,-381
3374516,290,750,435,931,-324,-225
3374533,265,770,429,910,-334,-227
3374550,234,718,424,878,-384,-258
3374566,225,728,432,864,-395,-262
3374583,315,823,441,933,-305,-162
3374599,293,789,441,902,-335,-187
3374631,281,786,447,866,-342,-181
3374649,229,736,447,843,-422,-219
3374665,204,698,458,815,-457,-227
3374682,217,722,452,837,-459,-199
3374699,208,719,456,826,-490,-204
3374716,282,816,439,887,-394,-117
3374748,310,866,452,905,-327,-56
3374765,229,782,467,838,-417,-139
3374782,250,800,448,832,-378,-118
3374799,159,724,451,805,-456,-189
3374815,263,837,445,886,-322,-57
3374833,211,796,443,829,-402,-95
3374864,287,927,439,884,-299,9
3374882,295,951,444,877,-274,-10
3374899,273,893,452,836,-375,-46
3374915,326,890,449,827,-373,-94
3374931,387,923,453,842,-361,-72
3374948,409,933,444,834,-349,-78
3374980,437,977,438,895,-358,-59
3374997,433,985,444,887,-359,-49
3375015,417,1009,437,878,-350,-31
3375032,401,1023,435,884,-347,-38
3375047,387,1049,439,872,-344,-12
3375065,374,1054,438,866,-357,-28
3375097,395,1052,438,853,-347,-12
3375115,389,1015,440,866,-350,7
3375130,400,999,446,859,-351,6
3375147,411,988,437,871,-372,33
3375164,402,991,444,861,-388,23
3375180,385,1025,441,857,-365,36
3375213,357,986,443,854,-344,59
3375231,337,963,444,856,-356,63
3375247,350,986,442,859,-366,69
3375264,341,955,443,860,-354,74
3375281,355,975,444,861,-360,77
3375298,356,985,439,860,-359,80
3375330,342,970,435,868,-338,114
3375347,329,977,438,863,-357,125
3375364,311,969,439,867,-336,151
3375381,284,978,434,853,-324,142
3375397,271,995,433,848,-303,117
3375414,257,999,433,853,-287,117
3375446,239,987,441,850,-284,126
3375464,247,984,438,858,-278,141
3375481,239,953,441,853,-283,145
3375497,253,959,444,863,-286,161
3375514,252,978,443,859,-312,148
3375531,258,992,445,856,-307,155
3375563,241,992,448,855,-317,142
3375580,239,992,446,847,-307,148
3375597,232,984,447,851,-309,156
3375614,244,992,440,858,-275,171
3375630,239,975,445,856,-291,170
3375647,251,973,447,865,-278,183
3375679,248,1003,457,854,-286,170
3375697,260,1003,452,862,-262,182
3375713,273,1011,444,847,-276,177
3375730,292,1006,454,853,-256,179
3375747,333,1025,450,842,-256,200
3375763,376,1022,447,840,-257,214
3375796,421,997,446,861,-238,251
3375813,385,969,446,844,-236,224
3375829,378,972,435,851,-239,222
3375846,347,950,441,853,-265,209
3375863,336,940,444,841,-279,185
3375880,332,939,448,854,-277,188
3375912,336,945,446,859,-266,214
3375930,297,909,449,862,-278,174
3375946,290,889,444,835,-290,182
3375964,287,915,446,854,-282,194
3375979,273,869,453,846,-314,174
3375996,136,713,445,748,-474,52
3376028,119,681,436,764,-500,22
3376046,104,669,439,739,-503,11
3376062,165,742,436,811,-432,94
3376079,178,712,430,794,-461,95
3376096,152,689,428,774,-472,47
3376113,92,659,426,742,-505,19
3376145,139,689,436,778,-457,76
3376163,127,680,439,773,-476,75
3376178,98,663,438,755,-504,47
3376196,-53,499,442,648,-697,-117
3376212,-110,502,460,694,-711,-174
3376230,-13,521,458,712,-658,-44
3376261,20,574,463,759,-589,22
3376278,9,573,462,758,-599,6
3376294,7,574,458,770,-597,13
3376312,10,561,464,768,-598,22
3376328,21,560,464,775,-581,32
3376345,25,563,456,771,-546,48
3376378,19,564,449,771,-544,59
3376395,19,579,447,775,-538,50
3376411,26,594,444,785,-504,73
3376429,32,562,453,789,-519,62
3376445,13,568,449,777,-518,52
3376462,20,571,459,771,-523,42
3376494,8,564,453,789,-509,33
3376511,3,564,450,772,-498,33
3376528,16,591,447,784,-501,27
3376545,24,601,447,795,-504,33
3376562,12,568,440,783,-505,48
3376578,1,567,457,789,-486,31
3376611,4,565,451,787,-503,13
3376628,26,560,440,796,-515,35
3376644,39,546,447,805,-463,68
3376661,28,552,450,773,-480,28
3376678,20,560,456,775,-502,13
3376695,18,548,454,785,-511,24
3376727,28,543,454,786,-497,29
3376744,30,562,455,782,-511,41
3376761,29,562,454,796,-477,32
3376777,22,560,452,781,-484,26
3376795,36,559,448,785,-469,29
3376811,32,574,448,789,-467,22
3376843,29,593,447,800,-464,21
3376861,29,603,449,792,-462,4
3376878,30,598,438,805,-441,26
3376894,28,605,438,794,-429,10
3376910,-15,581,442,788,-443,11
3376927,-24,598,455,795,-440,23
3376959,-42,576,450,795,-427,18
3376976,-52,577,442,793,-441,18
3376993,-36,592,448,786,-437,0
3377010,-39,560,454,790,-438,14
3377027,-51,554,441,788,-430,2
3377043,-42,563,453,795,-432,5
3377076,-6,560,453,797,-434,18
3377094,-18,559,460,788,-433,3
3377110,-15,547,458,797,-447,0
3377126,-32,559,464,780,-440,-9
3377143,-24,569,459,793,-436,4
3377160,-7,574,449,787,-466,4
3377192,-15,569,450,784,-448,0
3377210,-22,559,452,793,-435,-12
3377226,-29,562,460,780,-466,-24
3377242,-24,572,459,797,-461,-2
3377260,-26,589,454,787,-448,-14
3377276,-34,596,458,787,-435,-11
3377309,-22,600,459,796,-446,-15
3377326,-6,595,462,794,-471,-14
3377343,0,589,446,794,-442,-5
3377360,11,598,458,793,-459,-11
3377376,7,573,457,805,-473,-33
3377393,37,594,446,806,-445,-8
3377425,-1,564,454,798,-475,-29
3377443,-2,562,457,789,-480,-33
3377460,12,560,455,785,-469,-24
3377476,7,591,444,786,-455,-31
3377493,7,587,453,783,-453,-29
3377509,1,565,442,788,-439,-29
3377542,14,558,443,788,-440,-42
3377559,51,548,454,770,-470,-66
3377576,91,528,454,788,-454,-54
3377592,128,525,449,773,-477,-65
3377609,160,516,447,793,-477,-60
3377626,185,526,442,776,-482,-84
3377658,215,512,441,774,-467,-91
3377675,208,512,443,782,-483,-97
3377691,218,488,444,780,-475,-95
3377708,208,500,450,787,-460,-100
3377725,205,491,444,802,-462,-80
3377742,196,499,446,802,-474,-89
3377775,170,475,456,787,-465,-101
3377792,160,485,451,791,-440,-91
3377808,129,496,442,788,-435,-92
3377825,122,492,452,803,-426,-81
3377842,81,470,457,787,-455,-105
3377858,50,444,462,779,-476,-123
3377890,61,467,463,800,-459,-85
3377907,61,453,458,793,-463,-97
3377925,56,459,451,793,-442,-86
3377941,37,454,457,801,-439,-100
3377958,51,451,453,796,-444,-96
3377975,50,467,450,788,-436,-96
3378007,53,475,439,790,-402,-89
3378025,-9,422,435,854,-475,-168
3378040,180,640,433,890,-219,46
3378058,343,817,437,963,-31,217
3378074,427,881,431,1010,58,275
3378091,324,749,426,898,-88,151
3378123,342,794,431,922,-76,161
3378140,352,835,439,942,-23,187
3378157,430,910,429,992,68,257
3378173,439,952,434,994,124,283
3378191,348,862,448,934,45,180
3378207,303,812,461,909,-20,151
3378239,296,811,439,899,1,110
3378256,296,841,431,897,-2,91
3378273,261,826,446,879,-33,74
3378291,262,813,445,886,-3,83
3378307,287,857,431,890,-5,95
3378324,270,835,421,876,8,100
3378356,230,788,452,863,-13,79
3378373,203,755,471,852,-66,55
3378389,217,807,480,902,-22,110
3378407,119,680,486,803,-153,-4
3378424,139,708,490,313,-100,35
3378440,-464,-5,476,386,-912,-597
3378473,-117,354,496,763,-538,-171
3378490,-89,414,463,813,-456,-140
3378507,24,654,242,783,-210,-67
3378524,-278,246,523,595,-644,-324
3378540,689,1370,269,1342,555,654
3378557,324,960,436,584,204,292
3378589,-355,106,508,548,-789,-422
3378606,-94,412,493,800,-462,-128
3378623,-104,402,482,786,-494,-144
3378640,-121,366,482,757,-485,-166
3378656,-101,404,464,766,-456,-147
3378673,-62,446,441,777,-416,-130
3378706,-86,419,458,767,-437,-164
3378723,-107,377,482,763,-487,-177
3378740,-124,362,492,773,-483,-165
3378756,-128,357,498,773,-476,-169
3378773,-114,355,492,780,-464,-170
3378789,-97,388,465,781,-438,-153
3378822,-60,378,451,785,-407,-130
3378838,-69,342,482,766,-431,-143
3378856,-68,321,492,780,-455,-137
3378872,-47,318,494,777,-477,-126
3378889,-38,320,468,802,-435,-108
3378906,-9,342,438,804,-381,-80
3378938,-26,349,450,792,-379,-112
3378955,-15,302,461,785,-405,-110
3378972,14,289,481,781,-414,-90
3378989,35,298,461,804,-370,-62
3379005,36,306,431,818,-350,-59
3379022,26,343,417,814,-316,-63
3379054,-28,326,426,799,-348,-116
3379072,-45,289,433,799,-356,-109
3379088,-67,282,435,792,-373,-132
3379106,-95,247,470,790,-400,-155
3379122,-145,191,495,780,-453,-189
3379138,-164,193,498,771,-483,-202
3379171,-109,268,447,814,-400,-164
3379189,-111,279,433,806,-384,-154
3379204,-119,262,454,784,-420,-187
3379222,-148,229,479,787,-466,-212
3379238,-158,198,499,788,-506,-223
3379255,-165,198,492,789,-506,-223
3379287,-147,227,482,794,-480,-223
3379305,-138,247,467,807,-460,-217
3379320,-153,238,464,799,-434,-222
3379338,-157,251,478,796,-437,-233
3379355,-174,227,494,786,-465,-235
3379372,-186,234,496,781,-487,-262
3379403,-192,253,489,797,-485,-272
3379420,-179,267,485,800,-448,-257
3379437,-156,282,463,799,-434,-242
3379455,-154,314,456,795,-409,-245
3379471,-148,311,452,793,-415,-247
3379487,-158,321,452,797,-412,-261
3379520,-149,339,437,792,-408,-256
3379537,-158,370,430,785,-394,-261
3379553,-154,355,437,794,-411,-253
3379571,-171,349,444,787,-415,-279
3379588,-149,363,434,803,-402,-261
3379603,-134,395,424,803,-367,-251
3379637,-136,410,413,790,-359,-235
3379655,-125,438,397,791,-369,-254
3379670,-107,469,405,793,-353,-255
3379687,-108,458,391,790,-340,-255
3379704,-91,496,398,792,-334,-258
3379721,-95,479,400,783,-342,-266
3379753,-141,455,426,784,-380,-292
3379770,-143,411,448,784,-405,-289
3379787,-159,427,462,788,-441,-316
3379804,-161,432,462,802,-441,-291
3379820,-162,426,483,797,-459,-315
3379837,-166,426,481,800,-472,-321
3379870,-156,435,485,797,-482,-321
3379887,-154,454,480,783,-472,-332
3379904,-153,447,480,786,-470,-321
3379920,-158,453,481,781,-474,-342
3379937,-166,446,484,790,-491,-330
3379953,-168,458,476,778,-474,-350
3379985,-186,487,474,776,-468,-354
3380002,-188,481,470,787,-455,-360
3380020,-189,508,468,783,-482,-369
3380036,-216,499,467,780,-474,-375
3380053,-236,513,473,777,-479,-392
3380071,-221,505,473,791,-466,-391
3380102,-225,476,482,792,-453,-401
3380118,-225,485,470,790,-472,-396
3380135,-212,497,476,775,-452,-399
3380153,-221,500,468,783,-458,-399
3380169,-219,494,469,788,-451,-410
3380186,-192,515,467,793,-433,-401
3380219,-170,536,455,794,-410,-404
3380236,-162,536,463,805,-400,-398
3380253,-156,545,463,802,-428,-408
3380269,-167,550,462,804,-412,-405
3380286,-161,596,465,798,-405,-415
3380303,-157,609,459,795,-395,-412
3380334,-126,648,451,813,-393,-401
3380351,-134,633,450,805,-399,-423
3380369,-135,630,450,799,-407,-429
3380386,-137,633,458,792,-403,-438
3380402,-119,629,457,793,-413,-433
3380419,-130,622,458,801,-400,-431
3380451,-117,622,463,804,-388,-419
3380469,-119,626,475,806,-421,-431
3380486,-140,595,472,797,-430,-438
3380502,-131,613,474,808,-433,-428
3380519,-135,597,475,805,-433,-423
3380536,-120,601,475,814,-430,-428
3380568,-100,595,475,815,-426,-412
3380585,-103,594,480,805,-437,-420
3380601,-96,594,482,808,-459,-433
3380619,-85,606,477,811,-433,-399
3380635,-91,605,485,806,-438,-412
3380652,-100,599,474,802,-431,-405
3380684,-87,618,464,808,-438,-403
3380701,-69,624,464,816,-436,-385
3380717,-62,644,460,815,-438,-380
3380735,-70,635,461,818,-424,-377
3380752,-85,655,452,820,-432,-384
3380768,-78,637,454,807,-410,-369
3380800,-64,657,454,814,-415,-368
3380818,-60,660,453,804,-412,-370
3380834,-62,680,451,806,-408,-370
3380851,-63,676,441,819,-396,-360
3380868,-50,663,448,819,-390,-355
3380885,-47,686,441,818,-379,-366
3380917,-47,672,439,817,-406,-368
3380933,-60,672,451,821,-404,-353
3380951,-47,677,454,828,-402,-351
3380968,-33,667,451,819,-400,-344
3380984,-52,686,455,811,-410,-356
3381001,-52,688,454,811,-410,-348
3381033,-54,699,450,810,-394,-337
3381051,-67,660,458,810,-415,-354
3381067,-73,676,460,816,-407,-350
3381084,-79,693,455,824,-409,-346
3381101,-65,712,453,821,-407,-330
3381117,-60,706,453,815,-402,-332
3381150,-71,711,454,817,-406,-310
3381167,-84,727,457,812,-433,-297
3381184,-93,711,448,806,-408,-296
3381201,-80,726,444,811,-414,-296
3381217,-67,739,445,817,-404,-290
3381234,-62,741,444,821,-423,-299
3381265,-85,745,443,814,-420,-288
3381282,-67,732,449,826,-408,-263
3381300,-61,749,449,824,-412,-267
3381317,-72,747,454,812,-437,-281
3381334,-61,760,453,812,-416,-262
3381350,-75,775,449,816,-439,-275
3381383,-70,798,443,817,-440,-260
3381400,-67,790,446,816,-480,-266
3381417,-63,785,451,826,-470,-263
3381433,-72,775,450,821,-469,-267
3381450,-92,758,453,811,-457,-266
3381467,-77,779,452,820,-477,-268
3381499,-60,783,449,827,-486,-255
3381516,-70,773,462,832,-496,-257
3381532,-67,786,453,834,-492,-253
3381550,-70,808,459,821,-490,-243
3381566,-48,802,452,833,-490,-234
3381583,-36,838,454,841,-467,-210
3381615,59,974,449,910,-322,-104
3381633,103,1035,453,936,-202,-35
3381649,153,1095,451,962,-151,-9
3381665,179,1126,443,971,-99,11
3381683,176,1138,443,960,-77,12
3381699,159,1102,444,935,-117,-20
3381781,255,1248,451,949,44,76
3381798,200,1181,446,896,-34,10
3381814,245,1255,454,942,15,59
3381831,280,1294,445,976,47,110
3381849,246,1274,448,942,-7,60
3381865,247,1284,449,939,9,73
3381897,222,1318,445,926,-13,66
3381915,236,1331,436,930,1,58
3381931,237,1348,442,918,-27,60
3381949,224,1349,443,918,-18,71
3381965,217,1341,442,913,-58,61
3381982,231,1329,439,907,-56,71
3382014,214,1317,437,899,-64,68
3382032,221,1317,441,914,-70,69
3382047,212,1313,444,912,-59,72
3382065,199,1314,442,894,-87,62
3382082,205,1296,450,912,-74,70
3382098,172,1285,453,892,-87,48
3382130,181,1270,458,906,-111,64
3382148,172,1263,462,894,-138,59
3382164,183,1260,465,902,-142,64
3382181,183,1260,465,902,-142,64
3382198,183,1260,465,902,-142,64
3382214,183,1260,465,902,-142,64
3382247,183,1260,465,902,-142,64
3382265,183,1260,465,902,-142,64
3382280,183,1260,465,902,-142,64
3382298,183,1260,465,902,-142,64
3382315,183,1260,465,902,-142,64
3382331,183,1260,465,902,-142,64
3382363,183,1260,465,902,-142,64
3382381,183,1260,465,902,-142,64
3382397,183,1260,465,902,-142,64
3382414,183,1260,465,902,-142,64
3382430,183,1260,465,902,-142,64
3382447,183,1260,465,902,-142,64
3382479,183,1260,465,902,-142,64
3382496,183,1260,465,902,-142,64
3382514,183,1260,465,902,-142,64
3382530,183,1260,465,902,-142,64
3382546,183,1260,465,902,-142,64
3382564,183,1260,465,902,-142,64
3382596,183,1260,465,902,-142,64
3382614,183,1260,465,902,-142,64
3382630,183,1260,465,902,-142,64
3382647,183,1260,465,902,-142,64
3382663,183,1260,465,902,-142,64
3382680,181,1255,461,902,-138,64
3382712,85,1177,452,887,-150,50
3382729,60,1169,457,887,-163,74
3382747,34,1164,452,897,-134,92
3382763,-115,1145,458,892,-134,101
3382780,-103,1122,463,876,-141,71
3382796,-87,1117,460,870,-150,67
3382828,-77,1121,457,871,-171,62
3382845,-76,1118,462,876,-147,59
3382863,-78,1098,461,866,-163,57
3382880,-75,1100,460,875,-156,61
3382896,-72,1108,461,877,-146,66
3382912,-71,1114,461,873,-160,59
3382945,-58,1109,461,878,-165,57
3382962,-56,1109,458,874,-174,66
3382979,-65,1094,462,871,-158,60
3382995,-70,1109,461,876,-153,68
3383012,-76,1096,460,868,-146,53
3383029,-76,1104,454,872,-132,65
3383046,-82,1083,452,870,-116,67
3383078,-83,1094,453,872,-125,67
3383096,-71,1069,460,867,-102,55
3383112,-95,1070,461,881,-110,58
3383129,-98,1061,465,880,-113,55
3383146,-97,1060,460,879,-113,54
3383162,-101,1072,465,883,-113,46
3383179,-119,1064,465,873,-86,67
3383211,-191,949,461,850,-177,3
3383229,-203,925,455,828,-210,-34
3383245,-200,935,450,839,-228,-31
3383262,-293,822,448,758,-328,-117
3383279,-219,912,447,830,-221,-14
3383295,-41,1102,455,986,-11,182
3383328,-105,985,454,834,-118,93
3383345,-120,1030,458,884,-55,59
3383362,-92,1048,456,913,-24,96
3383378,-81,1036,462,902,-43,89
3383395,-87,1054,460,901,-47,86
3383412,-76,1065,462,901,-30,90
3383444,-224,876,465,779,-204,-72
3383462,-265,808,448,777,-258,-112
3383477,-290,883,448,834,-201,-42
3383495,-253,856,442,809,-227,-74
3383511,-302,817,441,772,-291,-138
3383528,-316,774,439,769,-300,-129
3383560,-190,917,448,875,-127,6
3383577,-143,946,436,884,-109,20
3383595,-138,972,433,881,-75,41
3383610,-196,928,432,833,-125,-24
3383627,-61,1096,437,950,25,132
3383644,-46,1158,450,975,113,181
3383676,-179,1121,461,921,88,139
3383694,-253,1080,462,901,51,95
3383711,-379,987,456,807,-76,-15
3383728,-464,906,448,774,-174,-77
3383744,-376,966,448,859,-98,-13
3383761,-452,916,446,806,-152,-58
3383793,-474,932,449,842,-114,-34
3383811,-448,957,451,852,-98,-14
3383827,-448,938,446,851,-103,-21
3383844,-388,993,436,874,-51,48
3383861,-412,954,440,865,-69,16
3383877,-416,942,449,846,-95,-11
3383909,-316,1037,445,889,-22,54
3383927,-294,1024,460,902,-16,61
3383944,-391,920,453,803,-128,-56
3383959,-403,873,452,818,-187,-68
3383977,-397,917,447,851,-129,-69
3383994,-380,877,445,816,-209,-75
3384026,-348,837,435,838,-206,-71
3384043,-314,861,439,858,-186,-47
3384060,-184,978,446,938,-48,64
3384077,-257,904,447,863,-95,-9
3384094,-223,929,443,876,-84,21
3384109,-242,886,442,861,-93,-24
3384142,-239,847,448,851,-148,-32
3384159,-176,919,449,911,-71,26
3384176,-146,927,454,915,-57,30
3384193,-185,879,457,859,-94,-17
3384210,-231,736,455,822,-180,-88
3384226,-230,706,447,818,-191,-101
3384259,-217,686,443,840,-177,-109
3384276,-209,683,439,850,-170,-105
3384292,-259,633,440,792,-236,-160
3384310,-308,708,448,857,-149,-79
3384326,-198,834,440,944,-2,32
3384342,-232,827,437,899,-30,13
3384375,-261,785,441,885,-68,-8
3384391,-173,926,447,956,46,40
3384408,-104,968,451,967,94,122
3384426,-94,906,461,923,30,68
3384442,-60,897,462,925,31,59
3384459,-181,762,462,834,-103,-57
3384491,-244,604,450,751,-306,-196
3384508,-225,582,451,817,-332,-195
3384526,-229,588,448,814,-335,-185
3384543,-282,496,441,743,-444,-278
3384559,-222,527,451,801,-396,-219
3384576,-227,525,451,812,-380,-215
3384608,-159,594,444,868,-298,-152
3384626,-158,581,449,849,-298,-163
3384642,-206,373,435,745,-507,-219
3384659,-408,188,442,673,-749,-461
3384675,-383,188,445,726,-752,-448
3384692,-348,224,451,761,-736,-424
3384724,-295,268,448,803,-670,-362
3384742,-267,286,446,806,-655,-362
3384757,-307,230,440,783,-687,-390
3384775,-304,131,437,710,-804,-411
3384792,-358,147,445,737,-806,-486
3384809,-356,109,452,750,-817,-475
3384841,-310,157,447,782,-744,-448
3384859,-362,119,452,740,-787,-502
3384875,-291,185,447,789,-701,-424
3384892,-481,-2,449,645,-954,-644
3384908,-463,-21,450,645,-940,-609
3384925,-427,43,456,720,-842,-559
3384957,-323,138,442,790,-744,-495
3384975,-335,122,445,775,-747,-495
3384992,-386,62,442,727,-788,-571
3385007,-276,198,433,831,-643,-431
3385024,-269,191,436,801,-667,-428
3385041,-358,144,439,762,-740,-528
3385073,-293,178,448,791,-681,-475
3385090,-265,200,446,813,-658,-456
3385107,-216,261,438,828,-593,-406
3385124,-182,296,441,852,-558,-391
3385141,-257,214,434,789,-610,-451
3385158,-279,193,433,734,-627,-476
3385189,-328,138,447,745,-737,-525
3385206,-336,127,453,751,-750,-522
3385223,-328,149,444,756,-706,-507
3385241,-363,128,457,735,-754,-540
3385258,-336,150,449,761,-717,-506
3385275,-429,45,443,687,-852,-614
3385307,-387,84,449,743,-802,-567
3385324,-381,75,448,758,-796,-559
3385340,-396,53,443,747,-813,-569
3385357,-383,70,453,738,-818,-577
3385374,-382,93,442,748,-784,-541
3385391,-366,134,450,779,-757,-528
3385422,-503,-22,445,690,-922,-669
3385440,-476,7,447,708,-877,-630
3385456,-459,25,449,732,-878,-627
3385473,-440,51,443,756,-842,-583
3385490,-437,61,448,760,-805,-567
3385507,-437,60,440,764,-786,-561
3385539,-475,31,441,732,-813,-609
3385557,-473,37,442,729,-825,-607
3385573,-468,33,442,735,-856,-607
3385590,-465,45,452,767,-830,-596
3385606,-504,22,448,729,-855,-622
3385623,-505,30,448,733,-858,-632
3385655,-657,-135,450,619,-1059,-793
3385672,-581,-63,453,698,-960,-705
3385690,-532,8,452,746,-909,-657
3385707,-532,16,450,745,-867,-644
3385723,-552,3,448,742,-876,-658
3385740,-649,-79,451,670,-986,-769
3385772,-644,-49,454,686,-965,-754
3385790,-686,-87,454,668,-1011,-772
3385805,-621,-9,459,732,-934,-705
3385823,-611,8,457,739,-920,-690
3385839,-569,17,454,714,-904,-657
3385856,-655,-76,456,675,-994,-766
3385888,-694,-133,461,665,-1055,-803
3385906,-688,-111,462,699,-1010,-769
3385921,-695,-114,466,706,-989,-776
3385938,-702,-138,463,703,-986,-759
3385956,-685,-108,458,706,-970,-758
3385972,-687,-126,463,703,-978,-757
3386004,-689,-110,463,707,-942,-751
3386021,-670,-93,458,703,-942,-759
3386039,-660,-81,460,711,-934,-742
3386056,-661,-76,461,726,-936,-737
3386071,-654,-81,463,714,-923,-749
3386089,-620,-44,462,719,-875,-709
3386121,-652,-97,464,698,-939,-740
3386137,-623,-62,462,736,-908,-719
3386155,-613,-50,460,739,-905,-700
3386172,-608,-40,449,720,-885,-708
3386189,-606,-46,459,775,-921,-725
3386204,-511,71,457,791,-782,-633
3386237,-451,70,454,752,-740,-624
3386254,-560,-2,456,700,-817,-699
3386271,-587,-30,460,687,-851,-727
3386287,-606,-45,459,683,-905,-757
3386305,-571,-3,461,715,-870,-710
3386322,-536,23,464,739,-827,-687
3386354,-502,53,455,748,-769,-644
3386371,-465,95,451,753,-730,-634
3386388,-449,102,446,755,-730,-616
3386405,-342,216,434,822,-613,-528
3386421,-201,370,440,916,-427,-377
3386437,-300,290,426,796,-535,-501
3386470,-213,388,431,850,-422,-436
3386488,-184,419,440,872,-389,-402
3386504,-115,491,431,892,-308,-356
3386521,-115,493,443,881,-314,-374
3386538,-78,518,432,900,-273,-342
3386554,-40,579,444,918,-229,-314
3386586,6,641,455,897,-188,-304
3386604,5,639,457,867,-186,-317
3386624,-25,647,461,858,-205,-328
3386637,3,652,456,848,-195,-326
3386654,9,621,454,832,-211,-355
3386671,5,628,459,831,-201,-348
3386703,15,622,453,839,-236,-346
3386720,2,595,454,841,-225,-346
3386736,-34,587,458,823,-232,-367
3386753,-54,570,457,807,-226,-372
3386770,-32,592,449,824,-230,-349
3386787,-30,594,456,824,-241,-336
3386819,-38,591,455,821,-249,-339
3386837,-45,592,458,815,-250,-355
3386853,-43,574,450,800,-248,-358
3386871,-48,571,454,816,-252,-348
3386887,-29,575,461,826,-261,-336
3386903,-29,567,458,811,-271,-346
3386936,-31,594,465,808,-248,-344
3386953,-36,583,462,805,-258,-350
3386970,-33,582,460,817,-248,-345
3386986,-29,580,466,806,-243,-343
3387003,-21,563,465,805,-255,-357
3387020,12,576,460,808,-235,-343
3387052,32,599,461,805,-251,-333
3387070,37,598,456,799,-250,-332
3387086,31,588,458,802,-248,-347
3387103,29,586,459,796,-236,-317
3387120,35,593,460,806,-235,-314
3387137,42,582,465,802,-232,-309
3387168,45,597,463,794,-228,-309
3387185,50,598,458,809,-229,-296
3387202,55,601,461,801,-228,-304
3387220,54,615,463,805,-229,-286
3387236,46,595,465,803,-241,-294
3387253,41,582,456,808,-248,-295
3387285,-1,489,463,756,-331,-365
3387302,-14,419,458,735,-377,-409
3387319,-7,335,452,747,-357,-381
3387336,45,296,449,790,-282,-334
3387353,100,364,452,839,-218,-268
3387369,143,430,456,862,-179,-238
3387402,106,455,458,818,-207,-273
3387419,85,444,456,801,-223,-304
3387436,75,493,457,808,-195,-296
3387452,147,515,458,823,-183,-269
3387469,-860,693,457,900,-7,-150
3387486,-966,717,452,873,11,-145
3387502,-1061,730,451,861,27,-156
3387534,-986,708,456,833,2,-185
3387552,-910,653,459,812,-59,-200
3387568,-859,621,462,810,-102,-222
3387585,-855,591,465,803,-123,-227
3387602,-836,590,458,808,-134,-231
3387619,-845,563,466,804,-144,-249
3387635,-845,554,465,807,-173,-252
3387668,-849,532,467,805,-209,-263
3387685,-794,503,464,791,-212,-277
3387701,-790,494,460,787,-238,-288
3387718,-764,500,460,787,-233,-279
3387735,-734,498,460,786,-251,-286
3387752,-723,493,459,796,-252,-282
3387768,-698,470,459,810,-259,-276
3387801,-687,464,462,785,-273,-293
3387818,-665,464,463,788,-293,-314
3387834,-657,453,464,799,-290,-312
3387852,-660,449,460,785,-296,-310
3387867,-635,457,457,795,-286,-310
3387885,-630,455,461,786,-296,-310
3387901,-634,447,460,772,-314,-328
3387934,-610,434,462,770,-289,-306
3387951,-597,423,461,790,-311,-322
3387968,-587,427,458,786,-326,-325
3387984,-579,428,463,804,-288,-297
3388001,-548,440,457,800,-282,-304
3388018,-542,422,460,802,-305,-295
3388034,-538,412,462,800,-301,-289
3388067,-538,388,463,786,-319,-314
3388084,-504,397,461,789,-324,-314
3388100,-496,386,468,785,-335,-305
3388117,-489,400,464,786,-316,-310
3388134,-467,415,467,793,-308,-301
3388151,-437,451,459,821,-278,-268
3388183,-499,334,459,750,-391,-353
3388200,-474,356,451,779,-358,-329
3388216,-443,362,459,775,-364,-296
3388234,-430,399,459,800,-343,-307
3388250,-410,430,461,804,-310,-299
3388267,-411,436,467,793,-311,-304
3388299,-549,267,463,694,-484,-457
3388317,-591,208,450,678,-559,-494
3388333,-520,232,440,680,-539,-426
3388350,-528,281,436,736,-506,-440
3388367,-506,314,442,749,-481,-424
3388383,-473,318,444,758,-461,-404
3388416,-433,358,453,773,-437,-375
3388433,-480,292,449,741,-477,-426
3388450,-437,343,443,765,-433,-376
3388467,-429,308,448,741,-492,-426
3388483,-494,280,447,740,-517,-448
3388500,-472,300,444,759,-493,-435
3388532,-435,318,448,787,-449,-400
3388550,-416,351,446,788,-429,-384
3388565,-452,311,443,755,-488,-433
3388583,-456,317,442,765,-464,-427
3388599,-461,264,436,736,-520,-442
3388616,-477,277,434,740,-514,-460
3388649,-522,229,442,728,-565,-488
3388666,-452,298,446,770,-493,-416
3388683,-446,315,438,788,-462,-386
3388699,-425,329,438,793,-462,-388
3388716,-442,318,446,779,-446,-408
3388732,-433,258,434,743,-513,-445
3388765,-485,228,449,733,-533,-461
3388782,-438,270,441,772,-487,-419
3388799,-382,324,452,811,-434,-363
3388815,-392,318,447,788,-431,-373
3388832,-392,302,439,791,-439,-378
3388849,-438,228,443,746,-533,-432
3388881,-544,158,439,697,-650,-526
3388898,-515,188,440,721,-623,-491
3388915,-441,287,433,791,-513,-407
3388931,-380,353,439,813,-453,-353
3388949,-333,424,434,843,-361,-300
3388965,-312,427,428,841,-348,-293
3388997,-364,373,434,838,-411,-370
3389015,-258,463,445,852,-304,-267
3389031,-232,482,452,867,-282,-255
3389048,-290,410,461,805,-365,-329
3389065,-278,424,457,814,-357,-324
3389082,-415,245,447,703,-515,-472
3389114,-357,333,444,773,-438,-387
3389147,-551,122,445,633,-701,-611
3389164,-429,234,450,736,-583,-487
3389181,-405,268,449,763,-554,-441
3389198,-391,294,450,771,-527,-436
3389230,-409,286,447,748,-519,-445
3389248,-476,231,436,725,-603,-516
3389264,-477,199,428,701,-657,-529
3389281,-420,279,436,725,-622,-495
3389298,-440,272,434,718,-629,-504
3389314,-379,304,445,744,-602,-459
3389346,-276,357,436,767,-550,-389
3389363,-253,375,431,767,-500,-362
3389381,-348,249,434,706,-624,-471
3389397,-352,277,438,742,-583,-441
3389414,-333,298,444,754,-569,-430
3389431,-321,298,440,748,-564,-432
3389463,-260,375,449,798,-480,-357
3389480,-353,273,449,708,-608,-473
3389497,-500,98,439,603,-767,-607
3389514,-552,145,462,710,-766,-670
3389530,-465,118,464,693,-787,-560
3389547,-539,30,468,625,-877,-644
3389579,-486,94,468,697,-821,-566
3389597,-499,88,468,696,-819,-571
3389614,-489,100,473,700,-803,-568
3389630,-501,105,469,710,-784,-564
3389647,-501,98,476,715,-809,-585
3389663,-525,95,464,720,-803,-596
3389695,-551,56,460,736,-782,-599
3389713,-539,60,462,732,-790,-602
3389729,-564,61,466,709,-802,-622
3389747,-589,57,466,710,-812,-644
3389763,-561,63,466,714,-802,-614
3389780,-581,59,463,719,-797,-642
3389812,-588,60,469,720,-784,-639
3389829,-587,45,472,723,-799,-649
3389845,-583,63,469,735,-806,-650
3389863,-583,65,468,717,-799,-643
3389880,-581,59,462,716,-791,-646
3389897,-578,69,469,720,-792,-648
3389945,-555,62,462,720,-816,-633
3389962,-561,64,468,727,-790,-641
3389979,-554,41,469,726,-790,-644
3389996,-552,79,461,726,-781,-623
3390012,-534,98,462,709,-819,-657
3390028,-534,94,457,719,-800,-649
3390061,-550,80,468,727,-778,-649
3390078,-552,81,459,715,-780,-651
3390095,-532,110,458,721,-790,-645
3390112,-540,101,459,723,-778,-656
3390129,-558,102,458,719,-786,-656
3390146,-571,90,461,724,-757,-666
3390178,-541,110,461,713,-771,-681
3390195,-515,128,462,723,-759,-664
3390211,-511,132,460,702,-789,-672
3390229,-484,105,457,715,-765,-663
3390246,-461,112,465,711,-774,-670
3390262,-436,105,458,718,-773,-668
3390295,-405,107,470,713,-801,-666
3390312,-364,99,460,712,-822,-658
3390328,-351,109,465,723,-820,-659
3390345,-374,92,463,719,-796,-677
3390362,-386,91,467,708,-807,-681
3390379,-376,107,474,710,-795,-684
3390411,-354,134,461,702,-792,-687
3390429,-337,127,456,718,-804,-681
3390445,-343,109,453,705,-786,-682
3390462,-342,115,459,701,-810,-696
3390478,-338,111,464,691,-823,-702
3390495,-327,104,462,707,-803,-693
3390527,-332,98,466,714,-798,-689
3390544,-332,72,460,713,-783,-687
3390562,-326,61,463,711,-773,-681
3390578,-320,87,462,713,-777,-691
3390594,-319,72,463,710,-791,-690
3390611,-309,77,459,706,-787,-692
3390643,-316,75,453,708,-797,-688
3390660,-319,66,453,712,-773,-680
3390678,-322,89,450,718,-778,-677
3390695,-335,83,450,719,-775,-669
3390711,-324,90,453,713,-782,-683
3390728,-313,93,460,720,-764,-667
3390760,-306,91,462,714,-763,-667
3390778,-321,100,467,710,-790,-685
3390793,-305,121,460,716,-782,-672
3390810,-299,117,461,707,-790,-680
3390828,-312,107,463,712,-804,-684
3390844,-297,112,462,711,-777,-668
3390876,-304,118,462,706,-771,-659
3390894,-315,84,461,708,-782,-670
3390911,-291,72,463,715,-760,-649
3390928,-278,88,460,727,-735,-626
3390944,-255,132,456,775,-681,-596
3390960,-225,193,449,758,-629,-569
3390992,-167,239,447,790,-573,-538
3391009,-154,255,445,799,-560,-518
3391026,-105,318,435,820,-478,-488
3391044,-97,340,441,817,-492,-485
3391059,-127,297,438,780,-517,-514
3391077,-67,368,437,864,-454,-465
3391109,49,526,435,865,-278,-354
3391127,18,509,441,820,-283,-384
3391142,15,509,432,812,-302,-406
3391160,-8,463,432,792,-326,-424
3391176,78,554,436,873,-238,-338
3391192,61,536,449,859,-226,-337
3391225,-22,444,447,757,-372,-444
3391243,-36,478,442,770,-380,-459
3391259,-7,495,440,801,-350,-411
3391277,-53,451,435,755,-396,-463
3391293,26,541,440,820,-299,-371
3391310,67,582,448,844,-249,-336
3391342,99,612,460,830,-236,-329
3391360,74,574,456,800,-257,-360
3391376,36,540,459,782,-298,-385
3391393,93,591,455,830,-212,-319
3391409,111,623,456,832,-192,-295
3391426,85,589,458,822,-208,-311
3391458,87,602,456,805,-211,-309
3391475,81,598,464,810,-227,-317
3391492,93,591,458,809,-240,-306
3391509,96,590,457,803,-244,-317
3391526,95,571,455,808,-229,-299
3391542,94,574,458,790,-227,-311
3391575,83,566,460,798,-238,-304
3391593,85,553,467,797,-238,-297
3391608,72,565,465,791,-250,-292
3391626,36,503,472,766,-265,-318
3391642,6,483,465,745,-316,-365
3391659,16,502,467,758,-298,-332
3391691,3,515,458,767,-302,-332
3391709,-8,499,460,746,-321,-362
3391726,-35,473,455,729,-356,-374
3391757,-95,398,435,730,-452,-430
3391775,-93,408,438,725,-453,-413
3391807,-170,335,442,680,-547,-476
3391825,-220,257,443,653,-616,-521
3391842,-251,221,460,636,-672,-556
3391859,-161,336,439,752,-519,-441
3391875,-146,339,438,722,-521,-444
3391891,-148,341,440,720,-540,-456
3391923,-214,282,437,693,-605,-511
3391941,-178,325,446,724,-561,-478
3391957,-185,328,437,721,-587,-485
3391975,-94,449,439,775,-467,-398
3391991,-52,513,441,828,-388,-341
3392008,-35,523,444,814,-370,-342
3392040,-18,531,439,791,-354,-313
3392057,2,589,443,819,-310,-289
3392073,3,565,449,803,-312,-301
3392091,24,574,451,817,-303,-293
3392108,-84,450,457,729,-433,-409
3392124,-80,443,437,747,-449,-399
3392157,-104,436,439,736,-437,-393
3392174,-96,441,439,756,-434,-371
3392190,-190,326,438,680,-540,-477
3392208,-183,325,446,700,-558,-455
3392224,-112,392,448,766,-467,-387
3392241,-132,386,447,748,-475,-402
3392273,-138,372,447,719,-510,-415
3392290,-171,333,437,717,-563,-456
3392306,-198,304,445,697,-614,-470
3392324,-203,317,446,708,-603,-464
3392340,-172,319,441,740,-550,-428
3392357,-114,393,446,782,-465,-360
3392389,-133,409,449,756,-455,-375
3392407,-154,385,440,752,-508,-399
3392423,-142,364,440,744,-513,-395
3392440,-142,364,440,744,-513,-395
3392457,-142,364,440,744,-513,-395
3392474,-142,364,440,744,-513,-395
3392506,-142,364,440,744,-513,-395
3392523,-142,364,440,744,-513,-395
3392540,-142,364,440,744,-513,-395
3392556,-142,364,440,744,-513,-395
3392573,-142,364,440,744,-513,-395
3392590,-142,364,440,744,-513,-395
3392622,-142,364,440,744,-513,-395
3392640,-142,364,440,744,-513,-395
3392657,-142,364,440,744,-513,-395
3392672,-142,364,440,744,-513,-395
3392689,-142,364,440,744,-513,-395
3392706,-142,364,440,744,-513,-395
3392738,-142,364,440,744,-513,-395
3392756,-142,364,440,744,-513,-395
3392772,-142,364,440,744,-513,-395
3392789,-142,364,440,744,-513,-395
3392806,-142,364,440,744,-513,-395
3392823,-142,364,440,744,-513,-395
3392855,-142,364,440,744,-513,-395
3392871,-142,364,440,744,-513,-395
3392888,-142,364,440,744,-513,-395
3392906,-142,364,440,744,-513,-395
3392922,-142,364,440,744,-513,-395
3392939,-142,364,440,744,-513,-395
3392955,-142,364,440,744,-513,-395
3392988,-142,364,440,744,-513,-395
3393006,-142,364,440,744,-513,-395
3393021,-142,364,440,744,-513,-395
3393039,-142,364,440,744,-513,-395
3393056,-142,364,440,744,-513,-395
3393072,-142,364,440,744,-513,-395
3393104,-142,364,440,744,-513,-395
3393122,-144,358,444,763,-494,-381
3393138,-77,394,439,715,-538,-362
3393155,-135,385,430,754,-514,-404
3393172,-22,497,435,779,-383,-294
3393188,-87,425,454,766,-453,-388
3393220,-192,362,448,709,-580,-468
3393237,-146,430,440,770,-484,-397
3393255,-112,466,442,766,-460,-383
3393271,-104,471,442,784,-434,-347
3393288,-108,462,444,762,-465,-377
3393305,-110,448,452,777,-466,-375
3393337,-159,343,451,711,-543,-410
3393355,-174,386,448,751,-530,-422
3393372,-197,357,452,732,-543,-449
3393388,-190,361,449,752,-540,-433
3393405,-191,378,453,743,-519,-435
3393421,-212,341,444,708,-563,-469
3393453,-214,318,439,711,-570,-464
3393470,-201,336,439,729,-549,-442
3393487,-127,418,447,785,-439,-367
3393504,-115,416,441,777,-425,-363
3393521,-95,463,439,794,-409,-342
3393538,-120,427,450,767,-422,-373
3393570,-150,383,443,742,-442,-382
3393588,-124,405,442,739,-439,-362
3393604,-76,503,449,822,-318,-316
3393621,-28,503,453,801,-308,-278
3393637,-8,534,451,807,-258,-257
3393654,-31,493,451,775,-287,-299
3393686,80,627,462,844,-144,-183
3393703,116,696,471,855,-94,-165
3393721,104,638,470,798,-158,-204
3393737,46,620,477,806,-149,-245
3393754,63,594,475,803,-180,-235
3393770,65,584,473,791,-180,-242
3393802,54,588,470,765,-201,-260
3393820,63,594,474,757,-196,-248
3393836,53,592,481,768,-201,-250
3393853,38,638,483,803,-146,-267
3393870,-66,465,478,669,-353,-382
3393887,-241,255,462,547,-555,-552
3393919,-378,119,461,532,-704,-630
3393937,-342,155,460,588,-707,-595
3393953,-413,60,465,574,-805,-642
3393970,-500,-42,462,491,-941,-741
3393986,-590,-183,462,485,-1058,-825
3394003,-478,-60,461,611,-913,-675
3394035,-486,-49,461,616,-885,-669
3394053,-488,-28,461,619,-876,-658
3394070,-494,-44,457,613,-870,-649
3394086,-484,-32,466,620,-879,-634
3394103,-484,-40,458,633,-860,-627
3394119,-474,-29,467,632,-867,-625
3394151,-472,-28,456,653,-861,-619
3394169,-490,-9,460,648,-841,-612
3394185,-483,-12,459,650,-852,-616
3394203,-470,14,448,654,-833,-605
3394219,-500,-24,451,706,-849,-636
3394236,-406,84,439,745,-741,-537
3394268,-227,249,433,769,-520,-356
3394285,-200,311,440,816,-453,-332
3394302,-318,184,438,697,-595,-473
3394319,-353,146,442,682,-637,-508
3394336,-266,256,432,747,-513,-422
3394368,-280,220,449,718,-555,-463
3394401,-372,130,462,687,-684,-535
3394419,-706,-247,473,435,-1112,-892
3394435,-545,-70,488,614,-920,-706
3394452,-506,-27,492,660,-876,-646
3394469,-526,-67,482,635,-926,-679
3394485,-517,-61,487,638,-918,-672
3394517,-493,-23,468,662,-865,-643
3394535,-480,-14,463,661,-862,-632
3394551,-492,-17,460,669,-838,-630
3394568,-486,-7,450,665,-834,-632
3394585,-497,-15,447,663,-831,-634
3394602,-479,-5,451,662,-836,-626
3394634,-481,17,447,679,-805,-613
3394652,-483,40,441,670,-822,-634
3394667,-476,59,440,685,-796,-616
3394685,-520,21,440,633,-861,-679
3394702,-361,199,444,759,-635,-489
3394718,-211,391,439,883,-443,-333
3394750,-256,329,444,808,-494,-402
3394767,-273,305,447,786,-520,-423
3394784,-271,334,445,794,-499,-410
3394801,-303,299,446,738,-520,-446
3394818,-293,320,439,751,-506,-440
3394835,-348,265,443,706,-565,-504
3394866,-314,282,446,734,-555,-473
3394883,-335,278,453,718,-571,-478
3394901,-302,296,451,739,-546,-454
3394917,-333,263,455,714,-550,-474
3394934,-320,279,449,730,-540,-475
3394951,-342,219,441,713,-579,-486
3394983,-326,242,440,728,-565,-482
3395001,-301,260,440,745,-526,-453
3395017,-259,300,442,770,-483,-407
3395033,-227,335,436,781,-443,-381
3395051,-196,342,433,794,-402,-346
3395067,-245,306,433,751,-441,-411
3395100,-214,342,418,760,-405,-379
3395117,-131,407,425,829,-293,-289
3395133,-78,468,413,851,-272,-247
3395151,63,646,437,906,-54,-98
3395166,53,638,438,889,-54,-129
3395184,7,582,457,846,-105,-178
3395216,-38,518,464,791,-180,-236
3395234,-54,509,459,777,-173,-243
3395250,-46,505,473,795,-173,-239
3395266,-57,490,468,795,-184,-238
3395284,-44,502,466,778,-169,-238
3395300,-52,500,468,784,-182,-237
3395332,-46,478,478,772,-206,-236
3395349,-61,498,468,774,-195,-240
3395367,-60,488,469,764,-193,-251
3395384,-71,486,473,776,-193,-240
3395399,-66,477,468,773,-205,-244
3395417,-57,510,469,782,-205,-243
3395448,-64,540,476,755,-230,-253
3395466,-99,530,478,741,-245,-282
3395482,-95,569,476,754,-239,-271
3395500,-74,597,469,763,-227,-262
3395517,-65,647,468,770,-215,-241
3395533,-69,664,462,751,-208,-253
3395566,-80,688,462,758,-200,-255
3395583,-89,703,459,745,-229,-275
3395599,-93,731,468,741,-244,-277
3395615,-94,729,466,737,-249,-284
3395632,-97,725,468,751,-242,-289
3395650,-103,728,469,727,-249,-288
3395682,-104,725,463,735,-256,-275
3395699,-106,722,465,732,-237,-270
3395715,-116,700,469,726,-239,-280
3395732,-114,699,463,743,-255,-283
3395749,-111,710,471,735,-240,-281
3395766,-99,684,462,748,-234,-272
3395798,-113,694,465,745,-224,-274
3395816,-105,711,465,737,-233,-286
3395832,-123,677,465,730,-253,-283
3395849,-115,672,464,737,-249,-271
3395865,-124,683,468,742,-257,-276
3395882,-107,685,462,733,-247,-271
3395914,-110,689,456,750,-225,-252
3395932,-101,713,447,743,-227,-254
3395949,-97,718,443,741,-228,-253
3395964,-86,720,434,732,-219,-238
3395982,-97,713,437,737,-218,-236
3395999,-93,702,438,753,-230,-237
3396031,-108,701,452,733,-233,-257
3396049,-118,690,467,730,-262,-269
3396065,-99,688,472,737,-274,-262
3396082,-109,650,489,735,-294,-258
3396098,-112,659,484,750,-291,-262
3396115,-105,655,490,746,-293,-261
3396148,-117,663,482,733,-304,-267
3396165,-124,671,474,747,-286,-271
3396182,-107,687,469,744,-266,-241
3396198,-89,683,457,751,-257,-244
3396215,-79,683,455,746,-256,-234
3396231,-84,704,454,750,-259,-246
3396263,-113,730,464,733,-258,-254
3396281,-106,762,464,735,-268,-253
3396298,-120,785,469,722,-297,-276
3396315,-139,788,475,724,-308,-283
3396330,-155,791,476,725,-318,-287
3396348,-155,802,476,728,-330,-297
3396380,-186,817,470,733,-360,-300
3396398,-182,834,473,736,-355,-307
3396414,-195,810,471,733,-363,-315
3396431,-202,819,488,727,-363,-316
3396448,-195,817,475,722,-377,-301
3396464,-201,837,489,721,-392,-319
3396497,-214,880,486,664,-373,-310
3396514,-305,799,486,670,-491,-422
3396530,-478,597,459,555,-731,-589
3396547,-445,629,455,606,-689,-542
3396564,-384,701,447,685,-627,-456
3396581,-430,659,451,661,-677,-503
3396613,-467,644,451,636,-694,-517
3396630,-508,579,449,633,-719,-539
3396647,-485,620,452,667,-682,-506
3396664,-480,594,457,693,-664,-481
3396680,-438,635,459,714,-622,-461
3396697,-468,579,460,670,-658,-491
3396729,-488,508,461,634,-729,-528
3396747,-519,445,458,627,-769,-558
3396763,-518,454,456,625,-795,-557
3396780,-533,460,455,630,-773,-568
3396797,-524,454,451,653,-757,-552
3396813,-507,456,443,668,-741,-527
3396845,-528,427,442,665,-712,-537
3396862,-538,406,443,651,-763,-559
3396879,-545,387,446,663,-762,-549
3396896,-518,375,442,665,-734,-532
3396913,-418,463,438,734,-623,-446
3396930,-390,500,425,735,-601,-429
3396962,-387,503,437,730,-554,-412
3396980,-405,483,441,712,-562,-442
3396995,-483,411,446,658,-647,-521
3397013,-475,426,441,676,-635,-512
3397029,-489,397,447,680,-655,-544
3397046,-464,440,444,703,-615,-495
3397079,-470,455,445,709,-609,-495
3397096,-466,450,445,700,-610,-496
3397113,-462,453,438,705,-596,-495
3397129,-461,431,434,733,-594,-485
3397146,-435,428,440,718,-565,-468
3397162,-456,393,435,730,-552,-455
3397195,-417,376,446,742,-502,-416
3397212,-435,302,435,739,-503,-434
3397229,-425,249,440,737,-503,-417
3397246,-475,160,432,695,-546,-461
3397262,-460,98,441,715,-538,-432
3397279,-478,61,445,712,-542,-460
3397311,-481,37,448,711,-531,-450
3397327,-515,-36,442,713,-555,-461
3397344,-508,-38,444,700,-578,-482
3397362,-573,-120,437,652,-637,-527
3397378,-579,-123,439,666,-635,-529
3397395,-596,-140,437,657,-662,-550
3397427,-581,-128,440,672,-614,-518
3397445,-579,-123,447,682,-625,-523
3397461,-740,-298,449,546,-812,-691
3397478,-826,-404,453,518,-897,-768
3397494,-848,-433,475,512,-952,-799
3397512,-808,-387,478,552,-887,-738
3397545,-808,-293,478,607,-820,-658
3397561,-833,-268,480,612,-813,-676
3397578,-832,-255,478,615,-813,-664
3397595,-822,-259,479,621,-804,-656
3397611,-820,-234,482,625,-807,-663
3397628,-817,-234,481,637,-808,-661
3397660,-794,-205,477,637,-790,-633
3397677,-816,-216,470,645,-770,-643
3397695,-801,-175,469,638,-759,-642
3397710,-793,-176,466,650,-765,-616
3397727,-790,-172,457,646,-764,-634
3397744,-802,-204,469,653,-764,-624
3397761,-780,-202,466,656,-754,-611
3397793,-803,-169,462,642,-774,-628
3397811,-816,-168,471,648,-774,-633
3397827,-824,-157,471,644,-782,-639
3397844,-826,-159,472,653,-759,-628
3397861,-844,-164,478,647,-792,-650
3397878,-842,-141,479,654,-784,-645
3397909,-851,-151,474,656,-756,-648
3397926,-843,-163,470,666,-761,-652
3397943,-854,-186,469,666,-762,-642
3397961,-863,-138,467,657,-766,-649
3397977,-876,-123,468,650,-782,-670
3397994,-875,-127,469,652,-769,-668
3398026,-865,-145,466,676,-734,-645
3398044,-905,-169,468,664,-753,-661
3398059,-899,-112,462,662,-726,-653
3398077,-910,-85,455,664,-745,-656
3398093,-910,-90,467,663,-765,-662
3398110,-911,-84,463,667,-780,-661
3398142,-934,-101,460,646,-770,-661
3398160,-924,-97,467,648,-762,-653
3398176,-937,-126,459,654,-737,-634
3398193,-948,-144,464,657,-724,-637
3398210,-943,-155,459,652,-770,-640
3398226,-959,-159,461,645,-773,-644
3398259,-859,-10,463,708,-712,-569
3398277,-755,130,461,780,-552,-463
3398293,-745,136,462,770,-515,-448
3398310,-848,-22,456,617,-714,-569
3398327,-987,-138,461,564,-838,-713
3398343,-1028,-148,466,585,-878,-728
3398375,-985,-92,466,637,-778,-632
3398392,-981,-82,466,640,-767,-648
3398408,-1013,-91,469,637,-770,-653
3398426,-993,-101,467,633,-772,-653
3398442,-992,-99,464,634,-771,-631
3398459,-983,-114,458,627,-768,-648
3398491,-988,-170,448,635,-703,-623
3398509,-971,-141,454,670,-676,-578
3398526,-933,-103,447,685,-618,-549
3398543,-846,-7,448,740,-505,-463
3398559,-810,30,446,737,-484,-449
3398576,-834,106,448,791,-373,-495
3398608,-667,207,437,791,-277,-332
3398625,-691,168,438,746,-330,-382
3398642,-738,131,435,704,-387,-427
3398659,-757,107,433,692,-413,-447
3398675,-732,132,437,727,-357,-403
3398692,-733,137,440,707,-381,-430
3398724,-659,209,440,752,-287,-352
3398742,-653,208,442,724,-295,-357
3398758,-703,131,426,691,-346,-416
3398774,-708,129,429,686,-355,-417
3398792,-682,148,434,694,-333,-393
3398809,-686,145,434,697,-358,-407
3398841,-547,297,442,772,-216,-270
3398858,-538,254,442,732,-226,-297
3398874,-564,251,434,726,-247,-305
3398891,-525,269,451,750,-213,-267
3398908,-523,257,445,720,-252,-282
3398925,-502,277,451,746,-214,-249
3398957,-540,240,451,686,-262,-306
3398975,-511,272,452,683,-250,-290
3398991,-583,160,451,643,-378,-354
3399008,-624,139,450,647,-417,-392
3399024,-711,47,449,608,-503,-472
3399041,-689,64,456,613,-514,-470
3399073,-677,55,458,646,-522,-438
3399090,-615,105,453,697,-449,-380
3399107,-611,122,454,688,-453,-381
3399124,-635,103,449,651,-470,-410
3399141,-706,40,449,596,-558,-493
3399157,-738,10,453,591,-595,-491
3399190,-678,26,456,656,-548,-472
3399208,-677,25,448,658,-544,-476
3399223,-644,65,449,664,-491,-448
3399241,-630,112,444,680,-438,-431
3399257,-616,116,444,661,-469,-447
3399274,-647,61,442,643,-507,-472
3399306,-608,77,447,662,-462,-428
3399324,-605,104,441,679,-445,-391
3399341,-514,185,442,724,-366,-321
3399357,-528,174,443,704,-371,-336
3399374,-504,175,438,695,-365,-324
3399390,-514,183,438,684,-377,-338
3399422,-497,197,439,693,-359,-350
3399439,-455,219,446,725,-325,-300
3399456,-373,324,454,774,-218,-223
3399473,-352,337,456,754,-207,-226
3399490,-355,339,449,744,-216,-238
3399507,-415,274,453,698,-271,-293
3399539,-498,171,457,658,-399,-369
3399556,-581,88,451,609,-492,-447
3399573,-580,92,469,622,-526,-449
3399590,-576,86,463,624,-521,-446
3399607,-592,71,471,603,-544,-454
3399623,-642,0,477,529,-621,-495
3399655,-953,-363,472,433,-1022,-815
3399673,-981,-408,492,423,-1079,-819
3399689,-931,-358,502,522,-1023,-730
3399707,-879,-296,505,574,-974,-676
3399722,-886,-294,496,568,-968,-667
3399740,-893,-282,499,561,-983,-678
3399772,-889,-257,485,568,-959,-674
3399789,-873,-255,494,567,-950,-668
3399807,-880,-233,481,574,-930,-661
3399823,-889,-229,481,569,-941,-653
3399839,-863,-207,473,598,-933,-642
3399856,-859,-202,473,584,-937,-642
3399888,-844,-170,469,576,-933,-635
3399906,-837,-142,463,608,-906,-655
3399922,-863,-199,469,659,-970,-671
3399939,-617,94,442,727,-665,-445
3399956,-487,250,455,791,-510,-319
3399973,-508,204,439,729,-513,-364
3400005,-436,304,432,727,-402,-313
3400022,-395,337,438,741,-366,-292
3400039,-433,271,437,675,-444,-326
3400056,-459,269,445,684,-439,-342
3400072,-430,304,441,698,-396,-322
3400089,-320,427,443,768,-270,-219
3400121,-265,502,441,775,-203,-177
3400139,-230,539,444,777,-176,-158
3400156,-162,601,449,824,-107,-97
3400172,-97,680,463,820,-16,-55
3400188,-75,735,469,816,24,-26
3400205,-109,677,468,765,-42,-98
3400237,-110,661,462,733,-38,-108
3400255,-111,646,470,735,-58,-107
3400271,-109,662,465,724,-57,-112
3400288,-152,633,467,709,-64,-136
3400305,-134,642,468,715,-63,-141
3400321,-132,628,467,719,-70,-123
3400354,-136,632,475,722,-83,-153
3400372,-147,632,476,701,-77,-168
3400388,-144,638,468,707,-79,-177
3400405,-145,641,479,701,-87,-176
3400422,-138,635,471,701,-85,-167
3400438,-151,645,470,703,-90,-166
3400470,-127,658,469,704,-92,-161
3400488,-123,675,465,699,-100,-166
3400504,-123,676,470,699,-104,-158
3400521,-136,674,470,697,-144,-181
3400538,-146,660,466,698,-121,-170
3400555,-132,684,461,694,-116,-166
3400586,-122,676,463,685,-135,-168
3400603,-121,667,472,692,-158,-173
3400621,-124,671,471,704,-149,-161
3400638,-124,679,477,685,-168,-181
3400654,-135,664,476,684,-180,-174
3400672,-116,677,476,700,-191,-181
3400703,-118,666,485,701,-188,-173
3400720,-117,681,470,700,-185,-161
3400736,-102,706,476,685,-194,-160
3400754,-104,703,470,700,-193,-162
3400771,-94,717,472,696,-206,-164
3400787,-101,711,470,701,-205,-163
3400819,-91,719,476,698,-207,-153
3400836,-84,732,481,693,-216,-158
3400853,-76,718,479,697,-230,-155
3400870,-64,729,472,695,-222,-144
3400887,-66,722,471,699,-226,-146
3400904,-62,723,470,710,-216,-140
3400936,-83,720,477,694,-232,-148
3400953,-59,730,473,697,-228,-150
3400969,-61,729,475,694,-215,-150
3400987,-53,749,471,697,-214,-144
3401003,-78,712,479,683,-256,-164
3401020,-93,691,474,666,-295,-183
3401052,-96,664,474,686,-284,-174
3401070,-69,712,474,705,-243,-153
3401087,-50,756,476,711,-210,-120
3401102,-53,754,476,696,-210,-119
3401119,-93,717,476,701,-244,-144
3401136,-59,741,471,713,-220,-129
3401168,-55,739,470,713,-210,-112
3401186,-54,748,477,708,-215,-119
3401202,-72,719,476,692,-219,-127
3401219,-57,729,477,703,-224,-122
3401236,-79,744,475,704,-230,-127
3401253,-88,731,480,702,-221,-128
3401285,-101,718,486,670,-283,-161
3401303,-86,726,480,674,-292,-155
3401318,-69,748,479,690,-264,-136
3401335,-44,793,483,708,-220,-106
3401353,-41,773,484,704,-229,-114
3401370,-145,678,474,613,-360,-213
3401402,-309,498,454,530,-572,-352
3401419,-289,518,450,573,-571,-329
3401436,-268,541,458,587,-565,-305
3401452,-252,562,461,605,-560,-291
3401470,-286,536,450,598,-602,-333
3401486,-271,556,456,641,-563,-314
3401517,-267,519,460,632,-569,-275
3401534,-311,480,462,597,-655,-327
3401551,-355,434,457,580,-673,-377
3401569,-399,408,461,563,-745,-411
3401585,-443,346,448,545,-807,-455
3401601,-438,340,460,563,-810,-441
3401700,-474,268,449,572,-819,-448
3401717,-490,222,449,580,-845,-452
3401734,-496,235,451,574,-860,-455
3401752,-442,269,453,614,-786,-402
3401768,-459,279,454,599,-801,-434
3401785,-449,278,450,608,-752,-414
3401817,-573,144,453,535,-893,-546
3401835,-600,110,455,526,-933,-564
3401852,-610,113,460,516,-944,-580
3401868,-759,-27,462,466,-1102,-718
3401885,-768,-52,466,476,-1136,-717
3401901,-783,-84,465,474,-1179,-718
3401933,-788,-101,469,529,-1145,-682
3401951,-752,-82,470,550,-1086,-641
3401968,-735,-54,471,562,-1065,-634
3401983,-732,-27,469,551,-1084,-640
3402001,-745,-62,464,531,-1047,-642
3402018,-806,-118,468,520,-1107,-696
3402049,-765,-98,474,558,-1067,-645
3402066,-769,-94,478,550,-1074,-659
3402083,-774,-98,476,548,-1093,-674
3402101,-792,-102,478,553,-1063,-680
3402117,-778,-111,476,559,-1061,-662
3402133,-775,-126,476,560,-1053,-654
3402166,-773,-116,467,555,-1049,-667
3402182,-773,-111,473,554,-1035,-667
3402199,-775,-119,475,562,-1072,-681
3402217,-756,-115,476,562,-1059,-666
3402234,-761,-137,478,560,-1057,-666
3402251,-773,-150,482,556,-1061,-687
3402282,-786,-133,486,563,-1094,-710
3402300,-743,-116,486,576,-1092,-683
3402317,-757,-121,485,572,-1099,-690
3402334,-753,-122,487,564,-1067,-701
3402350,-791,-131,486,549,-1073,-718
3402367,-802,-123,493,558,-1086,-724
3402401,-782,-123,482,564,-1076,-714
3402417,-780,-141,487,561,-1046,-713
3402435,-800,-132,492,554,-1050,-736
3402452,-795,-142,486,568,-1054,-732
3402468,-770,-108,481,580,-1048,-711
3402485,-785,-130,480,576,-1039,-712
3402515,-815,-144,489,556,-1056,-747
3402532,-836,-165,497,549,-1068,-770
3402549,-836,-162,487,563,-1063,-764
3402566,-842,-156,491,559,-1044,-764
3402583,-865,-156,479,555,-1039,-773
3402600,-869,-161,479,563,-1045,-782
3402648,-886,-184,484,565,-1058,-777
3402666,-888,-190,486,563,-1062,-795
3402682,-888,-190,486,563,-1062,-795
3402700,-888,-190,486,563,-1062,-795
3402716,-888,-190,486,563,-1062,-795
3402733,-888,-190,486,563,-1062,-795
3402764,-888,-190,486,563,-1062,-795
3402781,-888,-190,486,563,-1062,-795
3402799,-888,-190,486,563,-1062,-795
3402815,-888,-190,486,563,-1062,-795
3402832,-888,-190,486,563,-1062,-795
3402849,-888,-190,486,563,-1062,-795
3402866,-888,-190,486,563,-1062,-795
3402897,-888,-190,486,563,-1062,-795
3402916,-888,-190,486,563,-1062,-795
3402932,-888,-190,486,563,-1062,-795
3402948,-888,-190,486,563,-1062,-795
3402964,-888,-190,486,563,-1062,-795
3402982,-888,-190,486,563,-1062,-795
3403014,-888,-190,486,563,-1062,-795
3403032,-888,-190,486,563,-1062,-795
3403048,-888,-190,486,563,-1062,-795
3403064,-888,-190,486,563,-1062,-795
3403082,-888,-190,486,563,-1062,-795
3403098,-888,-190,486,563,-1062,-795
3403130,-888,-190,486,563,-1062,-795
3403148,-888,-190,486,563,-1062,-795
3403165,-888,-190,486,563,-1062,-795
3403181,-888,-190,486,563,-1062,-795
3403198,-888,-190,486,563,-1062,-795
3403215,-888,-190,486,563,-1062,-795
3403246,-888,-190,486,563,-1062,-795
3403263,-888,-190,486,563,-1062,-795
3403280,-888,-190,486,563,-1062,-795
3403297,-888,-190,486,563,-1062,-795
3403315,-888,-190,486,563,-1062,-795
3403331,-888,-190,486,563,-1062,-795
3403363,-888,-190,486,563,-1062,-795
3403381,-888,-190,486,563,-1062,-795
3403397,-888,-190,486,563,-1062,-795
3403414,-893,-187,489,558,-1065,-795
3403431,-883,-167,484,561,-1053,-808
3403448,-869,-195,475,570,-1006,-787
3403479,-836,-167,468,563,-985,-766
3403497,-835,-158,484,539,-977,-783
3403513,-913,-125,473,532,-980,-800
3403530,-928,-51,464,580,-892,-727
3403547,-889,-2,460,588,-841,-697
3403564,-800,109,468,651,-747,-616
3403580,-739,181,466,715,-651,-560
3403613,-665,228,461,645,-546,-518
3403630,-655,252,456,655,-534,-487
3403647,-630,309,449,659,-519,-492
3403664,-635,350,455,666,-478,-468
3403680,-601,378,454,684,-423,-434
3403697,-605,390,444,652,-446,-445
3403714,-667,293,445,593,-514,-519
3403746,-669,315,446,593,-544,-510
3403763,-634,350,447,626,-500,-471
3403780,-554,427,446,674,-380,-385
3403796,-513,467,444,677,-304,-340
3403813,-526,485,444,684,-308,-350
3403830,-518,511,443,666,-297,-354
3403846,-546,485,441,618,-336,-388
3403878,-546,592,437,712,-223,-264
3403895,-146,923,456,873,131,0
3403913,-340,728,459,692,-97,-218
3403929,-335,715,456,667,-99,-232
3403946,-355,706,452,666,-108,-233
3403962,-332,742,458,674,-94,-221
3403980,-259,800,469,693,-45,-157
3404012,-274,791,470,660,-61,-202
3404029,-264,790,469,680,-67,-200
3404046,-348,694,461,599,-170,-284
3404062,-390,645,449,571,-252,-327
3404079,-356,692,447,612,-215,-297
3404096,-351,716,442,604,-214,-294
3404128,-149,1034,468,752,94,-110
3404145,-126,1032,469,721,102,-86
3404162,-177,1020,475,666,30,-144
3404179,-219,967,466,617,-57,-212
3404196,-246,936,474,625,-93,-216
3404212,-243,917,465,633,-117,-217
3404244,-263,881,465,628,-153,-229
3404261,-333,854,465,613,-214,-284
3404278,-263,892,451,635,-174,-225
3404295,-263,906,463,641,-180,-216
3404312,-325,852,457,596,-238,-275
3404329,-372,788,450,557,-335,-328
3404361,-241,911,462,667,-179,-188
3404378,-165,1017,469,737,-40,-121
3404395,-101,1062,469,725,-47,-66
3404412,-196,961,470,646,-146,-160
3404428,-171,989,471,669,-114,-147
3404445,-186,986,468,643,-155,-167
3404477,-105,1132,468,701,-56,-82
3404494,-131,1124,474,684,-49,-93
3404512,-138,1126,474,671,-67,-99
3404527,-128,1134,479,677,-72,-91
3404544,-147,1142,473,676,-73,-103
3404561,-143,1137,475,660,-99,-124
3404593,-157,1123,469,644,-96,-137
3404611,-122,1139,479,683,-60,-91
3404628,-125,1114,470,662,-82,-98
3404645,-129,1106,477,680,-70,-85
3404660,-118,1107,478,666,-92,-90
3404678,-139,1080,480,665,-95,-102
3404710,-189,1009,478,633,-185,-154
3404727,-187,994,479,640,-162,-131
3404745,-158,1039,475,668,-133,-107
3404761,-127,1088,481,696,-73,-70
3404778,-125,1062,480,698,-67,-54
3404794,-153,1057,470,654,-62,-67
3404811,-190,996,471,646,-110,-108
3404859,-131,1050,474,688,-31,-51
3404877,-131,1050,474,688,-31,-51
3404893,-131,1050,474,688,-31,-51
3404910,-128,1057,470,668,-46,-53
3404927,-139,1051,468,673,-35,-47
3404944,-132,1063,466,662,-42,-47
3404976,-132,1045,469,676,-35,-43
3404994,-121,1056,465,673,-41,-47
3405010,-126,1066,463,654,-55,-61
3405027,-136,1063,468,655,-54,-74
3405043,-115,1075,465,659,-65,-68
3405060,-116,1065,472,677,-71,-56
3405092,-120,1065,475,660,-70,-65
3405110,-130,1060,472,659,-80,-66
3405127,-118,1062,473,663,-59,-58
3405143,-122,1088,472,646,-71,-63
3405160,-129,1060,465,657,-52,-64
3405176,-135,1058,474,673,-52,-64
3405208,-108,1039,474,688,-67,-37
3405226,-112,1038,469,682,-81,-45
3405243,-109,1039,474,661,-78,-47
3405260,-122,1028,478,667,-82,-51
3405275,-123,1030,484,672,-85,-50
3405293,-120,1005,486,695,-75,-36
3405325,-91,1011,479,676,-106,-39
3405343,-90,1000,488,680,-92,-37
3405359,-86,1000,478,680,-89,-30
3405376,-85,1000,477,652,-73,-27
3405393,-82,1000,473,665,-58,-16
3405410,-95,996,471,654,-60,-30
3405442,-89,1000,474,662,-56,-19
3405459,-79,988,469,663,-50,-15
3405476,-73,985,479,676,-66,-9
3405492,-67,994,484,666,-75,-7
3405509,-74,988,478,663,-81,-9
3405526,-70,1002,479,661,-87,4
3405542,-72,986,482,665,-81,-5
3405575,-112,942,492,672,-138,-51
3405592,-429,614,470,448,-494,-330
3405609,-441,593,468,494,-532,-304
3405625,-556,478,459,467,-667,-405
3405642,-642,367,463,429,-788,-471
3405659,-664,337,458,460,-803,-475
3405676,-658,369,459,545,-788,-440
3405708,-799,431,459,519,-688,-379
3405725,-871,360,446,513,-776,-442
3405742,-893,326,449,486,-833,-486
3405759,-860,328,450,515,-822,-447
3405775,-833,351,450,522,-822,-439
3405792,-747,424,457,577,-736,-376
3405808,-704,427,459,576,-729,-368
3405841,-601,450,447,590,-697,-339
3405859,-601,475,447,590,-667,-331
3405875,-601,475,447,590,-667,-331
3405892,-601,475,447,590,-667,-331
3405909,-601,475,447,590,-667,-331
3405925,-601,475,447,590,-667,-331
3405942,-601,475,447,590,-667,-331
3405974,-601,475,447,590,-667,-331
3405992,-601,475,447,590,-667,-331
3406008,-621,429,448,532,-747,-386
3406025,-621,429,448,532,-747,-386
3406040,-583,426,453,574,-732,-355
3406058,-1114,-177,485,447,-1366,-820
3406090,-1023,-99,482,476,-1249,-716
3406108,-1030,-80,485,479,-1200,-711
3406124,-1037,-91,487,488,-1203,-710
3406141,-1029,-78,480,502,-1187,-700
3406158,-1021,-82,481,500,-1165,-691
3406174,-1015,-67,478,501,-1173,-707
3406207,-1026,-98,480,506,-1180,-707
3406224,-1017,-114,478,526,-1161,-695
3406241,-1024,-113,474,519,-1152,-718
3406257,-1027,-125,477,515,-1157,-719
3406274,-1031,-134,479,514,-1124,-716
3406291,-1032,-152,480,525,-1127,-712
3406323,-1026,-139,483,514,-1116,-708
3406341,-1032,-150,487,508,-1134,-730
3406358,-1045,-146,476,513,-1122,-735
3406373,-1055,-182,485,535,-1098,-726
3406390,-1054,-169,480,534,-1113,-720
3406407,-1059,-164,477,521,-1123,-724
3406439,-1097,-205,484,523,-1118,-753
3406457,-1084,-205,487,527,-1094,-745
3406473,-1064,-181,481,535,-1093,-733
3406491,-1061,-167,476,533,-1091,-734
3406507,-1082,-148,474,516,-1085,-758
3406523,-1077,-183,473,539,-1077,-750
3406556,-1052,-209,473,547,-1051,-728
3406574,-1046,-200,480,537,-1037,-737
3406589,-1074,-201,475,511,-1048,-760
3406607,-1079,-193,469,505,-1047,-769
3406624,-1109,-204,471,512,-1045,-786
3406640,-1087,-188,471,530,-1009,-757
3406672,-1056,-171,471,547,-1038,-737
3406690,-1065,-209,472,532,-1039,-746
3406706,-1096,-217,480,511,-1042,-771
3406723,-1104,-236,475,513,-1034,-777
3406739,-1095,-221,474,528,-1019,-763
3406757,-1031,-193,466,543,-997,-735
3406789,-922,-94,466,618,-852,-605
3406806,-871,-24,459,649,-762,-555
3406823,-836,4,459,648,-675,-519
3406840,-839,8,450,593,-700,-565
3406857,-784,48,452,697,-651,-511
3406873,-642,218,450,693,-461,-360
3406905,-700,140,448,631,-517,-436
3406922,-661,176,449,658,-449,-401
3406939,-631,227,448,659,-451,-398
3406956,-584,274,448,682,-385,-353
3406973,-501,359,445,725,-289,-266
3406990,-502,338,444,706,-290,-288
3407021,-488,324,442,626,-299,-311
3407039,-464,348,443,642,-301,-314
3407055,-456,327,442,640,-306,-305
3407072,-312,468,447,733,-169,-167
3407089,-266,484,453,743,-99,-125
3407106,-271,482,451,711,-108,-145
3407138,-335,419,451,649,-185,-219
3407155,-326,440,442,673,-162,-181
3407172,-286,451,448,665,-155,-166
3407189,-155,619,458,743,-5,-49
3407205,-125,655,466,740,32,-33
3407222,-132,626,457,718,-12,-59
3407254,-232,513,447,655,-124,-141
3407271,-154,602,456,701,-47,-81
3407289,-93,714,464,748,79,-3
3407304,-51,749,484,760,138,24
3407321,-19,761,478,755,157,34
3407338,-19,761,478,755,157,34
3407355,-225,531,471,587,-148,-179
3407387,-303,478,462,552,-262,-251
3407406,-299,495,466,624,-244,-235
3407423,-344,387,452,561,-360,-260
3407439,-385,351,462,552,-381,-293
3407456,-377,386,463,586,-372,-264
3407472,-417,367,463,565,-403,-304
3407503,-366,387,455,604,-415,-255
3407521,-427,324,460,560,-447,-297
3407538,-465,295,445,553,-490,-318
3407555,-544,277,456,546,-518,-365
3407571,-540,264,450,559,-536,-360
3407588,-405,392,450,657,-419,-237
3407620,-410,410,454,600,-409,-271
3407637,-486,355,444,569,-450,-332
3407654,-503,349,445,568,-476,-344
3407670,-478,345,447,596,-479,-308
3407687,-464,362,444,603,-474,-310
3407703,-362,469,447,661,-374,-213
3407736,-265,595,446,697,-223,-119
3407754,-248,618,447,694,-203,-115
3407771,-162,707,448,754,-125,-50
3407786,-92,774,460,757,-63,8
3407803,46,911,471,778,88,127
3407820,125,998,485,821,184,183
3407852,5,873,478,699,-3,31
3407870,-94,749,476,637,-137,-71
3407887,-107,712,471,619,-187,-85
3407904,-147,655,466,619,-214,-106
3407919,-130,677,475,638,-169,-73
3407936,-189,660,474,669,-166,-131
3407969,-161,661,462,604,-206,-102
3407987,-168,676,457,607,-220,-111
3408004,-163,708,457,648,-160,-86
3408020,-92,771,469,680,-78,-39
3408037,-141,763,470,614,-104,-80
3408053,-268,650,456,383,-289,-220
3408086,-397,454,460,496,-578,-333
3408103,-419,417,454,513,-583,-348
3408120,-395,414,459,535,-550,-342
3408137,-417,355,455,516,-509,-359
3408153,-497,192,447,461,-508,-455
3408170,-672,-23,454,376,-692,-606
3408202,-650,3,461,473,-694,-567
3408219,-684,21,469,442,-749,-595
3408236,-723,69,465,439,-779,-624
3408252,-668,182,465,480,-703,-581
3408269,-689,209,461,478,-737,-598
3408286,-560,403,449,575,-517,-468
3408318,-519,530,453,577,-429,-447
3408335,-470,604,452,608,-353,-398
3408352,-404,823,447,673,-210,-338
3408369,-387,819,446,619,-162,-341
3408386,-303,917,445,663,-42,-270
3408402,-304,963,434,617,-23,-295
3408434,-48,1312,453,774,326,-66
3408452,142,1623,478,846,579,103
3408468,112,1677,489,744,576,36
3408485,-65,1619,485,629,390,-151
3408502,-295,1413,475,456,113,-381
3408519,-285,1439,448,548,90,-351
3408551,116,1824,482,792,628,30
3408569,11,1662,492,693,507,-81
3408585,-82,1574,489,653,417,-176
3408601,-66,1635,484,655,470,-157
3408618,-41,1640,479,653,466,-123
3408635,-41,1786,472,649,441,-132
3408667,-91,2017,479,625,346,-169
3408685,-121,1973,487,603,342,-190
3408701,-131,1905,487,599,309,-201
3408718,-106,1830,493,604,270,-178
3408735,-107,1944,493,640,346,-180
3408751,-84,1875,507,628,260,-151
3408784,-72,1964,475,618,293,-138
3408802,-50,1768,480,646,146,-114
3408818,-14,1937,497,647,466,-72
3408835,-90,1669,535,668,-35,-154
3408851,-33,1796,519,579,344,-100
3408868,-40,1705,496,689,150,-37
3408900,-79,1608,508,633,155,-94
3408917,-113,1585,501,597,92,-159
3408933,-64,1641,508,620,60,-111
3408951,-1,1735,480,674,151,-27
3408967,-69,1713,470,633,83,-86
3408984,-96,1699,504,629,94,-86
3409017,-109,1795,491,609,20,-133
3409034,-118,1768,473,599,59,-123
3409051,-110,1773,482,613,72,-130
3409068,-116,1732,484,628,97,-120
3409084,-132,1739,488,610,65,-150
3409101,-132,1645,476,616,108,-135
3409134,-105,1525,470,629,138,-112
3409150,-92,1540,475,645,134,-106
3409167,-89,1491,478,642,142,-89
3409184,-100,1378,472,642,164,-87
3409201,-98,1286,486,639,164,-101
3409217,-108,1249,481,635,147,-97
3409249,-81,1341,480,630,142,-95
3409267,-93,1396,486,625,43,-118
3409283,-61,1320,484,632,40,-100
3409300,-55,1306,484,641,37,-97
3409317,-56,1256,487,636,32,-94
3409334,-57,1238,493,638,41,-101
3409366,-50,1216,491,647,53,-71
3409383,-72,1253,481,644,90,-69
3409400,-65,1311,482,642,57,-81
3409416,-79,1294,486,639,55,-95
3409433,-79,1252,481,635,36,-96
3409450,-41,1199,476,642,77,-74
3409482,-54,1082,473,635,75,-99
3409499,-58,1060,477,647,54,-99
3409517,-70,1005,478,654,92,-98
3409533,-76,973,480,652,78,-89
3409550,-119,961,486,644,69,-108
3409566,-109,935,488,655,66,-111
3409598,-149,900,484,659,57,-90
3409616,-184,908,484,663,70,-99
3409632,-214,890,480,654,57,-110
3409650,-224,934,479,659,63,-116
3409666,-229,987,485,648,59,-110
3409683,-231,951,490,645,56,-126
3409715,-245,1006,482,635,45,-124
3409733,-233,1053,484,644,43,-126
3409748,-232,1044,481,658,71,-108
3409766,-236,1076,478,657,49,-141
3409782,-238,1079,484,652,-60,-122
3409800,-234,1095,485,662,-62,-127
3409831,-203,1133,484,664,-19,-118
3409848,-211,1096,485,661,-15,-125
3409864,-211,1107,486,661,7,-147
3409881,-228,1088,486,671,-17,-145
3409899,-246,1066,485,679,-15,-174
3409915,-231,1108,487,647,-16,-159
3409964,-200,1179,480,681,50,-151
3409981,-200,1173,480,693,58,-157
3409999,-200,1171,477,680,40,-159
3410016,-205,1186,485,638,59,-177
3410031,-285,1123,486,632,-21,-252
3410048,-314,1130,484,645,-40,-297
3410080,-299,1163,486,663,-18,-275
3410097,-326,1130,489,662,-51,-293
3410114,-426,1049,480,602,-102,-373
3410132,-556,895,467,522,-303,-507
3410148,-670,749,454,508,-435,-600
3410164,-603,870,464,587,-379,-531
3410197,-677,745,457,551,-504,-594
3410215,-695,737,461,569,-523,-612
3410231,-725,682,463,548,-576,-643
3410247,-670,731,463,607,-505,-569
3410264,-625,802,460,619,-470,-566
3410281,-587,831,451,669,-413,-527
3410313,-547,859,450,637,-353,-487
3410331,-251,1173,472,822,3,-207
3410348,-187,1259,480,836,65,-160
3410364,-176,1265,482,782,116,-164
3410381,-219,1215,474,721,46,-223
3410398,-259,1130,470,690,-36,-269
3410430,-167,1222,473,750,82,-179
3410447,-155,1177,476,741,49,-179
3410464,-154,1079,484,742,66,-181
3410480,-119,947,480,738,75,-156
3410497,-117,917,485,738,81,-155
3410514,-99,931,482,750,75,-151
3410546,-106,943,483,717,71,-172
3410563,-118,930,491,724,86,-162
3410580,-104,911,487,730,96,-148
3410597,-108,917,490,728,91,-138
3410614,-87,967,484,730,117,-143
3410630,-81,918,476,723,104,-136
3410662,-70,932,478,736,104,-131
3410679,-50,930,485,715,95,-125
3410696,-50,921,483,721,103,-123
3410713,-43,954,483,718,98,-131
3410730,-43,934,483,724,100,-118
3410747,-46,942,487,722,105,-128
3410779,-11,902,489,711,106,-125
3410797,-6,922,491,713,74,-127
3410814,0,920,489,727,64,-118
3410829,17,893,487,730,58,-118
3410846,22,890,486,729,76,-106
3410863,19,883,487,718,46,-124
3410895,50,892,487,720,30,-105
3410913,61,890,486,726,71,-88
3410930,63,870,490,736,62,-82
3410945,84,877,479,745,87,-73
3410963,81,895,496,736,84,-51
3410979,81,881,490,734,86,-64
3411012,98,857,488,734,106,-47
3411030,90,879,486,726,101,-56
3411046,109,899,491,722,100,-63
3411063,116,899,486,724,92,-54
3411080,136,903,487,743,103,-47
3411096,140,872,494,741,87,-45
3411128,154,881,486,719,78,-40
3411146,156,909,495,721,70,-50
3411163,167,919,488,718,61,-36
3411179,172,916,486,729,86,-26
3411196,176,902,493,724,46,-20
3411213,178,916,491,744,61,-20
3411244,181,910,494,733,76,-12
3411262,183,918,491,720,62,-20
3411278,186,928,492,728,74,-20
3411296,197,910,494,731,63,-19
3411312,202,910,487,727,80,-10
3411329,209,895,491,747,66,0
3411361,249,923,489,737,76,19
3411378,272,938,480,726,78,38
3411394,271,915,484,724,80,49
3411411,276,912,490,726,74,48
3411429,286,914,485,728,61,48
3411445,281,893,483,728,55,54
3411477,294,832,489,745,55,76
3411495,296,827,492,729,28,73
3411512,309,812,484,735,48,83
3411528,299,806,493,734,39,81
3411545,318,825,493,738,53,78
3411562,310,800,501,730,27,85
3411594,326,797,498,733,17,82
3411611,330,773,495,725,20,83
3411628,338,756,489,751,11,95
3411644,342,741,503,750,23,90
3411661,347,749,497,743,-14,82
3411677,354,730,492,731,-6,81
3411710,375,737,495,747,-33,81
3411727,371,718,496,751,-22,81
3411745,383,713,491,750,-50,81
3411761,400,719,488,752,-47,97
3411777,401,717,491,748,-33,106
3411794,393,705,487,752,-26,112
3411826,398,711,492,747,-30,113
3411844,402,707,487,746,-34,122
3411860,404,714,489,733,-25,108
3411877,403,691,486,740,-42,117
3411894,415,679,494,743,-47,113
3411911,414,679,488,748,-48,112
3411943,447,646,489,761,-41,124
3411961,455,632,490,769,-23,124
3411976,443,618,497,761,-46,121
3411994,453,610,496,768,-35,116
3412010,463,600,494,770,-50,115
3412027,460,588,495,773,-50,118
3412060,458,559,496,778,-44,104
3412077,426,548,500,760,-55,90
3412094,430,534,500,768,-63,106
3412110,440,537,497,787,-27,122
3412127,454,524,494,774,-44,115
3412143,440,516,490,773,-29,109
3412175,432,491,496,767,-37,95
3412192,362,409,495,744,-119,53
3412209,366,387,496,767,-119,78
3412227,389,387,489,782,-122,111
3412243,330,252,495,756,-224,49
3412260,-230,-399,459,289,-884,-510
3412295,-177,-479,471,706,-897,-353
3412310,-30,-381,471,651,-725,-194
3412326,-117,-503,469,588,-849,-275
3412343,-175,-643,467,565,-918,-311
3412360,-200,-806,462,585,-948,-307
3412376,-171,-836,472,621,-908,-272
3412410,-194,-969,474,655,-859,-288
3412426,-119,-988,472,674,-813,-214
3412443,-54,-946,471,714,-701,-143
3412460,-151,-1054,477,646,-789,-244
3412476,-244,-1165,472,600,-876,-318
3412493,-293,-1225,480,571,-958,-365
3412525,-292,-1218,481,628,-923,-327
3412542,-230,-1160,485,620,-824,-279
3412559,-544,-1565,481,437,-1164,-605
3412575,-754,-1845,495,379,-1444,-776
3412593,-757,-1879,496,439,-1442,-760
3412609,-634,-1761,492,537,-1277,-634
3412641,-572,-1692,500,583,-1190,-566
3412658,-549,-1669,496,594,-1129,-549
3412676,-551,-1745,498,597,-1008,-563
3412693,-570,-1827,499,612,-896,-547
3412709,-544,-1856,492,605,-838,-542
3412726,-531,-1886,492,635,-806,-549
3412757,-524,-1899,496,630,-709,-546
3412776,-513,-1891,491,625,-688,-547
3412791,-528,-1904,491,622,-639,-565
3412808,-536,-1891,494,616,-638,-571
3412825,-553,-1878,491,619,-600,-585
3412842,-573,-1876,493,609,-606,-598
3412874,-559,-1856,497,621,-604,-602
3412891,-576,-1866,496,604,-558,-609
3412908,-585,-1886,500,625,-500,-602
3412924,-587,-1902,493,629,-479,-604
3412942,-587,-1902,493,629,-479,-604
3412958,-587,-1902,493,629,-479,-604
3412990,-587,-1902,493,629,-479,-604
3413008,-587,-1902,493,629,-479,-604
3413025,-587,-1902,493,629,-479,-604
3413041,-587,-1902,493,629,-479,-604
3413058,-587,-1902,493,629,-479,-604
3413075,-587,-1902,493,629,-479,-604
3413106,-587,-1902,493,629,-479,-604
3413124,-587,-1902,493,629,-479,-604
3413141,-587,-1902,493,629,-479,-604
3413158,-587,-1902,493,629,-479,-604
3413174,-587,-1902,493,629,-479,-604
3413190,-587,-1902,493,629,-479,-604
3413223,-587,-1902,493,629,-479,-604
3413241,-587,-1902,493,629,-479,-604
3413257,-587,-1902,493,629,-479,-604
3413274,-587,-1902,493,629,-479,-604
3413291,-587,-1902,493,629,-479,-604
3413307,-587,-1902,493,629,-479,-604
3413340,-587,-1902,493,629,-479,-604
3413357,-587,-1902,493,629,-479,-604
3413374,-587,-1902,493,629,-479,-604
3413390,-587,-1902,493,629,-479,-604
3413407,-587,-1902,493,629,-479,-604
3413424,-587,-1902,493,629,-479,-604
3413489,-587,-1902,493,629,-479,-604
3413507,-587,-1902,493,629,-479,-604
3413523,-587,-1902,493,629,-479,-604
3413540,-587,-1902,493,629,-479,-604
3413557,-587,-1902,493,629,-479,-604
3413573,-587,-1902,493,629,-479,-604
3413622,-587,-1902,493,629,-479,-604
3413639,-501,-1838,487,634,-290,-512
3413656,-490,-1570,499,606,-208,-525
3413673,-502,-1555,486,597,-128,-530
3413689,-474,-1242,471,721,179,-453
3413706,28,-548,478,890,731,99
3413739,556,-6,493,905,1278,571
3413756,598,3,463,932,1264,600
3413773,603,-135,490,906,1241,581
3413789,579,-80,482,904,1225,538
3413806,570,-104,487,890,1124,479
3413823,628,-7,485,926,1067,520
3413839,620,-7,501,914,843,508
3413872,659,40,493,924,689,507
3413889,722,156,486,901,646,532
3413905,727,173,482,920,575,551
3413923,710,245,485,897,555,532
3413939,711,294,477,906,501,578
3413956,684,242,478,901,435,583
3413987,703,329,501,895,359,596
3414005,728,358,489,907,402,644
3414022,762,443,471,908,339,662
3414039,754,471,482,906,369,672
3414055,730,468,483,885,315,657
3414072,721,483,490,890,275,645
3414089,724,473,490,890,237,646
3414121,726,481,499,894,245,644
3414139,742,533,492,875,233,624
3414155,750,522,487,890,204,640
3414172,758,555,492,882,187,638
3414188,765,540,494,894,172,646
3414205,767,550,493,895,164,642
3414237,772,560,495,895,31,631
3414255,779,559,499,898,-2,620
3414271,790,617,494,889,18,619
3414288,801,620,497,905,0,633
3414305,796,645,496,885,-21,599
3414321,784,648,500,890,-22,590
3414353,804,724,493,893,-22,558
3414371,799,754,494,883,-14,560
3414388,781,833,495,886,-21,544
3414404,775,861,501,886,-59,520
3414421,770,905,501,876,-66,500
3414438,781,954,500,881,-85,495
3414470,759,1023,498,871,-116,466
3414487,752,1037,501,872,-127,436
3414503,752,1009,504,887,-160,445
3414521,723,952,504,874,-239,415
3414537,702,968,505,862,-333,373
3414555,700,986,495,877,-361,379
3414586,705,986,504,868,-381,385
3414604,736,945,506,873,-368,416
3414620,811,954,508,875,-362,452
3414638,853,918,503,876,-382,486
3414654,865,922,510,873,-362,496
3414671,856,868,513,875,-382,505
3414703,785,837,515,879,-426,476
3414720,756,832,512,882,-447,438
3414737,725,834,516,880,-464,424
3414754,704,842,510,873,-468,379
3414771,691,827,509,883,-474,411
3414787,678,844,511,879,-492,398
3414820,666,835,508,888,-542,404
3414837,700,834,501,905,-691,433
3414853,693,837,508,899,-707,426
3414870,689,825,501,896,-713,431
3414887,678,854,500,886,-727,421
3414904,672,837,503,883,-712,445
3414936,637,818,502,874,-706,424
3414953,630,841,510,878,-690,434
3414970,638,812,501,884,-680,450
3414987,663,836,505,873,-656,471
3415003,753,863,503,865,-627,539
3415020,784,922,499,857,-608,550
3415052,790,906,501,869,-564,587
3415070,767,903,507,881,-574,572
3415086,755,861,505,885,-561,569
3415103,726,849,500,877,-584,556
3415120,686,841,500,869,-578,533
3415136,650,805,504,872,-581,497
3415168,584,764,507,868,-585,449
3415186,582,755,503,890,-577,422
3415202,585,772,502,885,-610,421
3415220,546,748,510,881,-591,407
3415236,533,749,507,876,-586,412
3415253,541,694,507,880,-576,415
3415285,549,672,498,888,-524,417
3415303,551,667,505,898,-553,423
3415319,554,643,505,886,-593,436
3415336,550,639,504,889,-566,422
3415352,564,647,505,878,-588,425
3415370,577,624,509,880,-570,432
3415401,603,646,504,888,-561,459
3415419,650,633,500,878,-530,507
3415436,741,644,500,875,-510,545
3415452,778,655,499,869,-445,572
3415469,770,588,502,870,-397,576
3415485,760,595,504,877,-398,569
3415502,749,525,507,890,-384,579
3415534,683,453,499,901,-412,533
3415552,658,400,502,900,-422,509
3415569,618,379,501,898,-475,483
3415585,618,391,497,899,-445,468
3415602,597,354,498,892,-460,476
3415619,598,341,496,904,-454,476
3415635,593,338,501,883,-452,466
3415667,606,332,507,889,-446,453
3415685,586,315,503,901,-451,458
3415701,601,315,502,883,-455,454
3415718,605,301,500,886,-465,478
3415735,618,292,505,889,-437,471
3415752,615,266,504,883,-435,471
3415784,630,223,504,891,-421,476
3415800,635,207,502,902,-415,490
3415818,662,196,505,890,-408,497
3415835,675,210,507,890,-402,506
3415851,797,238,503,885,-371,596
3415868,846,226,505,887,-334,624
3415900,864,225,504,890,-347,622
3415918,865,224,505,881,-330,630
3415934,868,231,502,886,-302,631
3415952,854,189,510,888,-305,632
3415968,842,128,507,870,-307,565
3415984,717,83,501,856,-326,503
3416016,690,65,502,882,-340,461
3416034,687,83,504,901,-334,467
3416050,660,72,508,868,-365,418
3416067,673,97,505,904,-345,444
3416085,625,52,501,798,-399,375
3416100,499,-115,501,764,-595,258
3416133,593,-17,495,890,-491,349
3416151,665,62,503,910,-391,412
3416167,681,75,501,916,-384,416
3416184,682,67,502,914,-379,426
3416201,774,180,498,957,-242,514
3416217,748,145,504,889,-290,484
3416249,697,81,504,862,-386,432
3416266,655,57,504,858,-410,397
3416283,624,30,501,859,-437,378
3416300,638,45,505,863,-450,384
3416317,693,100,505,901,-370,429
3416334,674,54,503,860,-402,404
3416366,594,-116,480,737,-583,326
3416383,614,-99,488,775,-569,348
3416400,663,-77,491,805,-534,370
3416416,715,-31,501,867,-438,443
3416433,775,59,501,915,-341,473
3416450,746,67,504,892,-353,452
3416482,543,-129,502,775,-546,281
3416499,451,-198,492,759,-640,218
3416516,423,-173,495,811,-638,207
3416533,559,-83,496,884,-509,329
3416550,674,46,503,951,-400,428
3416566,735,112,499,960,-282,480
3416598,699,47,501,866,-342,402
3416615,537,-136,501,759,-538,246
3416632,449,-357,493,674,-799,184
3416649,385,-308,498,758,-756,144
3416666,496,-196,495,859,-624,258
3416683,699,21,502,974,-407,436
3416715,799,123,503,967,-240,481
3416731,639,-71,499,831,-452,321
3416749,466,-363,492,698,-747,153
3416765,406,-321,494,752,-732,98
3416782,537,-202,494,855,-590,234
3416799,797,61,497,981,-330,436
3416831,1007,205,502,952,-157,556
3416849,873,51,498,831,-295,424
3416865,912,74,495,866,-247,473
3416882,836,4,492,889,-331,420
3416899,910,140,494,945,-114,557
3416916,1034,207,498,989,-17,621
3416948,941,219,501,928,12,535
3416965,904,211,495,917,-31,504
3416981,890,220,499,930,-56,503
3416998,877,196,500,915,-50,491
3417015,882,191,505,924,-78,499
3417032,871,198,498,917,-64,476
3417064,869,182,509,922,-83,474
3417082,844,195,510,897,-87,442
3417098,845,196,516,933,-81,462
3417115,830,207,520,908,-81,456
3417132,842,218,522,926,-88,449
3417148,819,192,511,915,-89,442
3417180,830,178,509,932,-76,452
3417197,832,178,511,929,-77,453
3417214,863,197,509,926,-86,482
3417232,849,192,509,915,-83,458
3417248,831,175,515,917,-95,461
3417265,835,136,520,910,-103,458
3417297,787,114,514,906,-119,408
3417314,837,143,507,939,-53,484
3417330,864,130,505,928,-43,490
3417347,874,137,506,917,-20,526
3417365,946,119,504,905,-9,570
3417381,975,112,503,905,-14,582
3417398,1004,155,503,912,48,614
3417430,1003,120,514,920,99,606
3417447,975,104,507,912,79,589
3417464,936,120,506,931,40,582
3417481,903,100,503,927,46,549
3417497,855,80,504,934,9,521
3417514,823,57,509,925,15,498
3417531,820,60,508,914,3,480
3417563,793,108,514,897,12,436
3417580,797,114,506,916,9,459
3417597,772,99,507,910,24,439
3417614,777,86,502,927,6,441
3417631,781,94,509,930,16,447
3417647,778,107,503,920,13,442
3417664,771,96,509,913,8,433
3417695,638,115,512,927,68,459
3417712,606,116,513,929,45,447
3417730,614,131,509,919,46,440
3417747,595,125,506,925,50,453
3417764,599,143,507,921,45,466
3417780,593,161,507,918,56,473
3417797,596,159,509,913,52,470
3417829,601,191,506,921,46,460
3417847,606,205,508,917,42,475
3417864,631,245,505,907,63,488
3417880,685,261,503,922,74,533
3417897,761,310,503,923,108,576
3417913,769,314,504,923,105,594
3417930,748,298,504,915,105,584
3417961,688,281,508,931,121,546
3417978,669,279,505,930,95,535
3417996,649,260,503,934,112,529
3418013,619,252,507,923,85,524
3418030,608,261,505,921,97,509
3418046,598,262,513,919,86,493
3418063,582,287,511,924,95,485
3418095,570,262,509,919,100,484
3418113,583,266,515,928,90,489
3418129,588,268,518,934,77,488
3418146,582,276,508,932,99,499
3418163,584,284,516,930,77,483
3418180,587,282,510,942,84,491
3418196,590,289,510,927,68,498
3418227,607,306,511,913,73,494
3418244,616,306,511,931,106,506
3418261,534,212,519,875,-27,416
3418279,349,15,507,772,-245,237
3418295,383,50,505,832,-240,261
3418312,500,160,514,988,-84,385
3418344,637,282,523,919,56,487
3418361,414,31,505,735,-251,242
3418378,327,-133,505,683,-436,157
3418394,246,-211,497,691,-564,91
3418412,178,-236,499,719,-573,83
3418429,242,-256,493,750,-568,92
3418463,197,-290,504,804,-601,57
3418481,195,-281,501,817,-572,77
3418497,220,-242,508,833,-551,93
3418514,200,-267,506,814,-533,87
3418531,198,-267,503,811,-522,83
3418547,111,-344,496,726,-616,0
3418577,-106,-592,502,679,-855,-185
3418594,-176,-671,506,695,-924,-205
3418612,-193,-581,509,769,-860,-148
3418628,-125,-536,503,765,-851,-179
3418645,-186,-590,505,769,-964,-196
3418661,-322,-712,503,692,-1039,-350
3418678,-431,-826,504,637,-1168,-441
3418710,-533,-915,505,651,-1337,-521
3418727,-479,-860,508,733,-1266,-457
3418745,-431,-777,510,786,-1134,-403
3418761,-343,-674,508,827,-1056,-327
3418778,-293,-615,506,850,-969,-287
3418794,-384,-703,504,756,-1062,-378
3418811,-451,-768,498,736,-1132,-430
3418843,-429,-731,503,797,-1100,-406
3418860,-366,-649,502,820,-1008,-350
3418877,-200,-391,501,924,-751,-194
3418893,-104,-303,500,958,-646,-102
3418911,-135,-322,493,920,-620,-126
3418928,-179,-372,488,844,-694,-201
3418960,-248,-441,498,815,-809,-267
3418977,-203,-410,504,878,-747,-229
3418993,-20,-250,504,926,-571,-61
3419010,69,-205,504,891,-540,-32
3419027,54,-257,499,858,-594,-58
3419044,-53,-362,506,799,-700,-159
3419076,-322,-652,503,722,-987,-379
3419093,-371,-692,505,749,-990,-410
3419111,-399,-716,511,803,-1033,-434
3419127,-382,-661,508,808,-971,-397
3419144,-342,-577,508,831,-905,-388
3419160,-365,-600,500,820,-935,-407
3419192,-463,-688,504,775,-1009,-502
3419210,-467,-699,501,776,-1034,-513
3419227,-375,-585,500,879,-905,-392
3419244,-273,-489,506,946,-814,-320
3419260,-189,-379,507,910,-705,-244
3419277,-253,-388,503,890,-718,-292
3419309,-406,-528,502,764,-887,-436
3419327,-470,-583,499,765,-964,-488
3419343,-465,-573,508,795,-945,-466
3419360,-445,-537,505,803,-933,-432
3419377,-404,-479,509,879,-863,-388
3419393,-311,-397,506,908,-745,-299
3419425,-358,-423,510,865,-797,-338
3419442,-358,-423,510,865,-797,-338
3419458,-581,-691,508,740,-1075,-554
3419476,-547,-653,511,790,-983,-483
3419492,-490,-597,517,834,-947,-442
3419509,-420,-517,510,875,-829,-378
3419525,-296,-419,506,890,-715,-277
3419558,-315,-664,496,706,-994,-465
3419575,-476,-749,500,696,-1074,-492
3419591,-502,-764,505,734,-1091,-480
3419608,-440,-670,501,827,-989,-417
3419625,-436,-631,504,846,-930,-399
3419642,-355,-533,512,902,-848,-322
3419674,-346,-550,502,807,-871,-326
3419691,-445,-582,487,823,-914,-403
3419708,-479,-584,501,801,-951,-435
3419726,-409,-510,504,845,-878,-368
3419742,-334,-407,503,887,-795,-297
3419760,-231,-327,504,936,-700,-241
3419790,-189,-273,501,904,-618,-239
3419808,-299,-394,500,810,-774,-347
3419824,-376,-459,500,789,-817,-403
3419841,-343,-409,500,842,-770,-337
3419858,-277,-356,503,879,-672,-279
3419875,-134,-166,497,968,-515,-155
3419908,100,42,499,994,-251,21
3419925,60,25,494,960,-271,-29
3419942,18,-17,497,926,-325,-77
3419958,-72,-91,503,857,-406,-160
3419975,-95,-127,505,861,-447,-175
3419991,-109,-168,506,846,-481,-199
3420024,-38,-77,504,915,-389,-103
3420041,-56,-145,499,848,-462,-116
3420057,-159,-187,496,836,-506,-229
3420075,-325,-393,505,701,-766,-402
3420091,-345,-467,505,743,-830,-402
3420108,-384,-527,509,728,-893,-450
3420157,-253,-380,504,806,-765,-332
3420175,-296,-441,498,775,-819,-355
3420190,-298,-482,491,724,-904,-427
3420208,-343,-534,495,716,-938,-432
3420224,-184,-418,496,770,-869,-320
3420241,-118,-361,496,831,-811,-256
3420273,-63,-259,501,849,-697,-188
3420291,-63,-259,501,849,-697,-188
3420307,-63,-259,501,849,-697,-188
3420324,0,-227,503,851,-623,-132
3420340,-168,-371,500,796,-796,-277
3420357,-145,-346,508,817,-778,-262
3420374,-72,-264,499,857,-689,-177
3420406,-4,-153,506,880,-540,-137
3420424,-60,-216,503,804,-614,-183
3420440,-132,-273,505,751,-660,-261
3420456,-285,-486,492,717,-878,-418
3420474,-314,-477,499,748,-889,-416
3420490,-259,-409,502,788,-818,-359
3420522,-34,-171,502,915,-572,-174
3420540,-41,-164,497,880,-569,-193
3420556,-51,-145,500,861,-553,-209
3420573,-120,-335,497,744,-753,-281
3420590,-242,-333,494,782,-775,-367
3420607,-228,-341,492,779,-787,-379
3420639,-55,-143,499,895,-576,-211
3420657,-34,-113,497,879,-552,-205
3420673,-40,-101,499,862,-542,-207
3420690,-47,-152,493,818,-609,-221
3420706,-92,-256,483,745,-720,-269
3420723,-176,-269,495,758,-772,-356
3420755,-29,-124,503,861,-577,-211
3420772,61,-30,503,888,-490,-142
3420790,57,-45,502,882,-499,-137
3420805,52,-53,498,852,-512,-166
3420822,-9,-77,498,806,-570,-228
3420839,-85,-171,500,762,-683,-295
3420872,-120,-224,504,763,-736,-322
3420889,-34,-121,505,835,-624,-227
3420906,26,-61,505,845,-579,-189
3420923,52,-67,498,842,-551,-179
3420939,40,-41,491,821,-566,-198
3420956,-8,-126,490,752,-624,-230
3420989,120,-24,489,803,-583,-149
3421006,315,174,496,916,-366,36
3421023,453,368,495,1006,-150,157
3421039,723,688,490,1165,148,402
3421056,659,665,505,1024,159,304
3421073,467,444,494,926,-68,153
3421105,458,437,505,978,-90,163
3421122,748,724,506,1085,249,416
3421138,737,731,510,1013,268,384
3421155,747,733,507,1004,240,364
3421172,616,586,501,891,83,251
3421189,539,488,497,838,-29,153
3421221,628,572,500,932,56,237
3421238,753,523,508,855,45,348
3421255,507,421,505,803,-71,100
3421271,317,240,500,706,-328,-74
3421289,315,243,498,753,-334,-70
3421305,342,284,491,782,-329,-42
3421337,292,208,486,772,-381,-82
3421355,257,184,487,730,-436,-109
3421372,227,187,498,783,-423,-121
3421388,341,314,499,847,-317,-21
3421404,355,337,503,837,-270,6
3421422,383,396,494,862,-250,28
3421453,355,417,497,845,-250,23
3421471,411,457,501,824,-197,48
3421487,381,441,504,843,-225,36
3421504,267,384,511,859,-273,-80
3421522,311,364,503,811,-310,-32
3421538,364,427,507,846,-276,31
3421570,283,357,502,785,-320,-39
3421588,287,373,496,811,-314,-15
3421603,370,470,504,871,-213,70
3421621,514,751,506,1023,119,200
3421638,693,856,507,1036,251,384
3421654,743,894,519,1001,306,392
3421687,693,832,506,925,234,335
3421704,826,922,502,929,291,448
3421721,975,1057,509,1006,451,576
3421738,1031,1133,515,1084,531,626
3421754,1114,1233,516,1027,639,689
3421771,1029,1145,525,969,567,585
3421803,650,788,511,790,155,279
3421820,574,698,512,790,68,239
3421837,613,769,507,836,133,269
3421854,630,803,511,874,185,308
3421871,620,818,530,800,176,290
3421887,533,450,516,636,-211,199
3421969,-171,-85,505,577,-849,-394
3421986,-300,-219,508,555,-996,-490
3422003,-289,-210,512,616,-976,-467
3422020,-276,-179,514,671,-923,-445
3422036,-340,-248,507,629,-981,-521
3422053,-363,-265,510,637,-1024,-543
3422085,-505,-436,508,597,-1172,-676
3422103,-441,-358,506,691,-1078,-601
3422119,-426,-330,505,708,-1043,-593
3422136,-338,-224,503,750,-914,-519
3422153,-188,-28,502,826,-671,-386
3422169,-72,90,498,875,-520,-265
3422202,-39,178,485,830,-440,-251
3422220,-44,179,484,844,-447,-259
3422236,9,228,488,881,-367,-187
3422253,123,354,496,936,-236,-102
3422270,194,453,497,969,-149,-46
3422286,274,586,498,945,-28,12
3422318,144,440,495,830,-162,-108
3422336,48,345,495,748,-289,-208
3422351,-36,230,497,741,-422,-277
3422369,-151,89,498,678,-557,-381
3422385,-77,154,500,787,-476,-273
3422403,12,325,509,898,-284,-204
3422435,171,422,502,904,-154,-58
3422452,167,397,494,845,-192,-101
3422468,89,316,498,800,-275,-179
3422486,-35,175,501,731,-433,-290
3422502,-57,134,503,738,-462,-306
3422518,-40,122,508,768,-423,-281
3422551,-35,118,509,777,-428,-275
3422568,-120,58,506,727,-548,-364
3422584,-231,-79,495,664,-721,-469
3422602,-353,-227,499,618,-846,-567
3422619,-283,-142,492,702,-791,-505
3422635,-269,-139,502,706,-782,-501
3422668,-209,-70,506,745,-692,-436
3422685,-244,-87,511,721,-746,-480
3422702,-476,-299,507,591,-1018,-683
3422719,-648,-516,502,512,-1234,-837
3422735,-569,-432,505,628,-1176,-745
3422752,-616,-498,506,603,-1228,-797
3422784,-605,-452,504,611,-1198,-776
3422802,-716,-568,508,535,-1315,-868
3422818,-854,-820,499,484,-1577,-1062
3422835,-843,-720,508,582,-1481,-973
3422851,-989,-389,504,791,-1154,-699
3422868,-989,-288,507,774,-1024,-665
3422900,-896,-159,507,810,-855,-567
3422917,-818,-66,503,844,-774,-499
3422934,-753,30,507,870,-673,-430
3422951,-650,143,497,861,-550,-359
3422967,-773,12,496,768,-672,-494
3422984,-756,13,500,780,-681,-490
3423017,-774,-28,505,761,-741,-516
3423034,-765,-31,500,753,-736,-530
3423051,-742,6,497,779,-713,-505
3423068,-708,45,495,828,-695,-478
3423084,-677,95,493,769,-671,-454
3423100,-723,35,490,733,-742,-505
3423133,-617,145,492,818,-620,-404
3423150,-495,282,493,863,-479,-310
3423167,-406,378,503,905,-367,-221
3423183,-406,378,494,912,-367,-221
3423200,-406,378,494,912,-367,-221
3423216,-406,378,494,912,-367,-221
3423249,-406,378,494,912,-367,-221
3423267,-406,378,494,912,-367,-221
3423283,-406,378,494,912,-367,-221
3423300,-406,378,494,912,-367,-221
3423317,-406,378,494,912,-367,-221
3423333,-406,378,494,912,-367,-221
3423365,-406,378,494,912,-367,-221
3423383,-406,378,494,912,-367,-221
3423400,-406,378,494,912,-367,-221
3423416,-406,378,494,912,-367,-221
3423433,-406,378,494,912,-367,-221
3423450,-406,378,494,912,-367,-221
3423482,-406,378,494,912,-367,-221
3423500,-406,378,494,912,-367,-221
3423516,-406,378,494,912,-367,-221
3423532,-406,378,494,912,-367,-221
3423549,-406,378,494,912,-367,-221
3423566,-406,378,494,912,-367,-221
3423598,-406,378,494,912,-367,-221
3423616,-406,378,494,912,-367,-221
3423632,-406,378,494,912,-367,-221
3423649,-406,378,494,912,-367,-221
3423666,-352,376,506,837,-358,-249
3423682,-517,262,509,837,-504,-326
3423714,-674,120,503,658,-736,-456
3423732,-612,211,504,735,-609,-358
3423749,-1472,-827,503,353,-1722,-1149
3423765,-1507,-867,512,561,-1689,-1086
3423781,-1503,-869,510,569,-1676,-1110
3423799,-1517,-877,512,564,-1674,-1115
3423831,-1482,-844,510,587,-1647,-1103
3423849,-1453,-871,515,597,-1652,-1099
3423865,-1424,-859,505,594,-1657,-1088
3423882,-1412,-847,513,601,-1637,-1085
3423899,-1419,-854,508,596,-1651,-1098
3423915,-1403,-825,510,596,-1642,-1096
3423948,-1391,-857,516,608,-1632,-1088
3423965,-1395,-858,516,599,-1630,-1090
3423982,-1388,-851,516,605,-1608,-1093
3423999,-1384,-821,519,604,-1631,-1084
3424015,-1383,-828,520,606,-1617,-1086
3424032,-1367,-818,516,606,-1610,-1081
3424081,-1173,-848,518,588,-1624,-1109
3424098,-1134,-851,507,565,-1655,-1130
3424115,-1083,-859,514,588,-1646,-1133
3424131,-1072,-875,509,580,-1629,-1133
3424148,-1072,-881,513,589,-1627,-1122
3424165,-1043,-886,508,580,-1630,-1120
3424197,-1023,-894,505,584,-1629,-1120
3424213,-991,-881,501,583,-1616,-1122
3424230,-935,-856,504,591,-1604,-1096
3424248,-865,-803,504,665,-1559,-1076
3424264,-674,-564,501,735,-1269,-878
3424280,-566,-533,506,706,-1264,-871
3424313,-778,-811,502,546,-1549,-1085
3424331,-815,-856,498,526,-1603,-1129
3424348,-759,-813,502,595,-1555,-1055
3424364,-583,-615,504,690,-1368,-907
3424381,-475,-445,496,725,-1152,-804
3424398,-353,-321,496,774,-1021,-689
3424430,-207,-180,490,826,-839,-563
3424447,-157,-108,492,791,-769,-546
3424464,-156,-102,498,790,-774,-548
3424481,-1,44,494,830,-570,-427
3424497,-87,-49,499,745,-654,-506
3424515,-99,-6,493,756,-658,-490
3424546,140,311,490,887,-319,-321
3424564,312,407,499,905,-188,-193
3424580,364,489,486,916,-105,-135
3424597,319,427,483,826,-157,-199
3424614,177,285,482,711,-322,-338
3424630,157,253,488,736,-350,-338
3424663,330,508,484,882,-59,-190
3424680,590,741,490,935,148,34
3424696,690,841,485,974,295,129
3424713,649,829,483,881,251,59
3424730,630,796,482,879,238,71
3424747,701,891,487,900,331,143
3424779,1107,1323,507,1093,803,494
3424797,1178,1414,512,1045,928,527
3424813,826,1066,503,780,525,204
3424830,620,840,494,699,286,38
3424847,629,864,485,776,282,94
3424863,684,928,485,820,370,170
3424895,1227,1552,513,1120,1049,690
3424913,1358,1724,510,1080,1225,788
3424930,1271,1537,509,944,1033,606
3424946,1137,1524,518,931,1024,612
3424963,1128,1514,520,955,1041,631
3424979,1127,1529,523,956,1054,655
3425011,1089,1517,523,929,1016,647
3425029,1071,1527,524,928,994,634
3425046,1050,1501,531,912,989,647
3425063,1031,1487,526,911,1007,646
3425079,1000,1512,528,913,991,646
3425096,951,1464,529,891,962,629
3425128,938,1503,528,909,961,653
3425146,931,1498,529,911,958,661
3425161,924,1497,532,897,981,670
3425178,903,1485,528,897,944,673
3425195,793,1378,530,843,827,571
3425212,723,1313,525,797,720,516
3425244,711,1299,530,831,686,518
3425262,728,1319,526,877,725,553
3425279,731,1330,536,860,721,549
3425294,603,1190,529,770,574,426
3425312,347,780,509,596,129,192
3425329,156,668,496,596,-11,41
3425361,178,675,497,678,-3,66
3425378,212,703,491,703,15,81
3425395,247,699,507,737,39,113
3425412,135,565,499,619,-140,-24
3425427,166,570,509,692,-126,9
3425445,155,562,496,712,-135,-17
3425477,189,549,494,696,-171,-14
3425495,86,421,495,632,-304,-101
3425511,-54,277,491,564,-485,-251
3425528,-77,227,487,583,-516,-250
3425545,175,475,495,787,-230,1
3425562,411,795,497,896,93,199
3425594,460,851,499,852,172,244
3425611,433,800,502,791,133,194
3425627,495,872,502,848,181,257
3425645,782,1210,511,1024,532,537
3425661,921,1388,524,1053,736,659
3425678,971,1477,527,974,823,692
3425711,1025,1486,528,941,833,740
3425728,1041,1581,532,992,944,770
3425743,1046,1574,529,988,961,772
3425761,1011,1535,528,954,927,747
3425778,1019,1541,531,932,921,742
3425794,1029,1507,531,938,878,749
3425826,1050,1496,512,926,868,745
3425844,1054,1480,517,895,885,746
3425860,1057,1462,526,890,875,751
3425878,1061,1461,524,880,862,751
3425894,1071,1444,535,895,860,760
3425911,1073,1433,526,904,854,766
3425927,1063,1434,532,892,850,767
3425960,1045,1415,511,884,851,753
3425977,1042,1362,507,890,850,742
3425993,1028,1345,509,882,817,740
3426011,1112,1415,528,945,910,823
3426027,863,1142,531,776,608,575
3426044,198,388,507,298,-145,-85
3426076,27,196,484,498,-425,-124
3426094,230,454,482,591,-154,67
3426111,149,318,486,593,-337,-11
3426128,-122,68,489,465,-600,-275
3426145,-352,-177,508,369,-926,-472
3426160,-390,-158,498,435,-1005,-493
3426193,12,386,513,800,-508,-67
3426210,66,505,505,804,-306,6
3426227,164,666,506,908,-225,88
3426243,-49,691,510,697,-243,6
3426260,967,1852,515,1443,964,1017
3426276,1033,2065,515,1276,1134,1012
3426309,885,2056,532,1073,970,877
3426327,764,1978,533,979,865,775
3426344,726,1988,540,960,826,756
3426359,721,1991,534,944,836,759
3426376,716,2009,539,925,829,774
3426393,741,2056,530,923,806,787
3426425,726,2007,551,916,820,794
3426443,691,2009,537,908,789,783
3426458,674,2016,531,905,786,799
3426476,665,2001,527,883,803,794
3426492,665,2010,531,889,671,791
3426510,674,1992,529,868,753,781
3426541,703,1948,530,871,725,796
3426558,682,1900,542,859,641,757
3426576,706,1919,519,854,634,763
3426593,704,1890,498,857,621,758
3426608,710,1880,504,865,554,748
3426626,692,1832,548,828,526,707
3426657,677,1801,548,824,434,659
3426674,683,1819,533,842,424,673
3426691,644,1760,533,816,401,636
3426709,636,1706,532,830,402,646
3426725,630,1651,531,829,378,640
3426742,614,1612,543,846,386,640
3426774,601,1613,567,829,315,629
3426792,561,1567,564,835,358,595
3426808,593,1592,538,845,351,612
3426825,602,1576,517,851,378,618
3426842,609,1585,508,841,349,614
3426859,584,1568,518,823,319,585
3426891,551,1579,536,818,333,580
3426908,651,1757,531,892,411,660
3426925,650,1780,519,871,288,604
3426942,-166,852,534,170,-613,-231
3426958,-154,758,498,487,-815,-159
3426975,-25,857,483,540,-604,-60
3427007,-1732,-959,506,-648,-2792,-1768
3427025,-1267,-494,538,-33,-2553,-1338
3427041,-1168,-3,514,379,-2055,-924
3427058,-948,38,523,388,-2051,-913
3427075,-966,68,547,364,-2053,-963
3427091,-933,100,556,391,-2037,-948
3427123,-822,375,524,453,-1951,-915
3427140,-853,503,535,437,-1967,-918
3427157,-889,794,496,441,-1960,-970
3427173,-904,878,522,465,-1973,-948
3427191,-899,919,522,470,-1956,-960
3427208,-911,943,510,486,-1940,-960
3427240,-889,1069,457,488,-1845,-935
3427256,-954,1509,474,478,-1912,-967
3427273,-967,1612,473,478,-1915,-976
3427290,-950,1209,467,528,-1834,-940
3427307,-821,1156,461,536,-1826,-920
3427324,-797,1089,443,546,-1741,-870
3427356,-798,917,424,508,-1711,-899
3427374,-839,935,406,481,-1759,-954
3427390,-1018,620,393,310,-1979,-1145
3427407,580,2713,369,1428,140,464
3427424,370,3740,413,1793,987,1092
3427440,740,3159,368,971,442,387
3427472,643,3167,405,924,217,299
3427490,572,3202,420,877,124,237
3427506,457,3490,430,825,95,159
3427524,449,3262,426,851,74,188
3427541,468,3175,421,849,103,194
3427557,482,3202,455,834,37,162
3427589,495,3260,466,811,-56,132
3427607,481,3258,462,803,-50,127
3427623,396,3115,469,753,-150,28
3427639,424,3192,426,783,-176,37
3427657,469,3307,397,769,-150,43
3427673,503,3402,423,738,-209,24
3427705,478,3531,389,724,-247,-10
3427722,424,3476,394,717,-238,-25
3427739,365,3601,377,695,-294,-68
3427756,323,3652,363,705,-272,-68
3427773,287,3834,347,698,-280,-54
3427790,228,4059,334,671,-266,-76
3427822,55,4588,351,611,-462,-193
3427839,-25,4677,353,615,-450,-203
3427856,-118,4952,344,595,-566,-254
3427873,-175,4358,369,647,-526,-232
3427890,-278,4188,356,626,-556,-238
3427906,-298,3830,349,679,-494,-188
3427923,-371,3796,338,624,-548,-233
3427955,-493,3841,392,546,-849,-422
3427972,-413,4185,374,550,-886,-472
3427989,-590,4756,382,520,-1009,-499
3428006,-707,4869,416,493,-1100,-607
3428023,-857,4556,419,543,-1114,-585
3428039,-1087,4330,446,571,-1121,-563
3428056,-1185,4295,460,634,-1170,-579
3428087,-1183,3955,479,562,-1195,-609
3428105,-6349,-3239,420,-3828,-6568,-5901
3428121,-6995,-7427,295,-5265,-6959,-7064
3428138,-7175,-7292,346,-3962,-7168,-7199
3428156,-6931,-6983,378,-2944,-6932,-6945
3428171,-6939,-6949,371,-2421,-6939,-6951
3428189,-6939,-6945,400,-1993,-6938,-6948
3428221,-6935,-6950,418,-1613,-6936,-6949
3428238,-6936,-6950,416,-1538,-6936,-6950
3428254,-6936,-6950,443,-1371,-6936,-6950
3428272,-6936,-6951,471,-1278,-6936,-6950
3428288,-7053,-7179,437,-1334,-6988,-7110
3428305,-7029,-7025,413,-1059,-7073,-6998
3428338,-2478,543,506,3421,-4148,-1590
3428355,-587,2693,509,2764,-1174,-405
3428371,429,3132,492,2155,-484,-308
3428389,691,3123,512,1866,-259,-251
3428405,685,3076,528,1645,-108,-224
3428421,863,3114,540,1505,20,-159
3428454,1317,3070,582,1329,374,105
3428471,-726,-3817,500,-3708,-5827,-1912
3428488,-7362,-7351,318,-5393,-7068,-7135
3428504,-7257,-7277,443,-3427,-7231,-7204
3428521,-6949,-6967,439,-2215,-6946,-6951
3428538,-6952,-6951,441,-2112,-6952,-6950
3428570,-6947,-6947,402,-1699,-6949,-6953
3428588,-6947,-6947,401,-1425,-6948,-6954
3428604,-6948,-6947,415,-1286,-6947,-6954
3428621,-6947,-6947,423,-1197,-6948,-6954
3428637,-6947,-6947,439,-1135,-6948,-6954
3428654,-6947,-6947,421,-1069,-6948,-6954
3428686,-6947,-6947,390,-959,-6948,-6957
3428704,-6947,-6947,419,-880,-6948,-6942
3428720,-6947,-6947,432,-838,-6948,-6935
3428737,-6947,-6946,419,-773,-6948,-6908
3428754,-6947,-6954,353,-743,-6948,-6841
3428770,-6947,-6921,339,-707,-6948,-6767
