TIME,AF3,F7,F3,F4,F8,AF4
6468974,-838,1354,-182,1787,-1642,-1071
6469006,-806,1323,-180,1791,-1728,-1070
6469023,-856,1323,-183,1782,-1586,-1039
6469041,-811,1323,-175,1787,-1667,-1048
6469057,-809,1314,-179,1787,-1620,-1037
6469074,-822,1310,-180,1787,-1579,-1077
6469090,-850,1320,-156,1786,-1637,-1044
6469122,-846,1283,-154,1793,-1680,-1042
6469140,-840,1275,-154,1787,-1615,-1034
6469156,-819,1265,-149,1788,-1637,-1042
6469176,-810,1283,-150,1786,-1551,-1011
6469191,-741,1096,-159,1789,-1410,-940
6469210,-600,993,-150,1786,-1323,-900
6469273,-399,784,-126,1795,-1091,-875
6469290,-570,1106,-161,1784,-966,-900
6469310,-514,781,-136,1789,-946,-927
6469329,-442,565,-125,1785,-1101,-1005
6469373,-703,566,-173,1740,-1833,-1233
6469390,-931,386,-203,1723,-1961,-1273
6469407,-910,199,-222,1723,-2128,-1274
6469424,-829,1,-238,1692,-2170,-1258
6469440,-844,-17,-232,1714,-2262,-1240
6469456,-403,-29,-231,1726,-2100,-1130
6469488,-10,-152,-232,1724,-2158,-1071
6469505,123,-174,-233,1729,-2256,-1076
6469522,238,-299,-232,1723,-2120,-1030
6469539,274,-30,-251,1719,-2278,-1086
6469555,288,-58,-242,1719,-2301,-1076
6469573,294,10,-249,1693,-2093,-1066
6469605,266,27,-256,1699,-2190,-1114
6469622,333,31,-259,1701,-2247,-1119
6469639,437,-14,-258,1695,-2362,-1106
6469656,316,32,-266,1695,-2113,-1167
6469672,412,54,-269,1694,-2122,-1196
6469689,543,65,-266,1691,-2195,-1220
6469722,555,172,-262,1695,-2010,-1241
6469738,496,151,-256,1698,-1892,-1229
6469756,633,103,-253,1697,-1916,-1230
6469772,580,98,-255,1700,-1839,-1179
6469789,652,89,-258,1697,-1749,-1202
6469805,643,103,-256,1693,-1843,-1220
6469837,702,91,-259,1697,-1770,-1213
6469856,714,64,-258,1694,-1717,-1232
6469873,783,61,-261,1692,-1702,-1214
6469890,787,25,-260,1698,-1787,-1200
6469906,817,50,-264,1692,-1657,-1177
6469922,812,6,-263,1685,-1700,-1186
6469953,936,4,-266,1693,-1687,-1082
6469972,1008,-38,-262,1694,-1663,-1153
6469988,979,-30,-259,1696,-1708,-1140
6470005,946,-28,-260,1696,-1683,-1125
6470021,994,-66,-256,1698,-1810,-1169
6470038,959,-64,-259,1694,-1714,-1113
6470070,956,-27,-259,1692,-1843,-1167
6470090,999,-72,-251,1695,-1891,-1131
6470105,964,-53,-246,1699,-1913,-1136
6470121,992,-62,-254,1668,-1959,-1159
6470137,969,14,-238,1671,-1956,-1135
6470154,1006,-11,-248,1663,-1962,-1139
6470270,1426,-717,-276,1617,-2022,-1212
6470287,1466,-689,-277,1615,-2065,-1197
6470304,1485,-716,-281,1613,-2095,-1207
6470321,1473,-696,-292,1605,-2099,-1207
6470338,1500,-719,-299,1610,-2054,-1183
6470354,1519,-751,-298,1597,-2133,-1207
6470386,1499,-779,-320,1592,-2091,-1161
6470405,1565,-829,-323,1605,-2102,-1148
6470421,1577,-825,-327,1604,-2068,-1159
6470437,1525,-813,-321,1603,-2088,-1169
6470454,1501,-809,-302,1608,-2084,-1143
6470471,1456,-811,-291,1617,-2060,-1135
6470504,1356,-700,-261,1613,-1924,-1095
6470521,1129,-545,-260,1636,-1870,-1056
6470537,873,-523,-261,1630,-1781,-1040
6470554,860,-497,-255,1645,-1771,-1020
6470570,853,-498,-251,1643,-1773,-1045
6470587,843,-502,-251,1652,-1731,-1030
6470620,764,-506,-237,1669,-1634,-1006
6470637,755,-534,-238,1666,-1669,-1017
6470653,737,-541,-231,1667,-1604,-975
6470670,705,-530,-232,1669,-1583,-985
6470686,713,-514,-226,1690,-1483,-983
6470704,682,-531,-222,1677,-1519,-987
6470736,627,-515,-215,1689,-1471,-1017
6470753,569,-496,-202,1693,-1428,-977
6470770,532,-495,-200,1698,-1480,-980
6470786,497,-494,-194,1697,-1439,-968
6470803,487,-520,-198,1700,-1413,-961
6470819,469,-559,-202,1697,-1400,-968
6470837,436,-607,-198,1698,-1394,-953
6470868,391,-628,-202,1692,-1355,-949
6470886,357,-599,-195,1697,-1307,-954
6470902,401,-591,-200,1693,-1330,-955
6470920,389,-587,-187,1686,-1320,-949
6470936,344,-569,-186,1697,-1306,-964
6470953,333,-571,-182,1695,-1291,-949
6470969,322,-571,-160,1697,-1282,-960
6471003,265,-526,-164,1697,-1266,-960
6471019,293,-532,-162,1701,-1255,-953
6471036,291,-529,-158,1699,-1251,-954
6471052,281,-504,-156,1697,-1217,-953
6471069,288,-552,-168,1701,-1250,-937
6471086,312,-554,-175,1697,-1210,-936
6471118,306,-525,-195,1686,-1016,-921
6471135,356,-510,-183,1693,-1119,-1008
6471152,450,-544,-153,1702,-1236,-979
6471170,318,-469,-156,1698,-1004,-1067
6471186,239,-479,-159,1725,-1071,-1065
6471202,288,-464,-149,1725,-1117,-1104
6471234,197,-462,-122,1731,-1199,-1123
6471252,88,-448,-126,1729,-1115,-1077
6471267,155,-454,-122,1729,-1187,-1057
6471284,71,-411,-126,1725,-1127,-1073
6471302,22,-391,-124,1728,-1113,-1072
6471318,108,-413,-124,1728,-1173,-1054
6471350,39,-389,-124,1726,-1151,-1044
6471367,6,-406,-97,1724,-1092,-1038
6471384,-3,-391,-101,1727,-1069,-1027
6471402,15,-381,-105,1724,-1052,-985
6471418,28,-375,-94,1727,-1044,-1005
6471435,33,-360,-94,1727,-1079,-1011
6471467,36,-373,-94,1728,-1130,-991
6471484,14,-349,-94,1724,-1097,-972
6471500,26,-375,-94,1727,-1181,-1019
6471517,13,-382,-95,1728,-1115,-960
6471533,31,-375,-81,1727,-1181,-990
6471551,-5,-368,-83,1727,-1178,-969
6471583,35,-351,-64,1728,-1159,-934
6471600,1,-351,-68,1728,-1073,-943
6471617,-32,-358,-61,1730,-986,-930
6471634,-31,-361,-85,1730,-911,-921
6471651,-30,-374,-64,1730,-824,-894
6471668,-37,-397,-84,1728,-754,-901
6471699,-141,-387,-68,1729,-591,-932
6471717,-113,-380,-89,1731,-548,-948
6471734,-119,-387,-72,1730,-554,-954
6471750,-115,-392,-65,1735,-541,-926
6471767,-91,-402,-65,1742,-568,-969
6471784,-170,-392,-66,1723,-457,-939
6471819,-168,-414,-59,1732,-497,-980
6471833,-130,-416,-63,1747,-633,-950
6471849,-171,-412,-65,1727,-458,-973
6471867,-169,-415,-65,1733,-503,-967
6471884,-153,-415,-61,1729,-452,-973
6471901,-156,-398,-68,1731,-326,-986
6471932,-120,-416,-66,1727,-208,-966
6471949,-101,-385,-63,1734,-155,-909
6471967,49,-355,-66,1741,-69,-862
6471983,5,-332,-65,1731,-151,-950
6472001,1,-357,-64,1734,-252,-978
6472016,-63,-359,-63,1731,-340,-993
6472048,-130,-354,-61,1735,-381,-991
6472065,-155,-333,-64,1749,-392,-999
6472084,-164,-345,-56,1739,-437,-1002
6472099,-205,-350,-63,1741,-447,-986
6472116,-185,-343,-57,1755,-482,-977
6472132,-191,-360,-60,1747,-471,-973
6472150,-233,-353,-51,1752,-503,-975
6472181,-228,-350,-35,1753,-498,-957
6472199,-225,-328,-30,1761,-578,-942
6472217,-263,-331,-29,1762,-576,-949
6472233,-249,-349,-30,1760,-604,-943
6472250,-204,-358,-26,1759,-693,-940
6472266,-243,-352,-34,1760,-603,-929
6472298,-250,-366,-31,1757,-701,-948
6472316,-239,-388,-29,1762,-711,-952
6472333,-278,-398,-28,1761,-684,-898
6472350,-266,-427,-31,1784,-582,-910
6472366,-282,-451,-54,1750,-460,-899
6472383,-210,-477,-63,1750,-437,-900
6472415,-292,-467,-31,1762,-446,-949
6472432,-290,-479,-33,1771,-442,-961
6472449,-285,-481,-27,1758,-475,-927
6472465,-338,-497,-29,1768,-414,-937
6472483,-334,-475,-28,1776,-454,-925
6472499,-319,-475,-26,1763,-448,-938
6472531,-320,-366,-19,1775,-465,-914
6472549,-358,-347,-30,1758,-449,-939
6472564,-310,-348,-18,1772,-526,-927
6472583,-352,-330,-19,1763,-489,-937
6472599,-323,-333,-18,1763,-478,-903
6472615,-338,-335,-2,1767,-499,-949
6472647,-349,-304,0,1762,-466,-921
6472664,-322,-295,0,1765,-527,-940
6472682,-339,-288,-2,1763,-541,-926
6472698,-368,-257,4,1770,-544,-920
6472715,-368,-235,21,1782,-582,-913
6472731,-425,-232,29,1783,-518,-907
6472763,-314,-199,32,1789,-503,-796
6472781,-91,-196,30,1786,-535,-778
6472797,-39,-164,32,1787,-552,-766
6472814,-136,-145,47,1793,-687,-826
6472831,-151,-122,57,1794,-734,-893
6472848,-245,-125,33,1786,-744,-866
6472881,-297,-155,32,1784,-719,-897
6472898,-328,-163,30,1786,-721,-921
6472914,-336,-160,32,1780,-713,-904
6472931,-363,-146,33,1771,-708,-924
6472948,-359,-119,30,1765,-710,-917
6472964,-360,-67,33,1764,-649,-917
6472996,-362,-61,31,1758,-567,-905
6473014,-330,-28,36,1766,-531,-902
6473031,-373,-30,28,1760,-378,-909
6473048,-325,-31,27,1755,-314,-898
6473064,-307,-33,-4,1750,-159,-928
6473081,-261,-20,-6,1736,-108,-891
6473113,-446,52,28,1761,36,-954
6473131,-458,108,29,1758,89,-965
6473147,-514,173,36,1758,61,-971
6473164,-531,204,30,1755,50,-961
6473181,-543,259,32,1755,-2,-955
6473197,-555,316,31,1757,0,-938
6473229,-564,391,33,1757,-65,-932
6473248,-581,398,36,1757,-43,-933
6473264,-540,410,47,1761,-78,-911
6473281,-549,410,49,1758,-56,-916
6473297,-538,399,44,1759,-48,-908
6473315,-545,416,53,1760,-70,-911
6473346,-543,412,47,1760,-25,-892
6473364,-504,429,52,1763,-50,-862
6473379,-503,431,48,1763,-72,-924
6473397,-476,431,58,1764,-130,-875
6473414,-453,452,50,1776,-123,-877
6473431,-491,448,57,1755,-172,-914
6473462,-532,449,60,1755,-216,-907
6473480,-497,461,60,1767,-268,-891
6473496,-503,466,60,1768,-326,-880
6473512,-496,490,62,1772,-358,-881
6473530,-508,508,63,1784,-411,-871
6473546,-477,528,64,1782,-501,-872
6473563,-511,555,68,1780,-487,-893
6473595,-488,635,66,1781,-517,-863
6473613,-487,634,69,1787,-550,-914
6473629,-499,637,62,1785,-549,-832
6473645,-511,654,66,1776,-490,-887
6473663,-477,656,82,1776,-520,-868
6473679,-522,654,52,1774,-527,-889
6473711,-494,678,59,1766,-454,-844
6473728,-454,713,68,1781,-426,-819
6473746,-339,716,68,1771,-364,-767
6473761,-277,739,62,1779,-412,-746
6473779,-213,715,67,1783,-374,-760
6473796,-234,790,76,1771,-491,-787
6473828,-467,841,61,1776,-531,-875
6473844,-504,835,80,1777,-566,-873
6473861,-554,839,57,1784,-591,-882
6473879,-563,822,62,1775,-585,-874
6473896,-610,836,100,1787,-662,-872
6473911,-656,808,92,1789,-641,-872
6473945,-684,804,77,1785,-622,-840
6473962,-688,815,86,1786,-634,-842
6473978,-686,843,94,1790,-660,-834
6473998,-703,845,99,1795,-704,-849
6474012,-738,786,92,1790,-589,-798
6474029,-721,801,71,1783,-564,-814
6474060,-603,837,65,1766,-477,-807
6474078,-633,771,50,1756,-363,-818
6474095,-582,765,48,1760,-371,-815
6474111,-569,745,50,1753,-346,-844
6474129,-629,772,69,1775,-396,-866
6474145,-630,775,78,1776,-390,-841
6474177,-627,788,77,1768,-415,-844
6474195,-623,780,77,1768,-355,-850
6474212,-614,750,81,1766,-357,-847
6474228,-618,750,85,1761,-387,-834
6474245,-630,745,88,1774,-413,-841
6474262,-653,749,92,1775,-409,-820
6474294,-641,749,95,1782,-416,-809
6474311,-647,748,94,1784,-437,-833
6474327,-654,747,90,1785,-452,-807
6474345,-655,741,96,1785,-415,-817
6474361,-652,737,96,1783,-472,-818
6474378,-654,746,97,1784,-458,-813
6474394,-621,742,98,1786,-481,-808
6474427,-653,736,98,1786,-467,-810
6474444,-637,746,96,1786,-470,-808
6474461,-649,742,104,1783,-489,-810
6474478,-614,783,108,1777,-492,-810
6474494,-586,883,111,1767,-564,-805
6474511,-559,904,119,1769,-647,-807
6474543,-542,916,118,1758,-727,-807
6474560,-521,904,121,1774,-732,-810
6474578,-549,911,121,1779,-685,-795
6474594,-532,931,123,1782,-729,-800
6474610,-557,897,124,1783,-730,-809
6474627,-563,920,121,1785,-688,-798
6474659,-569,903,124,1784,-708,-811
6474676,-549,903,126,1786,-751,-789
6474697,-556,898,129,1784,-675,-778
6474712,-542,890,127,1785,-672,-781
6474742,-499,860,126,1781,-656,-777
6474776,-484,874,124,1765,-625,-772
6474793,-480,858,123,1774,-590,-750
6474812,-443,841,122,1779,-618,-751
6474827,-445,873,124,1771,-581,-781
6474843,-439,869,122,1780,-609,-751
6474860,-450,857,124,1771,-538,-761
6474892,-339,866,128,1776,-601,-723
6474910,-313,874,126,1776,-590,-673
6474927,-275,848,129,1771,-433,-646
6474943,-323,837,128,1785,-368,-649
6474960,-397,810,129,1789,-275,-654
6474977,-405,811,128,1786,-252,-662
6475008,-431,810,153,1788,-281,-680
6475026,-450,804,121,1791,-244,-717
6475043,-447,797,154,1789,-239,-689
6475060,-423,782,145,1793,-278,-719
6475076,-440,789,147,1789,-313,-715
6475093,-427,777,146,1788,-291,-694
6475124,-439,796,148,1790,-293,-702
6475142,-432,805,152,1788,-327,-695
6475158,-427,811,151,1789,-296,-719
6475176,-415,811,151,1786,-320,-699
6475193,-397,813,152,1789,-333,-713
6475209,-420,810,155,1788,-310,-681
6475241,-368,812,156,1789,-445,-685
6475259,-384,810,159,1785,-422,-715
6475274,-385,810,162,1784,-423,-705
6475292,-391,812,160,1783,-458,-713
6475309,-401,814,161,1783,-451,-681
6475326,-383,809,161,1786,-461,-703
6475358,-391,805,160,1771,-458,-683
6475375,-407,808,159,1789,-447,-695
6475392,-390,813,160,1784,-463,-677
6475409,-361,817,159,1781,-439,-685
6475425,-367,811,157,1784,-442,-665
6475442,-374,810,157,1770,-466,-672
6475474,-354,807,166,1780,-497,-659
6475492,-371,807,157,1773,-425,-658
6475507,-386,810,170,1779,-431,-651
6475524,-377,808,164,1788,-401,-656
6475541,-381,808,164,1757,-414,-651
6475558,-386,807,168,1779,-412,-656
6475591,-389,795,164,1791,-463,-656
6475608,-365,810,164,1774,-422,-655
6475624,-391,790,165,1787,-437,-636
6475641,-371,807,168,1786,-468,-659
6475658,-381,808,179,1767,-439,-662
6475675,-391,808,161,1788,-486,-653
6475706,-382,812,161,1777,-478,-651
6475724,-393,811,174,1765,-495,-664
6475741,-372,807,177,1764,-487,-671
6475758,-425,808,183,1763,-479,-668
6475773,-396,805,182,1758,-548,-661
6475791,-389,810,179,1768,-480,-664
6475823,-372,806,181,1762,-499,-662
6475841,-392,808,179,1760,-489,-687
6475858,-354,797,181,1760,-511,-677
6475874,-395,804,183,1758,-505,-650
6475891,-363,786,185,1761,-516,-662
6475907,-390,776,180,1759,-530,-655
6475939,-368,784,180,1762,-572,-637
6475957,-364,786,186,1755,-566,-669
6475974,-379,777,181,1759,-574,-650
6475991,-390,783,182,1760,-582,-663
6476007,-379,781,179,1756,-565,-673
6476024,-393,775,188,1763,-592,-654
6476056,-386,780,180,1759,-577,-664
6476074,-394,777,183,1754,-586,-670
6476090,-383,780,181,1754,-570,-676
6476107,-387,782,184,1754,-561,-686
6476124,-389,775,184,1754,-555,-669
6476141,-400,781,188,1756,-610,-688
6476172,-385,776,177,1753,-544,-680
6476190,-315,776,187,1753,-498,-629
6476206,-255,777,180,1755,-493,-596
6476223,-200,786,182,1740,-495,-595
6476240,-195,779,183,1755,-469,-593
6476256,-149,782,184,1756,-469,-599
6476289,-76,787,188,1753,-501,-593
6476306,-88,799,184,1734,-472,-584
6476322,-96,777,186,1733,-475,-592
6476339,-146,787,186,1740,-550,-635
6476357,-156,777,186,1732,-527,-630
6476373,-161,788,188,1735,-517,-619
6476405,-192,779,183,1730,-491,-621
6476423,-231,744,187,1729,-530,-656
6476439,-297,762,185,1732,-595,-664
6476456,-346,745,182,1730,-566,-684
6476473,-386,752,185,1729,-593,-714
6476489,-416,746,185,1732,-592,-714
6476521,-474,750,184,1730,-624,-723
6476538,-473,746,188,1726,-658,-705
6476556,-481,730,198,1730,-616,-717
6476573,-491,722,187,1729,-620,-705
6476589,-498,740,188,1729,-626,-703
6476605,-485,719,188,1732,-631,-704
6476637,-505,715,182,1729,-574,-705
6476654,-485,715,194,1728,-632,-693
6476671,-500,716,184,1729,-607,-701
6476689,-475,719,185,1728,-588,-724
6476705,-502,713,186,1726,-616,-704
6476722,-513,709,185,1728,-604,-695
6476754,-474,718,192,1725,-554,-685
6476772,-456,702,196,1730,-532,-663
6476788,-455,694,194,1728,-531,-686
6476806,-440,683,192,1726,-559,-687
6476822,-460,688,198,1731,-578,-686
6476838,-463,686,201,1727,-536,-689
6476871,-448,691,200,1725,-540,-691
6476888,-473,664,200,1729,-537,-680
6476905,-475,688,200,1726,-590,-687
6476922,-477,679,191,1727,-569,-687
6476939,-481,675,196,1727,-581,-697
6476955,-476,668,199,1724,-570,-685
6476987,-476,657,192,1723,-572,-691
6477005,-478,652,195,1723,-592,-688
6477021,-478,656,190,1727,-598,-685
6477038,-468,642,194,1728,-581,-682
6477054,-468,625,182,1723,-596,-690
6477072,-456,625,199,1720,-579,-673
6477104,-458,624,186,1727,-555,-667
6477121,-453,617,197,1723,-554,-678
6477138,-444,607,196,1728,-630,-659
6477155,-452,623,195,1723,-528,-663
6477171,-450,617,192,1725,-583,-672
6477188,-460,585,196,1724,-564,-663
6477222,-467,590,202,1718,-581,-663
6477239,-447,623,202,1727,-601,-666
6477255,-451,624,194,1723,-605,-656
6477272,-465,627,194,1724,-600,-670
6477289,-431,622,193,1728,-611,-661
6477306,-448,620,188,1724,-595,-658
6477336,-442,622,202,1726,-604,-662
6477353,-443,627,193,1721,-583,-665
6477371,-439,628,189,1728,-606,-654
6477387,-453,622,200,1724,-587,-657
6477404,-441,607,201,1724,-585,-655
6477421,-477,617,192,1727,-559,-658
6477453,-456,624,197,1728,-610,-653
6477471,-467,621,213,1729,-563,-653
6477487,-480,621,202,1726,-568,-658
6477503,-446,623,208,1723,-598,-657
6477520,-467,597,204,1729,-578,-660
6477537,-450,602,205,1724,-581,-658
6477569,-439,601,202,1724,-541,-650
6477587,-447,611,201,1727,-535,-651
6477603,-466,596,206,1726,-513,-658
6477620,-455,611,208,1727,-528,-653
6477637,-461,631,213,1727,-547,-633
6477653,-471,621,208,1726,-535,-654
6477685,-436,601,212,1724,-530,-659
6477703,-472,594,209,1728,-551,-660
6477721,-448,593,211,1728,-559,-631
6477736,-453,605,213,1723,-533,-668
6477752,-451,603,213,1727,-572,-621
6477770,-444,597,214,1727,-538,-625
6477802,-462,622,212,1729,-538,-655
6477820,-467,599,217,1727,-553,-636
6477836,-471,597,211,1727,-529,-665
6477852,-444,596,216,1724,-575,-634
6477870,-479,594,213,1725,-535,-631
6477887,-473,604,215,1726,-515,-636
6477918,-485,599,219,1725,-548,-637
6477935,-450,603,219,1727,-596,-625
6477951,-481,602,218,1715,-495,-639
6477969,-462,604,226,1726,-544,-640
6477986,-479,591,221,1716,-557,-642
6478003,-487,601,224,1714,-575,-651
6478034,-484,599,219,1714,-554,-640
6478051,-478,604,215,1724,-549,-630
6478068,-473,601,219,1725,-606,-627
6478086,-482,595,218,1705,-597,-665
6478103,-501,592,218,1712,-639,-654
6478120,-493,593,220,1725,-690,-648
6478151,-541,596,213,1700,-688,-649
6478167,-507,595,224,1702,-703,-631
6478184,-520,588,217,1697,-721,-624
6478202,-510,600,221,1706,-703,-640
6478218,-514,604,222,1698,-694,-631
6478236,-520,595,223,1701,-687,-627
6478268,-508,624,221,1696,-711,-629
6478285,-506,631,220,1695,-707,-623
6478302,-508,623,217,1698,-700,-630
6478318,-488,626,216,1698,-722,-622
6478335,-500,624,230,1697,-720,-629
6478352,-509,634,227,1697,-730,-634
6478400,-458,655,232,1697,-736,-622
6478418,-443,645,231,1697,-773,-622
6478435,-459,642,234,1697,-750,-606
6478450,-444,632,230,1697,-736,-602
6478467,-446,637,239,1697,-765,-598
6478484,-453,631,232,1697,-736,-607
6478516,-446,629,244,1697,-744,-601
6478533,-421,650,241,1697,-748,-593
6478551,-433,615,253,1697,-758,-591
6478566,-436,633,245,1697,-751,-595
6478584,-428,649,250,1697,-786,-594
6478601,-412,626,253,1697,-760,-587
6478633,-377,627,254,1697,-834,-574
6478650,-407,650,243,1697,-771,-573
6478668,-411,628,228,1697,-768,-552
6478684,-403,712,225,1699,-851,-552
6478701,-364,719,233,1700,-955,-578
6478717,-391,731,237,1701,-957,-563
6478749,-400,686,237,1695,-1026,-609
6478767,-393,660,244,1699,-1032,-656
6478784,-552,649,254,1696,-978,-695
6478801,-767,657,280,1706,-889,-855
6478816,-894,653,302,1712,-964,-862
6478834,-1027,658,323,1691,-955,-896
6478866,-1179,637,355,1697,-1170,-898
6478883,-1110,618,379,1699,-1287,-816
6478899,-1264,629,358,1695,-1188,-839
6478916,-1256,616,381,1698,-1185,-832
6478933,-1275,605,384,1694,-1322,-883
6478950,-1077,604,383,1694,-1284,-800
6478982,-1222,615,387,1697,-1215,-840
6478999,-1217,599,383,1694,-1278,-881
6479016,-1189,603,395,1693,-1261,-892
6479033,-992,582,389,1688,-1583,-809
6479050,-1319,634,389,1679,-1148,-892
6479067,-1234,608,420,1673,-1230,-957
6479098,-1111,605,414,1694,-1232,-875
6479115,-1053,582,408,1702,-1342,-923
6479132,-1074,587,405,1702,-1182,-920
6479150,-1059,592,390,1698,-1223,-987
6479167,-1040,596,404,1700,-1255,-977
6479183,-995,593,402,1701,-1257,-981
6479215,-797,591,377,1699,-1141,-972
6479233,-608,601,351,1697,-1068,-912
6479249,-528,605,344,1696,-1075,-832
6479266,-457,626,323,1695,-1027,-726
6479285,-418,628,316,1691,-1028,-678
6479301,-316,661,298,1665,-957,-644
6479331,-183,691,275,1667,-876,-593
6479349,-147,702,271,1666,-783,-561
6479365,-156,717,271,1666,-753,-558
6479381,-159,725,269,1663,-692,-566
6479399,-121,738,266,1666,-630,-544
6479416,-128,743,273,1663,-610,-561
6479448,-87,753,270,1669,-497,-533
6479466,-58,749,263,1670,-470,-532
6479481,-53,752,266,1668,-482,-545
6479499,-56,755,266,1668,-476,-542
6479515,-52,763,261,1667,-466,-546
6479532,-53,750,256,1671,-498,-542
6479564,-45,774,250,1674,-533,-538
6479582,-19,770,263,1672,-534,-557
6479599,-57,772,265,1667,-569,-544
6479614,-8,774,265,1670,-554,-528
6479632,-19,753,258,1670,-591,-518
6479649,5,749,255,1674,-598,-505
6479681,-7,718,245,1663,-638,-486
6479699,9,720,241,1666,-648,-441
6479715,65,720,240,1668,-660,-421
6479731,97,749,251,1666,-695,-424
6479749,93,755,253,1662,-783,-473
6479765,95,785,254,1664,-886,-498
6479797,99,786,252,1662,-1004,-528
6479814,94,783,251,1660,-1029,-519
6479832,69,781,260,1663,-1039,-521
6479848,31,775,260,1664,-1074,-530
6479865,3,776,259,1663,-1074,-538
6479881,-18,777,259,1665,-1080,-534
6479913,-67,777,260,1663,-1093,-527
6479931,-45,786,274,1658,-1094,-529
6479947,-55,788,281,1667,-1067,-535
6479965,-66,779,292,1664,-1072,-542
6479981,-67,760,291,1664,-1028,-540
6479998,-62,758,289,1663,-1020,-541
6480029,-39,763,286,1662,-985,-533
6480047,55,777,283,1657,-931,-477
6480063,178,780,283,1662,-847,-422
6480081,276,782,287,1662,-748,-375
6480097,319,758,283,1664,-642,-375
6480114,285,741,279,1672,-584,-400
6480146,149,736,280,1668,-667,-515
6480163,120,744,289,1671,-696,-546
6480181,85,744,283,1687,-719,-576
6480197,67,755,290,1674,-706,-570
6480213,57,755,293,1685,-768,-574
6480230,59,778,290,1677,-851,-564
6480263,60,781,292,1679,-953,-536
6480280,67,777,294,1683,-945,-531
6480297,83,780,292,1687,-943,-517
6480314,86,775,299,1676,-945,-535
6480330,91,776,290,1675,-968,-517
6480347,98,776,293,1682,-987,-521
6480380,115,760,289,1675,-987,-538
6480397,128,752,279,1664,-977,-528
6480414,144,743,285,1668,-971,-542
6480430,155,744,273,1670,-975,-541
6480447,166,746,273,1671,-1005,-541
6480464,160,742,263,1667,-1009,-544
6480496,177,746,264,1668,-1045,-540
6480513,161,746,265,1673,-1045,-535
6480530,163,749,263,1669,-1105,-532
6480546,155,742,263,1667,-1147,-530
6480564,163,717,269,1677,-1131,-529
6480580,133,733,265,1674,-1164,-527
6480612,113,743,274,1667,-1155,-524
6480629,96,743,277,1668,-1163,-531
6480646,92,732,273,1669,-1154,-538
6480663,83,736,281,1663,-1126,-538
6480679,78,745,286,1664,-1167,-537
6480696,73,743,286,1666,-1145,-520
6480728,59,749,288,1665,-1130,-481
6480746,66,751,290,1665,-1137,-471
6480763,65,752,292,1665,-1159,-474
6480780,77,745,290,1665,-1165,-492
6480797,71,743,292,1665,-1187,-506
6480814,71,745,287,1668,-1169,-487
6480844,89,721,282,1663,-1155,-473
6480861,95,723,283,1663,-1116,-502
6480878,95,719,288,1662,-1103,-505
6480895,108,712,287,1665,-1065,-508
6480912,94,714,279,1663,-1049,-503
6480929,93,712,273,1667,-1028,-505
6480961,74,695,282,1663,-1017,-508
6480979,92,716,286,1663,-973,-514
6480996,74,719,287,1663,-985,-499
6481012,61,721,291,1664,-913,-507
6481029,63,720,293,1655,-944,-506
6481045,45,719,293,1667,-943,-487
6481078,23,710,286,1644,-828,-508
6481095,2,720,291,1661,-780,-495
6481112,2,717,286,1660,-769,-500
6481129,-3,718,291,1661,-774,-496
6481145,-29,716,292,1654,-784,-495
6481162,-36,747,287,1652,-891,-456
6481193,-26,776,283,1644,-947,-423
6481210,-22,779,285,1652,-958,-411
6481228,-27,807,289,1645,-966,-412
6481245,-2,833,290,1646,-1028,-405
6481261,23,812,258,1650,-976,-393
6481278,16,775,269,1649,-880,-420
6481310,-33,774,265,1645,-778,-449
6481327,-67,750,277,1644,-739,-469
6481345,-97,752,267,1646,-719,-475
6481361,-126,750,279,1623,-721,-481
6481378,-121,746,264,1656,-685,-466
6481395,-150,755,276,1703,-663,-475
6481428,-199,769,274,1893,-645,-483
6481444,-213,777,269,1885,-627,-487
6481461,-217,784,275,1884,-569,-489
6481477,-189,808,267,1888,-520,-481
6481495,-166,801,270,1889,-444,-496
6481511,-103,808,259,1887,-311,-474
6481544,-63,877,244,1872,-22,-498
6481561,-48,975,243,1852,196,-499
6481577,40,1043,231,1856,355,-495
6481594,203,1140,220,1852,568,-487
6481611,296,1229,207,1845,752,-500
6481627,546,1254,192,1847,955,-503
6481659,883,1261,166,1822,1439,-540
6481676,1018,1253,153,1825,1596,-576
6481693,1131,1283,151,1819,1613,-600
6481710,1300,1313,153,1812,1470,-598
6481727,1484,1323,157,1815,1352,-595
6481744,1700,1315,154,1812,1205,-571
6481775,2433,1305,131,1790,820,-551
6481792,2686,1286,94,1794,675,-537
6481810,2784,1280,97,1792,504,-582
6481826,2826,1287,101,1786,386,-600
6481843,2798,1290,96,1790,239,-594
6481860,2689,1309,96,1790,173,-595
6481877,2558,1320,96,1790,81,-602
6481909,2419,1360,96,1792,59,-573
6481926,2357,1375,90,1790,57,-572
6481943,2326,1389,94,1800,64,-565
6481960,2292,1421,93,1789,61,-568
6481976,2184,1440,93,1794,10,-570
6481993,2149,1460,93,1791,-27,-571
6482025,2108,1499,92,1791,-93,-562
6482043,2041,1528,92,1791,-38,-566
6482060,1983,1546,95,1791,-28,-584
6482075,1967,1578,90,1791,-80,-592
6482093,1965,1592,78,1791,-32,-600
6482109,1882,1592,86,1789,-52,-596
6482126,1852,1632,89,1782,-124,-563
6482158,1777,1634,66,1764,-73,-541
6482176,1790,1640,65,1763,-6,-506
6482192,1836,1654,64,1761,26,-473
6482209,1904,1665,64,1761,54,-443
6482225,1969,1666,63,1758,35,-442
6482242,1921,1663,61,1759,4,-505
6482277,1870,1631,58,1755,41,-567
6482293,1787,1633,50,1753,85,-554
6482310,1685,1640,77,1763,68,-572
6482326,1611,1642,202,1827,37,-567
6482343,1357,1617,25,1748,69,-446
6482360,1631,1634,52,1739,27,-557
6482391,1634,1626,33,1727,39,-571
6482407,1632,1653,32,1729,-11,-569
6482425,1632,1663,32,1729,1,-600
6482442,1630,1669,34,1728,2,-568
6482458,1659,1642,35,1728,-19,-576
6482476,1662,1665,30,1728,-42,-571
6482507,1694,1691,32,1728,-138,-531
6482524,1774,1689,31,1727,-196,-507
6482541,1810,1699,32,1729,-256,-502
6482574,1727,1697,29,1758,-391,-475
6482591,1703,1697,21,1746,-480,-448
6482624,1617,1695,22,1743,-704,-414
6482641,1620,1694,25,1751,-786,-405
6482658,1598,1693,33,1749,-834,-442
6482675,1601,1669,30,1752,-942,-443
6482692,1582,1662,30,1746,-868,-498
6482708,1606,1661,34,1748,-875,-514
6482740,1786,1662,11,1744,-863,-569
6482757,1844,1661,-4,1756,-927,-568
6482774,1774,1661,2,1721,-874,-551
6482791,1710,1665,3,1734,-863,-529
6482807,1628,1668,1,1733,-833,-524
6482824,1566,1673,1,1729,-744,-505
6482857,1455,1654,3,1728,-717,-501
6482874,1411,1653,1,1729,-706,-499
6482890,1367,1625,2,1730,-628,-512
6482907,1335,1303,2,1728,-558,-506
6482924,1341,1055,1,1728,-503,-501
6482941,1317,1108,0,1728,-550,-501
6482973,1350,1191,0,1728,-661,-501
6482990,1279,1160,-1,1729,-702,-500
6483008,1214,693,0,1732,-527,-467
6483023,1055,1465,-2,1729,-624,-543
6483040,891,1479,-2,1730,-637,-541
6483057,790,1464,-2,1726,-616,-538
6483089,798,193,6,1738,-433,-471
6483106,739,144,4,1748,-436,-468
6483124,650,166,1,1754,-478,-481
6483140,596,218,-3,1732,-480,-480
6483157,622,299,11,1727,-542,-504
6483173,631,396,19,1730,-619,-510
6483206,621,437,30,1726,-662,-501
6483224,599,388,29,1726,-620,-503
6483239,565,456,28,1727,-635,-499
6483257,537,492,28,1727,-658,-501
6483273,540,418,29,1727,-649,-506
6483290,498,426,29,1727,-659,-498
6483322,423,447,32,1727,-624,-497
6483339,411,418,34,1727,-625,-501
6483356,407,401,32,1727,-636,-489
6483373,355,423,33,1727,-594,-503
6483391,345,434,34,1727,-633,-488
6483406,316,436,43,1727,-600,-499
6483438,290,434,62,1726,-604,-487
6483455,260,455,65,1728,-665,-490
6483472,215,401,80,1724,-757,-477
6483489,121,449,90,1751,-766,-481
6483506,124,495,59,1724,-781,-449
6483523,39,529,64,1720,-784,-436
6483555,-94,601,84,1724,-727,-439
6483572,-167,795,98,1724,-779,-461
6483589,-316,1318,65,1724,-820,-483
6483606,-380,1339,69,1724,-852,-474
6483623,-411,1297,59,1724,-890,-451
6483640,-438,1244,63,1724,-798,-456
6483672,-507,1277,64,1724,-845,-460
6483689,-540,1239,64,1723,-822,-433
6483706,-570,1226,65,1728,-861,-435
6483722,-594,1252,66,1729,-892,-411
6483739,-602,1221,80,1732,-986,-410
6483762,-630,1230,83,1730,-1057,-410
6483820,-633,1232,94,1725,-902,-426
6483838,-640,1206,96,1729,-857,-426
6483854,-677,1245,107,1728,-882,-438
6483871,-695,1212,127,1726,-866,-447
6483888,-680,1168,104,1726,-869,-426
6483906,-659,1178,120,1726,-912,-434
6483937,-591,1269,125,1726,-1052,-418
6483955,-587,1312,98,1726,-1070,-431
6483970,-561,1336,98,1726,-1083,-418
6483987,-577,1374,97,1726,-1136,-426
6484004,-622,1365,97,1727,-1141,-441
6484021,-658,1329,97,1727,-1150,-452
6484054,-693,1278,63,1716,-1062,-451
6484071,-724,1215,65,1721,-1077,-456
6484087,-750,1191,66,1702,-1066,-473
6484105,-782,1164,63,1698,-1071,-474
6484121,-797,1167,63,1704,-1082,-462
6484138,-802,1109,61,1704,-1049,-463
6484170,-923,1063,33,1719,-890,-478
6484188,-919,1101,28,1704,-853,-500
6484204,-934,1101,33,1724,-806,-528
6484221,-902,1132,-1,1720,-787,-504
6484238,-902,1132,-1,1720,-787,-504
6484254,-902,1132,-1,1720,-787,-504
6484286,-902,1132,-1,1720,-787,-504
6484303,-902,1132,-1,1720,-787,-504
6484321,-902,1132,-1,1720,-787,-504
6484337,-902,1132,-1,1720,-787,-504
6484354,-902,1132,-1,1720,-787,-504
6484371,-933,1139,3,1726,-760,-504
6484387,-1071,1127,31,1696,-839,-532
6484419,-879,1039,36,1668,-1021,-555
6484437,-848,1112,37,1667,-1089,-562
6484454,-729,1108,32,1664,-1109,-532
6484471,-649,1167,31,1667,-1106,-522
6484487,-568,1127,2,1668,-1104,-512
6484504,-556,1133,4,1682,-1094,-499
6484521,-551,1097,15,1674,-1100,-502
6484552,-573,1176,31,1661,-1154,-512
6484570,-602,1153,25,1665,-1148,-509
6484587,-603,923,25,1669,-1165,-507
6484603,-625,857,36,1669,-1130,-490
6484619,-670,909,8,1681,-1137,-482
6484637,-695,923,8,1694,-1093,-466
6484669,-777,972,0,1678,-1059,-476
6484685,-808,1002,-3,1694,-1031,-468
6484702,-840,1023,-1,1697,-1047,-466
6484720,-901,1031,-1,1690,-1033,-504
6484737,-978,1042,3,1666,-1027,-499
6484753,-1004,1041,1,1684,-1013,-486
6484785,-1038,1012,1,1684,-939,-472
6484803,-1091,1011,1,1687,-863,-470
6484819,-1133,1000,1,1667,-796,-473
6484835,-1148,994,3,1685,-768,-469
6484853,-1174,993,18,1675,-647,-503
6484869,-1205,993,30,1672,-576,-499
6484886,-1228,970,33,1678,-522,-493
6484918,-1298,1040,38,1665,-648,-529
6484936,-1285,1084,39,1674,-612,-490
6484952,-1235,1034,44,1688,-473,-445
6484970,-1246,965,49,1685,-282,-395
6484986,-1276,1014,64,1735,1,-406
6485002,-1349,1073,60,1696,60,-421
6485034,-1073,1109,36,1533,-71,-275
6485052,-817,1069,35,1500,-168,-174
6485069,-459,921,34,1487,-487,-74
6485085,-89,1002,33,1458,-629,-57
6485103,338,1004,7,1437,-918,-63
6485119,817,937,29,1377,-1149,-31
6485135,1174,945,-32,1269,-520,24
6485168,1654,870,-71,1188,-1405,-178
6485185,1420,940,-101,1152,-1756,-444
6485202,1130,973,-98,1162,-1888,-560
6485219,1008,933,-55,1166,-2145,-541
6485235,838,900,-40,1197,-2120,-532
6485252,816,814,-30,1175,-2395,-612
6485300,-7,737,5,1346,-2594,-779
6485318,325,689,39,1336,-2404,-688
6485334,-32,718,29,1316,-2164,-854
6485352,-244,678,30,1364,-2718,-772
6485369,-689,193,34,1341,-3233,-981
6485385,-917,-1282,33,1314,-2724,-831
6485417,-1359,-3656,101,1307,-2786,-920
6485434,-1312,-3233,135,1321,-2863,-893
6485451,-1893,-2305,127,1312,-1965,-1030
6485468,-2237,-1653,145,1252,-2295,-1082
6485485,-2668,-1071,126,1249,-1823,-1078
6485502,-2559,-533,126,1261,-1983,-987
6485533,-2963,-264,128,1205,-1923,-944
6485551,-3026,-241,120,1144,-1715,-969
6485567,-3073,-320,136,1055,-1517,-894
6485583,-3264,-368,146,1064,-1494,-1023
6485600,-3111,-432,162,1070,-1710,-930
6485617,-3410,-374,150,1064,-1332,-986
6485634,-3262,-371,131,1078,-1457,-952
6485666,-3321,-395,122,1098,-1050,-901
6485684,-3210,-398,107,1100,-957,-890
6485701,-3057,-436,94,1101,-755,-870
6485718,-2806,-403,98,1101,-630,-829
6485734,-2642,-379,99,1103,-374,-859
6485752,-2444,-379,93,1125,-206,-831
6485783,-2230,-383,92,1141,389,-996
6485800,-2069,-382,94,1168,608,-1048
6485817,-1976,-363,72,1165,791,-1159
6485834,-1901,-366,103,1167,908,-1224
6485850,-1863,-344,95,1170,1084,-1233
6485867,-1785,-354,120,1202,1176,-1274
6485883,-1671,-362,89,1185,1334,-1166
6485916,-1618,-340,98,1202,1558,-1248
6485933,-1610,-319,90,1211,1651,-1253
6485950,-1533,-324,98,1230,1668,-1218
6485967,-1548,-319,95,1225,1721,-1230
6485984,-1525,-306,94,1226,1799,-1180
6486000,-1554,-316,122,1226,1805,-1211
6486033,-1486,-335,126,1229,1644,-1149
6486050,-1548,-334,117,1228,1531,-1136
6486066,-1453,-332,85,1233,1588,-1084
6486083,-1469,-327,82,1236,1539,-1078
6486100,-1453,-351,75,1240,1493,-1031
6486117,-1470,-363,62,1256,1388,-1052
6486133,-1489,-377,59,1255,1338,-1006
6486167,-1404,-399,34,1261,1224,-962
6486183,-1438,-420,31,1261,1121,-931
6486200,-1439,-392,27,1259,1087,-914
6486216,-1443,-415,31,1261,1044,-941
6486233,-1489,-413,31,1259,916,-962
6486250,-1440,-417,29,1280,913,-923
6486283,-1461,-433,26,1287,850,-951
6486300,-1502,-459,32,1278,758,-940
6486316,-1511,-441,16,1282,707,-939
6486333,-1515,-470,22,1278,653,-926
6486350,-1472,-462,22,1284,588,-915
6486367,-1534,-443,18,1279,623,-898
6486383,-1530,-459,13,1283,549,-928
6486415,-1543,-463,30,1279,412,-936
6486432,-1495,-459,30,1290,350,-937
6486449,-1515,-453,30,1284,318,-910
6486466,-1475,-434,31,1283,286,-927
6486482,-1465,-402,33,1278,274,-909
6486499,-1472,-380,30,1289,297,-899
6486531,-1431,-359,35,1280,103,-902
6486549,-1377,-324,47,1293,30,-879
6486566,-1368,-269,45,1288,-35,-839
6486581,-1367,-51,61,1292,-127,-873
6486599,-1484,360,47,1276,-208,-911
6486614,-1437,337,64,1294,-274,-866
6486632,-1457,342,50,1286,-314,-878
6486664,-1435,514,33,1291,-335,-871
6486682,-1434,502,33,1291,-425,-870
6486697,-1435,496,40,1292,-429,-877
6486714,-1421,488,37,1290,-463,-866
6486731,-1403,471,48,1292,-505,-853
6486748,-1403,497,45,1292,-497,-838
6486780,-1360,463,27,1292,-479,-814
6486798,-1306,454,26,1292,-489,-795
6486813,-1225,444,29,1292,-492,-769
6486830,-1141,454,25,1291,-413,-695
6486848,-1057,447,31,1293,-348,-620
6486864,-1050,426,31,1292,-315,-624
6486882,-1070,423,25,1292,-346,-626
6486913,-1162,421,30,1307,-437,-691
6486931,-1206,411,31,1287,-505,-743
6486948,-1257,414,31,1285,-513,-769
6486964,-1281,398,28,1295,-574,-776
6486981,-1267,380,28,1292,-526,-743
6486997,-1258,398,29,1306,-529,-744
6487030,-1343,402,33,1315,-623,-748
6487047,-1370,398,52,1310,-659,-731
6487064,-1342,398,35,1321,-663,-719
6487081,-1320,396,32,1322,-627,-691
6487096,-1320,383,37,1321,-676,-687
6487114,-1324,367,46,1322,-666,-677
6487146,-1242,358,32,1325,-603,-659
6487164,-1217,385,33,1314,-602,-669
6487180,-1216,419,56,1337,-579,-664
6487197,-1227,431,70,1348,-628,-692
6487214,-1226,428,61,1348,-575,-659
6487231,-1260,418,64,1350,-575,-659
6487263,-1164,397,59,1346,-545,-627
6487280,-1196,397,67,1358,-585,-663
6487297,-1173,386,65,1361,-621,-656
6487314,-1154,385,69,1363,-628,-661
6487330,-1129,383,65,1364,-646,-661
6487348,-1133,384,57,1363,-637,-661
6487379,-1137,384,64,1354,-683,-673
6487397,-1137,378,64,1356,-698,-687
6487413,-1133,379,69,1355,-709,-680
6487430,-1125,363,64,1352,-685,-680
6487447,-1132,365,80,1350,-680,-682
6487464,-1098,348,76,1349,-661,-677
6487495,-1035,343,70,1348,-649,-672
6487513,-1078,354,93,1356,-658,-699
6487529,-1036,355,94,1363,-652,-668
6487546,-1036,326,96,1372,-669,-689
6487564,-1038,356,94,1370,-651,-680
6487580,-1011,342,95,1371,-655,-687
6487613,-1001,320,95,1372,-625,-686
6487629,-998,323,96,1372,-663,-698
6487647,-1023,324,99,1372,-659,-708
6487663,-1010,324,96,1368,-688,-720
6487680,-1017,319,101,1372,-649,-698
6487696,-990,304,96,1372,-642,-690
6487728,-992,312,94,1376,-613,-695
6487746,-980,307,118,1373,-664,-692
6487763,-979,307,118,1373,-664,-695
6487794,-973,303,121,1384,-681,-686
6487812,-1013,304,123,1375,-696,-696
6487845,-1011,319,124,1382,-691,-689
6487863,-1021,327,132,1376,-705,-688
6487879,-1046,323,150,1401,-752,-685
6487896,-1055,322,143,1389,-703,-686
6487912,-1058,291,128,1390,-694,-666
6487929,-1039,290,130,1375,-677,-662
6487961,-980,264,125,1380,-653,-653
6487978,-958,262,124,1374,-617,-658
6487996,-945,249,126,1373,-624,-655
6488012,-930,253,121,1374,-605,-659
6488029,-900,260,121,1373,-586,-663
6488046,-902,262,121,1366,-587,-674
6488077,-854,249,108,1348,-551,-655
6488094,-814,221,92,1355,-496,-672
6488111,-876,253,124,1362,-555,-695
6488128,-896,271,127,1375,-561,-715
6488145,-912,260,125,1368,-576,-714
6488161,-925,273,123,1371,-571,-743
6488194,-929,243,124,1374,-560,-720
6488212,-919,240,124,1370,-564,-751
6488227,-927,228,126,1368,-557,-727
6488245,-912,232,127,1369,-542,-735
6488261,-906,233,127,1370,-538,-721
6488278,-894,231,128,1367,-529,-716
6488310,-886,232,127,1373,-538,-719
6488328,-903,228,126,1373,-574,-733
6488345,-912,227,126,1374,-557,-742
6488361,-903,228,126,1376,-569,-722
6488377,-886,241,125,1376,-573,-715
6488394,-884,264,127,1375,-588,-748
6488427,-890,264,130,1374,-587,-748
6488443,-889,270,134,1373,-587,-737
6488461,-877,257,124,1376,-584,-711
6488478,-885,272,130,1380,-611,-748
6488493,-864,255,124,1369,-588,-724
6488511,-935,282,133,1382,-666,-761
6488543,-900,261,135,1380,-577,-746
6488560,-884,266,140,1368,-544,-740
6488577,-901,258,138,1391,-555,-744
6488594,-879,262,141,1385,-545,-724
6488610,-857,261,137,1389,-534,-721
6488627,-837,255,139,1393,-518,-718
6488660,-807,200,139,1404,-507,-718
6488677,-779,211,139,1395,-529,-716
6488693,-801,207,139,1395,-536,-705
6488710,-774,201,147,1399,-536,-688
6488727,-779,180,150,1401,-555,-695
6488744,-767,157,152,1400,-554,-694
6488775,-782,151,146,1401,-568,-711
6488793,-780,146,148,1400,-570,-711
6488809,-771,154,153,1401,-563,-692
6488827,-779,156,149,1392,-566,-698
6488843,-777,125,153,1406,-574,-694
6488860,-776,130,149,1399,-559,-696
6488892,-763,152,151,1399,-559,-694
6488910,-762,156,155,1402,-564,-691
6488926,-778,152,155,1393,-566,-708
6488943,-788,130,153,1403,-567,-715
6488961,-777,160,166,1403,-559,-714
6488977,-794,132,157,1400,-559,-711
6489008,-780,121,159,1401,-565,-711
6489026,-775,152,157,1399,-558,-683
6489043,-781,144,156,1398,-561,-694
6489060,-777,141,154,1401,-556,-701
6489077,-779,126,164,1403,-550,-690
6489093,-798,127,154,1401,-551,-712
6489125,-782,128,159,1406,-547,-689
6489143,-778,127,167,1399,-530,-683
6489160,-780,123,159,1407,-556,-683
6489176,-793,153,173,1402,-544,-684
6489193,-821,162,196,1411,-574,-691
6489210,-846,159,194,1421,-567,-686
6489241,-823,173,184,1402,-434,-687
6489258,-803,173,180,1399,-459,-667
6489275,-800,156,181,1398,-369,-667
6489292,-783,168,181,1397,-332,-663
6489309,-782,158,153,1386,-359,-662
6489326,-757,154,159,1388,-216,-660
6489357,-681,138,147,1374,-140,-652
6489375,-649,149,148,1375,-118,-655
6489392,-697,155,161,1378,-148,-678
6489409,-714,158,166,1385,-172,-682
6489426,-720,160,164,1387,-248,-650
6489443,-724,156,158,1380,-174,-664
6489474,-663,157,162,1381,-154,-653
6489492,-629,122,160,1372,-171,-653
6489509,-657,127,158,1377,-144,-658
6489525,-669,121,173,1381,-183,-668
6489542,-657,149,174,1383,-188,-656
6489558,-691,154,173,1381,-211,-651
6489592,-674,137,181,1391,-242,-643
6489608,-648,129,180,1402,-300,-645
6489626,-654,130,186,1399,-271,-651
6489642,-628,151,187,1392,-313,-652
6489658,-629,120,186,1401,-309,-650
6489675,-624,151,179,1385,-297,-654
6489707,-633,142,182,1396,-339,-656
6489725,-633,149,183,1395,-350,-654
6489742,-624,148,185,1402,-353,-656
6489759,-618,162,190,1395,-365,-631
6489776,-626,150,187,1399,-355,-634
6489792,-610,158,190,1401,-363,-623
6489823,-617,155,195,1396,-345,-631
6489841,-598,155,194,1397,-340,-620
6489858,-629,155,198,1400,-284,-632
6489874,-635,159,200,1388,-246,-626
6489891,-636,158,199,1403,-217,-633
6489906,-624,156,205,1400,-146,-620
6489940,-601,158,210,1404,-106,-623
6489957,-619,142,208,1412,-68,-639
6489973,-628,161,211,1411,-98,-636
6489991,-662,156,208,1400,-22,-659
6490007,-666,157,211,1402,8,-657
6490024,-661,157,209,1404,-51,-652
6490056,-710,156,216,1402,53,-657
6490073,-693,125,222,1405,12,-657
6490089,-728,107,219,1403,151,-649
6490107,-714,98,229,1403,123,-642
6490124,-721,100,225,1404,187,-654
6490140,-724,117,232,1405,228,-657
6490173,-732,119,229,1409,272,-659
6490190,-730,99,226,1408,296,-660
6490207,-721,97,235,1409,332,-659
6490224,-721,92,228,1410,325,-657
6490240,-704,97,230,1406,332,-654
6490256,-696,129,231,1408,311,-652
6490338,-655,91,248,1412,214,-670
6490356,-664,99,237,1421,175,-693
6490372,-665,98,239,1434,192,-677
6490405,-642,127,246,1429,147,-675
6490423,-651,122,253,1426,117,-682
6490455,-646,114,258,1429,52,-684
6490473,-659,128,256,1432,88,-669
6490489,-627,124,257,1435,59,-663
6490507,-626,126,260,1434,26,-667
6490522,-627,125,260,1430,18,-660
6490540,-623,129,262,1439,30,-655
6490571,-437,145,261,1436,136,-553
6490589,-326,150,266,1440,177,-508
6490605,-241,156,270,1442,223,-470
6490622,-237,151,272,1442,229,-500
6490639,-210,149,274,1447,202,-495
6490655,-283,129,267,1441,198,-556
6490687,-402,124,272,1444,106,-635
6490704,-449,127,278,1454,-11,-662
6490721,-476,127,282,1460,-1,-658
6490739,-502,130,280,1461,-23,-651
6490755,-514,113,283,1470,-43,-689
6490772,-542,121,281,1459,-71,-682
6490804,-569,95,290,1466,-100,-688
6490822,-591,113,289,1467,-101,-681
6490837,-578,102,285,1465,-126,-683
6490854,-567,101,286,1466,-93,-665
6490871,-562,94,293,1466,-118,-669
6490888,-561,94,293,1468,-129,-674
6490921,-559,128,305,1467,-177,-675
6490938,-558,127,296,1467,-188,-662
6490954,-569,124,305,1467,-183,-657
6490972,-540,127,308,1467,-186,-654
6490988,-535,123,311,1467,-196,-652
6491005,-530,127,318,1467,-201,-656
6491037,-507,128,316,1467,-190,-658
6491055,-499,126,301,1477,-192,-653
6491070,-471,124,306,1466,-200,-652
6491088,-473,142,306,1469,-216,-657
6491105,-474,154,309,1472,-211,-651
6491121,-467,149,310,1471,-219,-661
6491154,-441,124,312,1476,-217,-657
6491171,-437,125,313,1479,-216,-627
6491187,-432,130,311,1470,-214,-659
6491204,-458,132,311,1473,-208,-653
6491221,-452,159,312,1472,-260,-655
6491238,-456,157,319,1474,-251,-655
6491270,-449,147,321,1475,-274,-644
6491288,-445,146,322,1484,-275,-637
6491303,-430,146,322,1487,-286,-633
6491321,-425,132,327,1486,-318,-650
6491337,-435,132,319,1476,-313,-634
6491354,-431,131,331,1481,-324,-638
6491386,-407,120,328,1485,-324,-625
6491404,-412,158,331,1486,-355,-630
6491420,-420,158,329,1488,-345,-640
6491437,-411,155,332,1485,-350,-632
6491453,-411,160,332,1495,-348,-631
6491470,-384,172,326,1491,-363,-642
6491503,-388,183,332,1490,-339,-633
6491520,-397,164,330,1484,-331,-638
6491536,-398,176,335,1489,-340,-637
6491555,-399,219,341,1479,-357,-631
6491570,-384,208,341,1486,-363,-630
6491587,-385,175,336,1489,-364,-655
6491619,-367,174,341,1494,-365,-634
6491636,-390,154,342,1495,-352,-633
6491653,-360,157,346,1499,-359,-626
6491670,-364,154,354,1496,-377,-628
6491687,-358,154,354,1496,-389,-631
6491703,-351,234,351,1500,-410,-628
6491735,-355,237,348,1498,-414,-629
6491753,-355,232,354,1498,-379,-630
6491770,-356,242,349,1499,-425,-630
6491786,-361,245,356,1497,-409,-630
6491802,-354,225,352,1499,-448,-631
6491819,-354,265,352,1497,-454,-628
6491851,-302,265,357,1495,-462,-617
6491868,-305,274,357,1499,-473,-636
6491885,-332,260,356,1498,-474,-636
6491902,-327,260,357,1497,-486,-654
6491918,-320,253,365,1499,-496,-654
6491937,-349,286,356,1498,-474,-653
6491968,-327,294,360,1500,-481,-637
6491986,-322,291,369,1498,-474,-635
6492003,-321,289,356,1498,-476,-631
6492019,-305,293,369,1499,-473,-631
6492036,-324,301,362,1500,-479,-628
6492053,-317,302,366,1499,-468,-645
6492084,-316,314,366,1496,-475,-624
6492101,-322,322,371,1501,-482,-627
6492119,-338,320,369,1498,-479,-630
6492136,-328,308,363,1506,-428,-611
6492152,-319,327,367,1506,-435,-618
6492169,-324,320,368,1497,-438,-620
6492201,-325,323,373,1503,-445,-601
6492218,-330,324,370,1508,-447,-630
6492236,-325,329,374,1512,-453,-606
6492252,-329,333,369,1501,-458,-600
6492269,-323,335,383,1499,-441,-603
6492285,-326,333,380,1501,-451,-605
6492317,-339,328,378,1503,-471,-630
6492335,-342,325,379,1497,-473,-621
6492351,-346,327,374,1498,-507,-629
6492368,-346,325,385,1505,-487,-621
6492385,-335,333,382,1503,-495,-600
6492402,-340,323,384,1503,-484,-621
6492434,-330,335,383,1494,-480,-606
6492450,-336,335,388,1514,-479,-603
6492468,-329,332,386,1505,-502,-617
6492484,-330,353,384,1508,-483,-613
6492502,-343,351,387,1508,-477,-604
6492518,-332,354,391,1510,-477,-602
6492550,-349,360,383,1509,-475,-601
6492568,-323,355,388,1504,-506,-596
6492584,-354,357,382,1502,-454,-594
6492601,-340,355,394,1516,-448,-593
6492617,-331,356,387,1512,-469,-594
6492634,-347,368,385,1513,-452,-591
6492666,-347,384,389,1507,-447,-598
6492684,-341,373,390,1519,-463,-598
6492701,-345,371,390,1512,-424,-571
6492717,-326,365,393,1522,-402,-570
6492734,-321,365,395,1520,-390,-560
6492751,-330,365,394,1532,-397,-590
6492783,-341,365,389,1522,-391,-564
6492801,-335,365,391,1525,-393,-597
6492817,-356,388,394,1520,-411,-586
6492834,-350,395,395,1519,-402,-589
6492850,-363,384,396,1527,-415,-591
6492868,-362,387,396,1528,-397,-592
6492900,-366,395,394,1528,-406,-576
6492917,-370,391,396,1529,-419,-584
6492934,-354,392,396,1522,-416,-576
6492950,-354,394,394,1532,-422,-573
6492967,-351,394,394,1526,-418,-566
6492984,-367,398,395,1526,-438,-570
6493016,-377,401,402,1528,-417,-568
6493032,-376,397,400,1529,-406,-561
6493050,-363,398,399,1528,-396,-559
6493066,-362,397,396,1531,-413,-564
6493083,-354,413,396,1528,-387,-558
6493100,-374,413,398,1529,-386,-567
6493132,-383,412,401,1528,-393,-560
6493150,-379,426,398,1528,-375,-569
6493165,-394,430,393,1528,-382,-569
6493183,-387,425,396,1528,-366,-564
6493200,-388,437,396,1528,-368,-575
6493216,-359,427,403,1529,-360,-556
6493248,-359,427,394,1529,-357,-566
6493266,-379,429,390,1529,-357,-569
6493283,-359,440,402,1529,-357,-562
6493299,-379,441,393,1531,-348,-564
6493316,-380,435,397,1530,-360,-566
6493333,-360,436,407,1530,-342,-552
6493364,-371,445,406,1527,-348,-561
6493382,-386,444,391,1531,-354,-567
6493399,-383,448,399,1530,-360,-581
6493416,-394,446,400,1530,-365,-570
6493432,-381,437,397,1530,-344,-560
6493449,-388,437,394,1527,-353,-565
6493481,-387,446,398,1527,-355,-577
6493499,-379,448,406,1531,-343,-562
6493515,-358,444,412,1530,-386,-564
6493532,-362,446,398,1528,-336,-569
6493549,-376,469,395,1532,-319,-568
6493565,-367,468,399,1529,-332,-584
6493599,-380,470,404,1529,-311,-587
6493615,-386,471,392,1530,-298,-568
6493632,-376,468,404,1529,-284,-566
6493649,-387,474,398,1531,-283,-570
6493666,-384,473,395,1530,-257,-566
6493682,-393,470,389,1529,-246,-573
6493714,-384,527,392,1530,-317,-562
6493731,-396,532,400,1529,-211,-571
6493749,-403,532,396,1530,-238,-574
6493765,-417,536,395,1529,-249,-565
6493781,-414,528,393,1528,-192,-573
6493799,-416,530,387,1526,-209,-566
6493830,-398,526,390,1532,-238,-559
6493848,-407,532,395,1531,-180,-567
6493864,-416,529,389,1531,-183,-564
6493881,-403,532,391,1528,-231,-556
6493897,-413,529,392,1529,-176,-558
6493914,-379,530,395,1529,-230,-534
6493947,-387,531,394,1529,-194,-561
6493964,-384,537,392,1529,-201,-563
6493981,-406,531,386,1529,-220,-566
6493998,-391,542,393,1529,-234,-566
6494014,-396,532,393,1529,-214,-566
6494031,-385,532,385,1526,-213,-566
6494064,-384,540,385,1528,-213,-566
6494081,-386,542,386,1521,-233,-566
6494097,-381,532,386,1531,-249,-565
6494114,-396,532,382,1525,-262,-566
6494131,-380,534,383,1528,-261,-559
6494147,-385,537,383,1530,-262,-563
6494180,-378,533,385,1529,-280,-562
6494197,-382,532,387,1526,-285,-564
6494214,-386,513,387,1527,-291,-571
6494230,-385,525,387,1528,-300,-565
6494247,-381,523,389,1523,-326,-555
6494264,-388,531,391,1521,-310,-556
6494296,-382,532,389,1526,-312,-544
6494314,-361,532,386,1529,-307,-539
6494331,-373,529,386,1518,-338,-543
6494347,-385,540,384,1525,-340,-541
6494363,-380,536,384,1527,-316,-548
6494380,-381,537,384,1528,-335,-538
6494412,-358,539,386,1525,-358,-530
6494429,-357,539,385,1524,-318,-539
6494446,-349,539,386,1528,-356,-537
6494463,-355,544,384,1528,-359,-537
6494480,-347,566,385,1528,-348,-535
6494496,-319,561,392,1528,-335,-531
6494529,-323,561,393,1528,-354,-534
6494546,-331,560,392,1526,-384,-527
6494564,-330,570,393,1529,-352,-524
6494580,-319,572,396,1528,-368,-521
6494596,-327,566,393,1529,-365,-534
6494613,-339,573,393,1522,-378,-536
6494645,-340,566,393,1522,-382,-526
6494663,-330,550,382,1521,-344,-518
6494680,-320,556,393,1520,-370,-504
6494697,-333,565,393,1522,-368,-527
6494713,-320,570,392,1516,-392,-500
6494730,-320,566,397,1519,-354,-510
6494761,-329,572,394,1519,-352,-520
6494778,-324,569,398,1513,-354,-511
6494796,-325,571,395,1510,-360,-506
6494812,-315,570,398,1510,-352,-500
6494829,-314,571,397,1524,-353,-508
6494846,-305,569,407,1513,-356,-498
6494878,-303,571,406,1518,-397,-502
6494895,-297,570,393,1517,-355,-497
6494912,-297,569,398,1517,-375,-497
6494929,-297,569,398,1517,-375,-497
6494946,-291,569,398,1519,-383,-498
6494962,-300,562,399,1520,-388,-489
6494994,-312,568,402,1515,-390,-475
6495012,-286,593,403,1513,-398,-469
6495028,-305,565,396,1521,-396,-477
6495044,-287,572,393,1515,-399,-476
6495062,-271,571,409,1522,-423,-456
6495078,-269,573,392,1512,-337,-457
6495110,-276,567,401,1518,-291,-443
6495128,-254,579,407,1531,-309,-444
6495144,-289,589,391,1516,-327,-449
6495162,-276,590,411,1518,-330,-442
6495178,-273,592,405,1519,-331,-446
6495195,-287,593,393,1520,-314,-445
6495227,-305,600,395,1514,-341,-470
6495245,-282,596,397,1516,-337,-453
6495261,-293,599,408,1517,-337,-450
6495278,-283,599,406,1516,-316,-451
6495294,-287,600,406,1518,-323,-447
6495312,-289,603,403,1515,-338,-445
6495344,-297,625,395,1509,-326,-455
6495361,-279,621,402,1506,-319,-448
6495378,-279,622,410,1511,-321,-445
6495394,-272,620,403,1494,-317,-444
6495411,-268,617,407,1513,-316,-446
6495428,-279,623,401,1496,-316,-447
6495444,-269,618,408,1498,-348,-441
6495477,-275,626,404,1493,-322,-428
6495494,-259,628,406,1494,-325,-428
6495510,-262,629,408,1494,-331,-430
6495527,-264,627,400,1494,-320,-431
6495544,-259,604,408,1494,-334,-429
6495561,-280,630,409,1494,-340,-426
6495593,-253,628,413,1498,-347,-413
6495626,-258,635,413,1498,-329,-412
6495643,-243,636,412,1498,-322,-419
6495660,-244,635,417,1497,-319,-393
6495677,-242,633,415,1498,-318,-397
6495694,-246,634,417,1495,-318,-397
6495726,-227,635,416,1499,-315,-395
6495742,-237,642,411,1493,-311,-411
6495759,-238,651,417,1497,-318,-397
6495776,-242,650,417,1495,-310,-396
6495793,-247,651,415,1497,-304,-405
6495810,-243,658,415,1494,-328,-411
6495843,-247,652,415,1495,-318,-413
6495860,-253,650,418,1494,-316,-389
6495877,-242,649,419,1492,-325,-409
6495894,-251,659,417,1485,-322,-408
6495910,-256,657,417,1487,-325,-404
6495927,-260,656,417,1484,-321,-409
6495943,-251,655,412,1484,-339,-420
6495975,-240,660,422,1490,-371,-413
6495993,-253,651,412,1481,-319,-422
6496009,-238,654,418,1476,-340,-397
6496027,-237,657,416,1476,-324,-401
6496043,-222,657,417,1474,-286,-389
6496059,-142,658,413,1481,-235,-334
6496091,24,682,415,1466,-233,-286
6496109,77,695,412,1468,-270,-287
6496126,89,695,418,1464,-288,-301
6496142,47,716,416,1465,-296,-336
6496159,-17,687,415,1468,-317,-367
6496176,-53,683,417,1467,-329,-370
6496193,-124,679,416,1468,-326,-398
6496225,-180,659,419,1469,-358,-395
6496242,-186,692,416,1468,-374,-415
6496258,-218,681,416,1469,-378,-418
6496275,-217,685,415,1466,-411,-428
6496292,-224,657,416,1467,-396,-426
6496309,-233,661,419,1467,-442,-423
6496341,-232,657,419,1467,-447,-424
6496359,-239,656,421,1467,-444,-439
6496375,-243,657,415,1469,-450,-424
6496391,-248,652,417,1464,-485,-430
6496408,-252,659,411,1466,-446,-436
6496426,-244,657,415,1466,-436,-426
6496442,-270,655,417,1465,-459,-428
6496474,-250,658,416,1465,-457,-423
6496492,-247,634,411,1468,-424,-423
6496509,-234,634,416,1468,-413,-410
6496525,-241,650,412,1467,-428,-425
6496542,-239,654,413,1467,-436,-413
6496558,-258,636,414,1467,-462,-442
6496590,-249,650,414,1468,-442,-423
6496608,-260,650,410,1465,-422,-425
6496625,-240,654,414,1481,-439,-424
6496642,-262,651,416,1466,-443,-428
6496658,-251,651,412,1470,-424,-431
6496675,-262,659,410,1464,-439,-426
6496691,-257,661,412,1476,-430,-429
6496723,-259,654,411,1473,-449,-416
6496741,-244,651,416,1473,-471,-412
6496758,-244,651,416,1473,-471,-412
6496775,-272,661,404,1474,-421,-423
6496791,-258,662,410,1469,-427,-424
6496808,-270,654,410,1476,-434,-428
6496825,-268,665,413,1471,-421,-426
6496856,-258,676,411,1474,-422,-429
6496874,-280,663,407,1489,-462,-432
6496891,-276,664,413,1480,-431,-430
6496908,-275,666,412,1477,-430,-419
6496924,-281,660,410,1488,-426,-433
6496941,-273,666,411,1484,-439,-424
6496972,-274,657,411,1480,-433,-425
6496990,-290,658,412,1482,-452,-429
6497006,-308,658,407,1477,-425,-428
6497024,-290,658,402,1479,-420,-433
6497041,-296,658,409,1474,-414,-438
6497058,-291,658,406,1478,-404,-424
6497090,-298,657,411,1475,-426,-432
6497107,-276,665,391,1478,-443,-430
6497124,-279,663,407,1477,-428,-436
6497140,-275,657,400,1477,-420,-437
6497157,-294,666,399,1477,-419,-439
6497174,-291,665,396,1490,-429,-447
6497206,-299,666,396,1489,-418,-446
6497224,-299,666,394,1479,-414,-446
6497239,-309,664,393,1486,-410,-442
6497257,-316,683,390,1492,-416,-443
6497274,-322,677,389,1495,-400,-448
6497290,-332,663,401,1485,-396,-445
6497323,-328,658,388,1486,-412,-445
6497340,-318,647,392,1487,-378,-444
6497357,-320,653,387,1490,-377,-425
6497374,-334,655,387,1497,-385,-450
6497390,-333,649,385,1478,-390,-442
6497406,-326,651,385,1491,-389,-440
6497438,-320,651,384,1498,-408,-445
6497455,-330,651,383,1494,-419,-474
6497472,-331,651,383,1497,-388,-444
6497490,-349,657,384,1495,-397,-466
6497506,-331,657,393,1494,-395,-445
6497523,-352,659,380,1494,-394,-467
6497555,-347,659,383,1499,-417,-458
6497573,-352,658,386,1492,-427,-463
6497588,-347,650,386,1497,-439,-445
6497605,-339,636,386,1499,-443,-451
6497622,-344,640,385,1494,-437,-457
6497639,-324,656,393,1497,-447,-453
6497671,-325,656,392,1490,-444,-447
6497689,-324,650,384,1498,-444,-442
6497705,-314,654,388,1495,-447,-443
6497721,-313,649,383,1496,-433,-442
6497739,-313,653,388,1495,-454,-450
6497755,-314,640,386,1494,-447,-446
6497788,-309,632,385,1498,-446,-446
6497805,-299,634,384,1497,-432,-434
6497822,-284,634,384,1502,-433,-439
6497838,-286,634,385,1501,-437,-436
6497856,-286,634,383,1495,-434,-440
6497872,-293,632,392,1513,-450,-439
6497904,-296,627,386,1500,-449,-431
6497921,-288,638,385,1505,-444,-426
6497939,-294,623,385,1505,-446,-433
6497955,-291,627,385,1500,-459,-431
6497972,-301,619,383,1499,-461,-429
6497989,-301,623,382,1497,-461,-441
6498021,-293,602,386,1498,-461,-428
6498038,-307,602,383,1500,-481,-430
6498055,-317,601,388,1504,-494,-447
6498071,-309,601,387,1500,-487,-441
6498088,-325,595,385,1499,-513,-448
6498106,-342,594,383,1502,-509,-464
6498137,-336,596,386,1498,-523,-445
6498154,-329,599,394,1501,-513,-437
6498171,-328,590,381,1500,-504,-446
6498188,-344,597,392,1501,-516,-446
6498204,-337,588,386,1500,-510,-449
6498237,-343,591,383,1508,-521,-448
6498270,-337,594,384,1510,-521,-450
6498288,-343,592,382,1515,-519,-448
6498305,-336,593,384,1508,-521,-442
6498321,-337,578,383,1518,-504,-444
6498337,-359,574,384,1521,-547,-468
6498354,-373,573,380,1507,-540,-460
6498386,-381,575,383,1502,-568,-450
6498403,-351,564,386,1514,-545,-434
6498421,-352,563,386,1511,-544,-432
6498437,-356,559,382,1509,-543,-428
6498453,-351,565,384,1514,-540,-428
6498471,-355,541,384,1519,-535,-429
6498503,-341,544,383,1526,-542,-429
6498519,-345,542,382,1513,-536,-429
6498537,-339,544,379,1521,-538,-429
6498554,-324,544,384,1508,-532,-428
6498570,-318,529,380,1525,-534,-426
6498587,-325,540,377,1505,-544,-432
6498603,-337,534,378,1527,-571,-445
6498635,-351,533,382,1516,-576,-438
6498652,-357,532,384,1521,-577,-431
6498669,-369,540,385,1519,-577,-440
6498687,-362,533,385,1518,-586,-440
6498703,-361,530,380,1519,-596,-451
6498720,-369,528,383,1518,-577,-448
6498752,-370,522,386,1511,-603,-455
6498770,-360,533,380,1517,-597,-443
6498786,-361,525,372,1515,-591,-450
6498803,-342,535,382,1516,-596,-445
6498819,-343,537,375,1522,-565,-434
6498836,-343,509,376,1514,-597,-440
6498869,-363,497,373,1509,-485,-414
6498886,-366,500,379,1512,-471,-414
6498903,-369,505,372,1507,-472,-433
6498919,-364,484,374,1509,-497,-414
6498936,-364,477,370,1511,-474,-417
6498953,-353,477,378,1509,-490,-418
6498970,-345,468,376,1507,-482,-417
6499001,-342,460,382,1504,-484,-431
6499019,-326,459,378,1504,-478,-417
6499035,-331,456,378,1507,-498,-418
6499053,-320,459,383,1497,-491,-417
6499069,-333,470,379,1498,-489,-423
6499086,-328,470,374,1498,-503,-415
6499117,-326,476,384,1496,-506,-406
6499135,-324,479,381,1498,-535,-398
6499152,-323,476,379,1498,-535,-402
6499169,-324,489,387,1475,-561,-416
6499186,-337,472,376,1476,-559,-414
6499203,-338,468,386,1476,-575,-401
6499235,-336,468,383,1467,-569,-400
6499252,-336,458,387,1462,-576,-410
6499269,-326,461,383,1469,-567,-394
6499285,-339,468,384,1467,-565,-400
6499302,-324,468,382,1466,-586,-395
6499319,-296,480,384,1464,-618,-397
6499350,-295,469,382,1463,-615,-415
6499368,-292,466,384,1467,-594,-399
6499385,-283,451,387,1465,-596,-418
6499402,-294,451,385,1460,-600,-416
6499419,-293,454,390,1454,-617,-434
6499435,-293,462,389,1457,-598,-429
6499467,-289,458,389,1437,-599,-430
6499484,-269,457,394,1434,-601,-414
6499500,-254,458,388,1435,-599,-421
6499518,-262,459,390,1431,-600,-416
6499535,-257,459,384,1430,-572,-416
6499551,-267,459,387,1414,-596,-430
6499585,-257,459,384,1409,-567,-418
6499602,-202,462,391,1406,-498,-351
6499619,-80,472,389,1398,-465,-320
6499635,-12,479,391,1399,-469,-295
6499651,-3,479,393,1396,-469,-333
6499668,-42,473,391,1395,-503,-363
6499700,-136,457,391,1393,-532,-415
6499718,-167,458,397,1384,-552,-414
6499734,-203,476,387,1393,-570,-440
6499750,-213,471,400,1383,-571,-439
6499768,-222,465,399,1374,-581,-435
6499784,-220,449,405,1378,-576,-429
6499816,-247,460,395,1384,-592,-429
6499833,-248,449,395,1373,-591,-428
6499851,-253,445,396,1379,-595,-438
6499867,-265,442,397,1375,-574,-428
6499884,-253,472,398,1376,-599,-430
6499901,-256,440,402,1375,-589,-428
6499933,-229,428,397,1373,-564,-426
6499950,-231,427,410,1375,-591,-427
6499966,-256,444,396,1374,-568,-418
6499983,-243,434,396,1373,-572,-435
6500000,-240,444,414,1372,-565,-427
6500017,-239,434,402,1371,-565,-427
6500049,-232,430,408,1373,-560,-427
6500067,-238,440,415,1375,-565,-430
6500082,-228,429,414,1372,-549,-416
6500100,-233,429,415,1373,-563,-429
6500116,-231,426,417,1373,-563,-427
6500133,-232,425,414,1374,-568,-426
6500166,-213,428,416,1372,-562,-429
6500183,-215,416,410,1375,-565,-430
6500200,-220,418,414,1373,-567,-429
6500217,-218,412,406,1373,-543,-422
6500233,-223,414,409,1375,-500,-415
6500250,-218,412,416,1375,-513,-416
6500281,-234,413,417,1372,-535,-417
6500298,-237,417,408,1376,-538,-431
6500316,-248,415,416,1372,-539,-414
6500333,-225,402,413,1374,-536,-414
6500350,-231,412,415,1376,-539,-428
6500366,-224,395,415,1387,-531,-418
6500398,-235,380,412,1388,-541,-434
6500415,-219,390,414,1399,-531,-429
6500432,-215,380,415,1384,-536,-426
6500449,-220,379,414,1399,-528,-437
6500466,-234,381,415,1379,-534,-436
6500483,-221,362,411,1397,-532,-437
6500515,-212,374,416,1396,-528,-426
6500532,-219,368,416,1400,-534,-432
6500549,-217,365,415,1398,-533,-415
6500564,-218,385,412,1399,-539,-422
6500582,-177,382,414,1400,-523,-397
6500599,-157,385,416,1401,-507,-388
6500631,-201,376,413,1392,-541,-418
6500648,-187,386,418,1402,-536,-413
6500664,-202,379,419,1404,-547,-420
6500682,-201,382,421,1402,-548,-420
6500699,-200,368,414,1402,-551,-416
6500715,-197,359,413,1399,-559,-418
6500747,-188,322,417,1400,-537,-398
6500765,-188,323,418,1395,-567,-396
6500781,-190,325,419,1395,-547,-406
6500798,-199,339,418,1404,-563,-403
6500815,-208,330,418,1392,-557,-417
6500832,-210,351,419,1401,-564,-413
6500863,-210,332,420,1392,-567,-408
6500881,-216,333,415,1402,-561,-409
6500898,-215,332,419,1394,-565,-392
6500915,-217,334,418,1399,-559,-401
6500930,-187,333,415,1399,-566,-394
6500948,-207,355,415,1401,-562,-390
6500980,-203,335,414,1400,-563,-392
6500998,-200,327,415,1400,-556,-388
6501015,-197,320,418,1402,-558,-390
6501031,-200,321,421,1402,-562,-390
6501048,-229,323,417,1403,-570,-399
6501064,-230,322,417,1394,-571,-399
6501096,-216,335,415,1402,-569,-386
6501114,-233,334,418,1403,-562,-398
6501131,-228,332,419,1402,-584,-394
6501147,-248,353,416,1404,-565,-400
6501164,-234,329,418,1402,-576,-397
6501181,-246,328,418,1403,-572,-397
6501212,-232,333,416,1404,-568,-387
6501229,-230,333,416,1400,-569,-395
6501247,-230,328,415,1399,-593,-395
6501264,-232,318,412,1398,-563,-395
6501279,-228,320,417,1400,-599,-394
6501297,-238,338,416,1403,-599,-393
6501329,-252,326,412,1401,-580,-398
6501346,-247,322,416,1400,-586,-401
6501364,-252,334,412,1403,-590,-397
6501380,-259,334,412,1397,-593,-399
6501397,-246,333,412,1402,-595,-398
6501414,-249,330,414,1398,-589,-395
6501446,-265,318,408,1401,-591,-396
6501463,-252,323,408,1396,-595,-396
6501479,-256,337,409,1400,-592,-398
6501495,-251,325,410,1398,-593,-396
6501513,-250,320,407,1402,-594,-394
6501530,-246,320,408,1390,-591,-393
6501562,-252,305,406,1397,-589,-400
6501579,-249,308,406,1401,-596,-397
6501595,-263,304,410,1402,-590,-396
6501613,-249,302,410,1401,-597,-399
6501630,-251,303,410,1403,-600,-398
6501646,-253,304,411,1405,-587,-391
6501678,-228,326,411,1406,-559,-383
6501696,-227,294,408,1400,-567,-382
6501712,-240,323,401,1399,-592,-398
6501729,-243,306,409,1404,-592,-389
6501746,-248,319,401,1397,-595,-396
6501763,-243,316,414,1404,-582,-387
6501795,-238,299,409,1405,-563,-382
6501812,-247,304,395,1404,-574,-398
6501829,-243,302,395,1404,-564,-394
6501846,-238,293,411,1402,-568,-394
6501863,-249,324,394,1402,-566,-397
6501879,-258,301,403,1404,-582,-395
6501911,-261,293,392,1402,-591,-397
6501928,-258,288,404,1403,-588,-398
6501944,-250,299,408,1399,-585,-395
6501962,-256,303,405,1406,-588,-398
6501979,-256,319,405,1403,-581,-400
6501996,-260,315,406,1405,-592,-399
6502028,-267,315,408,1403,-593,-394
6502045,-258,300,401,1402,-584,-396
6502062,-268,303,403,1401,-580,-398
6502078,-272,300,402,1400,-591,-398
6502094,-262,294,404,1400,-564,-398
6502111,-259,290,407,1407,-569,-384
6502145,-273,297,402,1404,-569,-398
6502162,-276,320,407,1406,-569,-391
6502178,-272,325,400,1405,-565,-398
6502195,-279,307,403,1403,-575,-395
6502212,-279,301,396,1404,-558,-393
6502229,-261,303,412,1402,-564,-376
6502261,-272,321,410,1404,-564,-379
6502278,-279,297,389,1403,-562,-373
6502295,-284,290,408,1407,-571,-389
6502311,-286,300,398,1406,-559,-380
6502328,-294,315,395,1406,-566,-383
6502345,-284,303,398,1406,-560,-373
6502377,-270,302,407,1406,-563,-395
6502395,-280,301,396,1407,-555,-389
6502412,-287,301,402,1405,-560,-396
6502428,-296,305,406,1406,-570,-396
6502444,-278,301,395,1399,-562,-392
6502462,-292,302,403,1403,-562,-394
6502493,-277,301,404,1402,-550,-405
6502511,-293,296,399,1403,-546,-415
6502526,-291,329,400,1402,-542,-414
6502544,-301,327,403,1405,-531,-442
6502560,-315,325,395,1401,-538,-448
6502577,-306,326,395,1404,-533,-423
6502611,-293,313,402,1396,-532,-413
6502628,-304,297,403,1403,-538,-408
6502644,-297,328,399,1399,-509,-395
6502661,-313,321,404,1400,-490,-396
6502678,-308,320,400,1392,-496,-397
6502695,-330,323,409,1393,-505,-415
6502726,-344,322,411,1394,-517,-399
6502743,-348,317,412,1399,-519,-395
6502761,-333,314,410,1404,-526,-396
6502777,-325,318,413,1402,-497,-397
6502794,-327,298,415,1402,-497,-394
6502810,-324,305,411,1402,-492,-396
6502842,-322,323,401,1404,-481,-393
6502859,-321,319,412,1401,-478,-385
6502878,-321,324,404,1401,-455,-392
6502892,-313,325,414,1396,-460,-392
6502909,-305,333,410,1397,-476,-392
6502927,-291,336,408,1401,-459,-396
6502959,-307,333,409,1396,-439,-397
6502976,-296,323,407,1397,-439,-399
6502994,-308,329,402,1401,-426,-396
6503009,-295,324,405,1404,-427,-396
6503026,-325,335,413,1402,-421,-403
6503043,-326,333,412,1402,-424,-384
6503075,-322,333,416,1400,-403,-376
6503093,-325,331,417,1394,-382,-387
6503108,-336,331,415,1402,-385,-385
6503127,-333,341,416,1403,-365,-378
6503143,-347,357,414,1403,-355,-365
6503158,-350,357,414,1401,-325,-365
6503192,-364,345,415,1402,-316,-363
6503209,-378,342,416,1404,-321,-364
6503226,-385,355,413,1407,-304,-357
6503243,-386,359,413,1405,-299,-364
6503260,-387,353,412,1403,-293,-352
6503276,-391,352,413,1408,-283,-363
6503307,-417,356,413,1403,-259,-366
6503324,-431,367,411,1406,-254,-370
6503342,-445,364,412,1405,-258,-369
6503359,-452,365,403,1401,-243,-366
6503375,-468,346,409,1407,-242,-368
6503392,-459,355,411,1404,-234,-354
6503424,-463,356,407,1405,-214,-349
6503441,-469,354,408,1409,-190,-350
6503459,-463,351,410,1402,-194,-338
6503475,-454,347,398,1406,-165,-334
6503492,-462,354,405,1400,-158,-331
6503509,-450,359,410,1409,-156,-323
6503541,-445,366,408,1407,-123,-317
6503558,-447,365,412,1405,-106,-325
6503575,-461,366,405,1404,-99,-332
6503592,-450,365,399,1406,-91,-323
6503608,-447,366,401,1408,-84,-318
6503625,-456,355,397,1405,-62,-328
6503657,-468,367,400,1401,-45,-335
6503674,-469,369,391,1394,-36,-318
6503690,-470,363,387,1389,-15,-323
6503708,-478,389,392,1381,-4,-333
6503725,-459,390,393,1389,-4,-302
6503741,-458,381,391,1381,18,-303
6503774,-444,398,386,1378,30,-295
6503791,-447,398,383,1376,32,-294
6503807,-465,398,393,1372,50,-309
6503825,-443,398,387,1376,94,-291
6503841,-449,398,381,1372,97,-305
6503858,-447,398,391,1371,96,-289
6503889,-454,397,387,1369,124,-295
6503906,-472,398,386,1368,126,-299
6503923,-477,404,386,1369,126,-304
6503941,-504,390,383,1372,124,-304
6503958,-503,399,385,1369,128,-304
6503974,-505,394,382,1369,122,-327
6504006,-517,397,382,1376,125,-306
6504024,-517,417,385,1372,123,-316
6504040,-534,452,372,1368,89,-306
6504057,-527,441,377,1373,100,-314
6504074,-542,434,373,1377,103,-319
6504091,-557,437,374,1372,55,-322
6504122,-572,441,364,1371,76,-332
6504140,-567,428,366,1371,61,-336
6504157,-573,435,365,1371,60,-337
6504173,-557,433,375,1374,65,-325
6504190,-563,445,362,1373,64,-328
6504207,-561,444,364,1372,65,-333
6504239,-566,444,359,1373,28,-348
6504255,-551,424,362,1380,42,-341
6504272,-541,433,365,1377,31,-335
6504289,-539,438,369,1372,28,-330
6504307,-538,442,362,1369,37,-324
6504323,-535,443,362,1373,37,-324
6504356,-552,442,357,1373,18,-332
6504373,-549,445,351,1374,17,-346
6504390,-561,452,353,1374,-4,-353
6504406,-544,458,351,1371,0,-335
6504423,-541,463,351,1372,-11,-334
6504440,-532,447,351,1374,0,-334
6504472,-534,451,343,1375,-34,-337
6504489,-529,446,348,1373,-45,-345
6504506,-532,441,346,1377,-66,-354
6504523,-514,445,352,1369,-58,-333
6504539,-531,446,339,1379,-64,-352
6504556,-512,451,344,1377,-77,-363
6504589,-507,453,344,1381,-96,-359
6504606,-499,460,342,1374,-96,-349
6504622,-498,441,344,1377,-94,-345
6504639,-492,453,336,1380,-108,-355
6504656,-506,462,338,1377,-119,-358
6504672,-506,472,332,1377,-134,-360
6504705,-506,453,336,1375,-137,-365
6504722,-510,457,330,1378,-163,-363
6504739,-510,458,335,1374,-167,-367
6504755,-502,446,332,1375,-159,-364
6504772,-502,455,325,1369,-179,-365
6504789,-500,459,337,1378,-176,-367
6504821,-482,452,334,1376,-190,-373
6504838,-483,456,326,1372,-192,-367
6504855,-481,441,328,1378,-188,-365
6504872,-465,450,330,1375,-192,-364
6504888,-480,444,328,1374,-217,-386
6504905,-470,458,331,1374,-217,-377
6504937,-449,445,331,1380,-234,-385
6504954,-474,459,322,1375,-238,-387
6504971,-449,462,324,1379,-218,-368
6504989,-445,466,326,1378,-230,-371
6505004,-432,467,323,1385,-234,-391
6505021,-412,467,335,1381,-213,-360
6505054,-416,467,324,1382,-246,-378
6505072,-398,467,326,1385,-250,-387
6505088,-397,467,326,1380,-256,-387
6505105,-387,467,323,1378,-241,-387
6505121,-372,467,325,1374,-248,-381
6505139,-379,467,321,1382,-259,-385
6505171,-370,467,322,1376,-260,-385
6505188,-365,468,325,1381,-300,-388
6505205,-363,480,321,1381,-274,-398
6505221,-365,469,329,1381,-296,-398
6505238,-368,472,323,1380,-294,-392
6505254,-358,471,319,1375,-288,-398
6505287,-355,479,323,1377,-308,-407
6505304,-351,473,315,1383,-310,-409
6505321,-351,479,324,1378,-299,-395
6505338,-355,471,318,1378,-318,-396
6505354,-337,470,320,1378,-318,-398
6505371,-326,475,321,1380,-315,-398
6505402,-325,477,320,1378,-345,-393
6505419,-328,477,322,1383,-352,-395
6505436,-319,481,324,1383,-355,-385
6505454,-310,476,327,1385,-354,-386
6505471,-308,479,329,1383,-358,-384
6505487,-301,480,327,1380,-370,-385
6505520,-296,503,323,1380,-363,-392
6505537,-294,501,322,1382,-362,-387
6505554,-296,503,323,1375,-373,-383
6505570,-282,507,326,1376,-379,-387
6505587,-284,478,323,1373,-376,-390
6505604,-269,478,324,1374,-383,-383
6505636,-270,469,324,1371,-379,-388
6505653,-257,475,330,1369,-359,-385
6505670,-258,503,327,1374,-384,-387
6505686,-265,486,327,1371,-383,-384
6505703,-257,488,323,1369,-393,-383
6505720,-245,490,327,1376,-384,-393
6505752,-241,483,329,1365,-385,-400
6505770,-266,478,324,1368,-394,-388
6505785,-241,480,322,1367,-384,-402
6505803,-227,471,330,1367,-376,-515
6505820,-212,482,328,1372,-399,-581
6505836,-241,475,322,1359,-381,-496
6505868,-238,476,323,1371,-386,-450
6505886,-265,478,321,1363,-399,-446
6505903,-254,478,323,1357,-415,-440
6505919,-258,471,333,1362,-415,-426
6505936,-247,468,323,1367,-417,-417
6505952,-229,472,331,1358,-413,-414
6505985,-247,471,326,1352,-427,-417
6506002,-240,480,334,1350,-443,-416
6506018,-250,477,329,1354,-443,-418
6506036,-243,472,332,1349,-450,-406
6506053,-244,476,331,1349,-443,-409
6506085,-235,480,324,1348,-451,-395
6506118,-232,496,327,1341,-452,-388
6506136,-231,484,336,1334,-449,-388
6506151,-226,485,338,1320,-447,-388
6506169,-213,493,335,1323,-449,-388
6506185,-215,471,335,1338,-456,-389
6506202,-200,481,329,1327,-448,-388
6506234,-199,479,333,1321,-468,-397
6506251,-213,475,336,1321,-455,-396
6506268,-211,478,334,1323,-468,-396
6506284,-210,479,341,1320,-482,-397
6506302,-207,476,342,1334,-460,-397
6506318,-199,474,339,1333,-465,-385
6506335,-200,479,334,1319,-462,-399
6506367,-213,476,329,1319,-474,-401
6506385,-214,496,331,1321,-471,-412
6506402,-220,493,331,1321,-469,-410
6506417,-197,470,332,1324,-475,-396
6506435,-200,478,343,1316,-502,-393
6506451,-220,475,339,1323,-447,-419
6506484,-193,480,342,1321,-459,-399
6506501,-192,477,341,1320,-452,-399
6506518,-189,469,336,1334,-466,-411
6506535,-184,473,344,1323,-448,-396
6506552,-190,466,341,1321,-467,-400
6506568,-190,471,339,1321,-459,-404
6506600,-189,470,341,1322,-448,-405
6506618,-202,478,341,1321,-489,-417
6506635,-209,478,339,1323,-476,-418
6506651,-200,478,339,1324,-491,-415
6506668,-197,477,339,1328,-477,-400
6506685,-194,478,338,1324,-477,-400
6506716,-193,476,343,1320,-484,-423
6506733,-197,476,347,1331,-502,-418
6506750,-204,475,355,1318,-512,-431
6506767,-193,498,346,1328,-476,-426
6506784,-187,474,347,1317,-492,-414
6506801,-202,499,355,1320,-515,-416
6506833,-200,499,346,1322,-498,-419
6506850,-207,480,352,1322,-501,-408
6506867,-209,480,351,1321,-507,-403
6506884,-214,483,353,1321,-508,-418
6506901,-196,479,351,1321,-560,-405
6506917,-196,502,348,1321,-496,-414
6506949,-212,500,345,1321,-529,-426
6506967,-223,511,340,1322,-511,-413
6506983,-232,495,355,1316,-519,-417
6507000,-230,498,343,1323,-523,-416
6507017,-230,479,350,1314,-555,-415
6507034,-236,488,345,1316,-491,-414
6507065,-240,506,345,1315,-530,-420
6507082,-236,506,344,1309,-526,-416
6507099,-229,501,342,1312,-521,-399
6507116,-217,500,343,1311,-519,-405
6507134,-226,499,353,1314,-528,-419
6507150,-226,497,339,1309,-511,-419
6507182,-224,473,349,1307,-529,-412
6507199,-225,475,348,1307,-495,-405
6507216,-219,465,349,1309,-514,-394
6507233,-225,480,351,1303,-507,-401
6507250,-222,471,353,1302,-498,-419
6507267,-213,468,345,1299,-498,-402
6507298,-206,478,347,1296,-498,-396
6507316,-231,491,349,1292,-505,-418
6507332,-223,488,342,1293,-488,-399
6507349,-215,475,349,1291,-499,-403
6507365,-199,507,352,1291,-503,-398
6507382,-206,488,351,1290,-498,-394
6507415,-190,497,355,1286,-488,-394
6507433,-196,502,350,1286,-498,-418
6507448,-200,509,353,1279,-497,-410
6507466,-229,495,352,1277,-536,-420
6507482,-252,502,347,1276,-550,-437
6507499,-295,486,340,1260,-537,-454
6507531,-300,497,342,1262,-572,-446
6507549,-297,501,333,1258,-549,-447
6507566,-314,497,342,1255,-550,-426
6507582,-298,501,334,1253,-557,-419
6507599,-313,498,331,1264,-530,-432
6507616,-315,492,342,1236,-541,-437
6507647,-304,493,344,1251,-542,-427
6507665,-303,476,337,1250,-565,-428
6507682,-311,496,341,1252,-564,-428
6507698,-298,498,332,1244,-584,-417
6507714,-304,506,335,1239,-545,-430
6507732,-290,498,339,1242,-553,-420
6507764,-291,500,340,1228,-546,-415
6507782,-297,498,334,1229,-559,-428
6507798,-298,501,338,1227,-537,-415
6507815,-285,511,341,1223,-540,-417
6507832,-286,505,337,1203,-565,-415
6507849,-275,513,346,1195,-530,-417
6507880,-258,526,343,1194,-507,-397
6507897,-254,512,340,1197,-536,-406
6507914,-245,529,349,1195,-464,-415
6507931,-240,530,335,1196,-508,-406
6507948,-231,531,346,1194,-492,-417
6507965,-227,530,343,1196,-472,-405
6507997,-202,530,356,1194,-439,-395
6508014,-185,535,351,1193,-439,-396
6508030,-184,541,353,1186,-443,-396
6508048,-180,536,353,1190,-440,-398
6508064,-164,552,353,1178,-435,-396
6508081,-168,536,351,1177,-428,-391
6508113,-113,531,354,1185,-372,-353
6508131,-51,526,357,1180,-361,-319
6508147,-10,544,355,1193,-305,-299
6508163,39,540,354,1193,-246,-280
6508180,66,542,363,1198,-221,-294
6508197,36,543,364,1190,-253,-314
6508229,-29,556,363,1188,-320,-354
6508247,-34,561,362,1188,-346,-363
6508263,-65,557,362,1180,-373,-382
6508281,-89,539,367,1182,-371,-384
6508297,-102,536,367,1190,-385,-388
6508314,-122,536,374,1179,-389,-386
6508346,-129,543,374,1176,-419,-391
6508364,-131,543,368,1185,-412,-386
6508379,-153,540,357,1187,-412,-394
6508397,-144,535,373,1183,-445,-384
6508413,-157,564,375,1184,-404,-395
6508430,-155,561,365,1185,-415,-390
6508463,-159,559,371,1195,-423,-400
6508480,-156,564,373,1188,-417,-387
6508497,-154,563,376,1188,-420,-396
6508513,-166,562,372,1184,-413,-391
6508531,-162,561,375,1173,-422,-393
6508547,-158,561,376,1171,-405,-394
6508579,-157,561,379,1180,-396,-400
6508597,-133,561,378,1179,-438,-395
6508613,-150,563,378,1172,-392,-410
6508630,-150,564,382,1179,-417,-412
6508647,-156,560,382,1176,-414,-413
6508663,-155,561,379,1166,-415,-414
6508695,-153,560,374,1168,-429,-419
6508713,-152,561,381,1168,-432,-409
6508730,-145,566,384,1167,-413,-405
6508746,-160,568,381,1158,-411,-417
6508763,-161,563,379,1165,-416,-413
6508780,-145,563,386,1162,-402,-412
6508812,-146,561,385,1162,-418,-420
6508829,-156,564,380,1163,-388,-417
6508845,-168,572,375,1164,-413,-424
6508863,-154,563,379,1162,-410,-415
6508879,-155,561,376,1161,-410,-416
6508896,-159,561,384,1159,-411,-428
6508929,-156,572,370,1162,-420,-426
6508946,-154,572,384,1162,-414,-432
6508963,-156,564,383,1162,-407,-421
6508979,-154,564,379,1165,-394,-427
6508995,-151,562,385,1163,-390,-418
6509012,-153,562,382,1164,-402,-429
6509044,-159,560,383,1165,-397,-427
6509062,-148,563,381,1166,-408,-411
6509078,-158,561,383,1164,-416,-420
6509095,-179,569,382,1166,-427,-430
6509112,-180,593,385,1163,-419,-421
6509128,-174,591,383,1169,-424,-421
6509161,-185,587,386,1164,-421,-435
6509177,-190,581,375,1165,-423,-432
6509195,-194,575,378,1163,-440,-434
6509212,-203,564,382,1164,-422,-427
6509230,-195,598,378,1163,-425,-417
6509245,-205,563,383,1165,-433,-432
6509277,-211,591,386,1162,-428,-417
6509295,-207,589,386,1163,-415,-417
6509310,-189,567,382,1164,-407,-416
6509328,-215,568,377,1163,-416,-430
6509345,-208,570,383,1163,-416,-420
6509361,-211,569,383,1165,-416,-429
6509394,-207,590,384,1165,-447,-420
6509411,-212,586,385,1164,-395,-442
6509428,-212,564,384,1166,-427,-429
6509445,-213,598,385,1163,-401,-428
6509462,-219,654,384,1163,-412,-429
6509478,-219,651,381,1166,-409,-439
6509510,-226,649,385,1165,-423,-442
6509528,-228,651,383,1164,-410,-442
6509544,-224,653,384,1165,-407,-441
6509561,-220,654,386,1168,-399,-437
6509577,-214,657,384,1164,-419,-432
6509594,-212,655,384,1168,-409,-428
6509626,-225,652,384,1166,-423,-446
6509644,-234,657,382,1168,-414,-442
6509661,-225,656,385,1167,-412,-434
6509677,-215,648,384,1167,-409,-427
6509694,-215,651,385,1176,-399,-430
6509711,-221,654,386,1185,-419,-426
6509742,-235,655,386,1193,-420,-435
6509759,-236,655,384,1191,-426,-437
6509776,-246,657,389,1191,-424,-428
6509794,-242,651,385,1192,-427,-428
6509810,-252,652,389,1196,-431,-442
6509827,-263,656,394,1196,-426,-434
6509860,-264,655,392,1197,-412,-422
6509877,-288,657,387,1192,-416,-431
6509893,-256,648,389,1198,-386,-431
6509910,-260,655,389,1195,-410,-428
6509927,-270,652,397,1198,-395,-424
6509943,-274,663,395,1195,-396,-427
6509975,-276,656,395,1195,-393,-428
6509993,-278,655,392,1196,-389,-439
6510009,-292,662,391,1193,-396,-432
6510026,-286,663,392,1198,-397,-418
6510044,-273,650,395,1193,-386,-433
6510060,-284,653,395,1197,-361,-426
6510092,-279,657,397,1196,-354,-427
6510110,-276,654,398,1193,-353,-420
6510126,-280,660,396,1197,-359,-417
6510142,-295,657,398,1194,-370,-436
6510160,-290,661,396,1197,-353,-435
6510176,-278,658,394,1192,-358,-425
6510258,-292,667,405,1196,-334,-428
6510276,-294,665,394,1196,-329,-438
6510292,-295,655,398,1197,-324,-431
6510309,-284,656,397,1196,-318,-428
6510326,-291,659,393,1197,-303,-436
6510342,-290,666,395,1189,-356,-431
6510359,-299,664,406,1195,-291,-440
6510391,-295,672,404,1191,-306,-442
6510408,-293,673,405,1193,-301,-440
6510425,-292,672,403,1194,-309,-444
6510442,-286,669,410,1194,-302,-444
6510459,-276,675,404,1194,-327,-438
6510475,-295,667,409,1194,-282,-451
6510507,-278,681,407,1194,-292,-442
6510525,-256,682,412,1194,-252,-440
6510541,-262,682,388,1194,-281,-434
6510558,-262,682,411,1194,-277,-440
6510575,-257,682,405,1194,-280,-438
6510592,-264,685,409,1194,-270,-443
6510624,-272,685,413,1194,-277,-450
6510642,-266,637,413,1197,-258,-442
6510658,-264,633,413,1193,-250,-443
6510675,-250,624,416,1196,-256,-443
6510691,-265,633,412,1193,-261,-447
6510708,-266,624,415,1198,-262,-448
6510740,-262,632,416,1198,-268,-467
6510758,-259,637,409,1195,-265,-456
6510775,-263,628,412,1196,-262,-462
6510790,-241,635,413,1195,-243,-453
6510808,-247,631,412,1195,-245,-453
6510825,-254,630,411,1191,-248,-447
6510857,-251,622,411,1191,-249,-457
6510874,-245,638,410,1191,-236,-460
6510891,-247,622,411,1191,-239,-461
6510908,-243,630,416,1191,-242,-473
6510924,-231,634,412,1196,-227,-469
6510941,-223,628,418,1195,-257,-472
6510973,-226,635,414,1194,-237,-474
6510991,-228,624,415,1197,-252,-479
6511006,-230,633,415,1196,-243,-470
6511023,-229,634,415,1196,-252,-470
6511041,-233,637,415,1194,-234,-470
6511057,-228,629,416,1198,-236,-472
6511089,-229,640,415,1194,-235,-485
6511107,-218,653,416,1196,-234,-478
6511124,-215,649,416,1195,-226,-481
6511140,-214,652,415,1194,-227,-476
6511156,-215,653,418,1189,-225,-482
6511173,-218,653,423,1188,-221,-481
6511206,-206,656,426,1167,-241,-479
6511223,-218,651,421,1161,-243,-477
6511240,-219,660,423,1161,-236,-470
6511256,-217,658,417,1164,-237,-472
6511274,-214,663,422,1162,-247,-475
6511305,-197,662,424,1154,-234,-476
6511338,-210,663,415,1133,-250,-478
6511355,-214,659,415,1138,-234,-475
6511372,-202,659,417,1132,-229,-469
6511390,-201,657,420,1134,-223,-468
6511406,-195,655,418,1133,-212,-468
6511424,-200,655,419,1129,-213,-468
6511455,-205,658,420,1134,-217,-478
6511473,-202,657,418,1114,-236,-481
6511488,-206,660,420,1108,-228,-490
6511506,-205,662,419,1101,-230,-478
6511523,-211,659,421,1098,-232,-487
6511540,-195,668,419,1102,-242,-480
6511572,-198,654,414,1099,-246,-479
6511589,-213,661,417,1100,-241,-480
6511606,-204,663,415,1081,-271,-473
6511623,-218,669,420,1072,-228,-498
6511639,-211,667,418,1074,-240,-476
6511656,-218,665,419,1068,-227,-503
6511688,-200,666,420,1072,-256,-470
6511706,-212,662,412,1074,-265,-482
6511722,-202,682,420,1074,-242,-501
6511739,-193,683,418,1070,-243,-500
6511755,-195,679,415,1069,-228,-502
6511772,-196,681,415,1070,-236,-498
6511804,-204,683,421,1069,-247,-497
6511822,-198,682,425,1065,-266,-502
6511839,-189,682,414,1072,-305,-474
6511855,-189,682,417,1068,-238,-500
6511871,-192,683,415,1070,-266,-500
6511889,-186,683,419,1065,-261,-499
6511921,-187,686,421,1051,-266,-501
6511939,-189,680,420,1049,-265,-501
6511954,-172,680,423,1055,-258,-493
6511972,-171,691,415,1043,-274,-499
6511988,-180,687,426,1056,-259,-487
6512005,-168,687,414,1052,-269,-491
6512037,-162,687,419,1073,-278,-474
6512055,-172,685,420,1041,-275,-482
6512071,-173,709,424,1048,-272,-477
6512088,-166,684,430,1047,-271,-479
6512104,-171,701,422,1057,-296,-481
6512121,-186,706,417,1060,-270,-496
6512153,-159,703,425,1065,-257,-486
6512171,-158,706,418,1068,-271,-503
6512187,-162,706,419,1066,-274,-475
6512205,-160,713,423,1072,-271,-476
6512222,-154,713,422,1070,-269,-469
6512239,-156,716,425,1068,-297,-478
6512270,-153,698,424,1068,-278,-464
6512288,-160,695,422,1070,-279,-471
6512304,-158,695,418,1069,-295,-455
6512321,-157,697,419,1069,-292,-462
6512338,-154,689,424,1071,-310,-448
6512354,-160,699,419,1071,-296,-475
6512386,-168,717,419,1072,-305,-445
6512403,-180,716,418,1070,-316,-445
6512419,-165,716,417,1072,-322,-447
6512437,-159,721,417,1071,-322,-428
6512454,-154,687,420,1069,-306,-430
6512470,-171,701,413,1068,-326,-426
6512503,-159,686,422,1068,-344,-434
6512520,-152,687,419,1068,-302,-426
6512537,-146,692,415,1068,-337,-430
6512554,-158,704,419,1068,-306,-435
6512570,-157,713,418,1069,-327,-456
6512587,-155,707,422,1068,-316,-449
6512619,-158,694,417,1077,-334,-460
6512636,-160,695,420,1071,-330,-460
6512654,-153,689,421,1073,-320,-446
6512670,-155,685,421,1069,-328,-462
6512687,-155,687,429,1072,-323,-452
6512703,-157,686,418,1068,-320,-453
6512735,-155,743,420,1067,-316,-448
6512754,-157,759,423,1069,-363,-442
6512769,-174,750,419,1067,-314,-452
6512786,-181,752,420,1067,-329,-450
6512803,-175,744,420,1070,-340,-447
6512820,-159,745,423,1049,-324,-447
6512852,-185,745,421,1054,-344,-452
6512870,-173,746,420,1056,-332,-446
6512886,-190,746,419,1052,-347,-448
6512903,-163,746,429,1057,-328,-440
6512919,-168,745,421,1063,-331,-437
6512936,-177,746,426,1068,-336,-442
6512968,-174,752,419,1071,-346,-447
6512985,-196,762,424,1061,-388,-437
6513002,-187,750,420,1068,-334,-448
6513019,-190,772,420,1067,-354,-432
6513036,-186,749,416,1069,-345,-435
6513052,-194,751,421,1068,-340,-439
6513084,-197,752,423,1071,-356,-428
6513102,-204,750,419,1067,-352,-437
6513118,-214,747,422,1070,-359,-444
6513136,-218,782,422,1070,-358,-431
6513152,-191,749,425,1075,-353,-428
6513169,-220,752,420,1071,-386,-429
6513201,-204,754,423,1073,-365,-429
6513217,-209,772,420,1071,-354,-430
6513234,-211,769,421,1070,-368,-429
6513252,-223,778,413,1075,-350,-432
6513269,-206,778,420,1074,-350,-429
6513285,-210,774,420,1071,-363,-430
6513318,-202,782,420,1071,-374,-443
6513335,-205,780,418,1071,-353,-430
6513352,-202,782,416,1075,-339,-427
6513369,-220,785,421,1072,-352,-425
6513386,-219,811,419,1068,-342,-427
6513402,-213,791,418,1074,-327,-414
6513434,-217,802,419,1070,-331,-423
6513452,-202,805,417,1072,-329,-417
6513468,-211,808,420,1069,-334,-417
6513485,-216,805,417,1071,-331,-415
6513502,-213,811,419,1067,-323,-406
6513519,-207,807,425,1070,-316,-389
6513550,-219,809,421,1071,-311,-395
6513568,-220,809,413,1070,-320,-400
6513585,-216,809,419,1068,-305,-399
6513601,-208,809,416,1073,-313,-383
6513618,-209,809,418,1068,-303,-400
6513635,-198,809,419,1074,-296,-395
6513666,-215,809,416,1070,-297,-386
6513684,-208,810,416,1073,-302,-383
6513701,-203,813,417,1072,-296,-383
6513717,-212,807,407,1072,-296,-390
6513734,-216,810,418,1070,-291,-400
6513751,-214,806,414,1073,-309,-396
6513783,-228,805,416,1069,-311,-414
6513801,-225,810,415,1074,-329,-406
6513817,-213,808,413,1075,-277,-393
6513834,-227,810,415,1069,-277,-396
6513851,-233,808,414,1077,-287,-416
6513868,-232,809,415,1073,-292,-399
6513916,-222,806,413,1090,-270,-415
6513933,-223,800,415,1082,-281,-391
6513951,-231,800,416,1082,-279,-401
6513967,-237,802,415,1086,-276,-413
6513984,-228,792,416,1086,-268,-395
6514000,-228,792,416,1086,-268,-395
6514032,-228,792,416,1086,-268,-395
6514050,-228,792,416,1086,-268,-395
6514067,-228,792,416,1086,-268,-395
6514083,-228,792,416,1086,-268,-395
6514099,-228,792,416,1086,-268,-395
6514116,-228,792,416,1086,-268,-395
6514149,-228,792,416,1086,-268,-395
6514166,-228,792,416,1086,-268,-395
6514182,-228,792,416,1086,-268,-395
6514200,-228,792,416,1086,-268,-395
6514216,-228,792,416,1086,-268,-395
6514233,-228,792,416,1086,-268,-395
6514265,-228,792,416,1086,-268,-395
6514281,-228,792,416,1086,-268,-395
6514298,-228,792,416,1086,-268,-395
6514316,-228,792,416,1086,-268,-395
6514332,-228,792,416,1086,-268,-395
6514349,-228,792,416,1086,-268,-395
6514381,-228,792,416,1086,-268,-395
6514398,-228,792,416,1086,-268,-395
6514414,-228,792,416,1086,-268,-395
6514432,-228,792,416,1086,-268,-395
6514448,-228,792,416,1086,-268,-395
6514466,-228,792,416,1086,-268,-395
6514498,-217,777,413,1100,-273,-395
6514516,-195,766,414,1105,-222,-350
6514533,-125,750,418,1100,-223,-360
6514550,-227,743,411,1105,-279,-362
6514566,-160,741,411,1114,-350,-355
6514583,-193,734,412,1112,-364,-360
6514599,-200,720,412,1113,-371,-366
6514630,-222,714,408,1106,-375,-366
6514648,-236,722,406,1114,-379,-368
6514665,-226,720,412,1113,-380,-355
6514682,-221,718,410,1119,-380,-349
6514697,-215,717,411,1111,-365,-347
6514715,-231,713,406,1111,-386,-346
6514732,-232,713,405,1118,-366,-351
6514763,-230,713,415,1127,-390,-355
6514781,-230,715,405,1120,-400,-371
6514798,-262,713,414,1129,-363,-344
6514815,-257,707,402,1127,-284,-335
6514832,-258,685,394,1134,-251,-323
6514847,-258,690,397,1129,-242,-327
6514864,-262,682,395,1132,-262,-335
6514897,-264,681,398,1132,-290,-360
6514914,-288,683,394,1132,-290,-356
6514931,-270,678,401,1132,-313,-355
6514948,-271,690,396,1128,-293,-352
6514964,-277,686,395,1131,-296,-342
6514981,-258,686,396,1129,-291,-333
6515013,-262,683,386,1130,-290,-358
6515031,-261,684,400,1130,-285,-334
6515047,-271,669,389,1130,-287,-338
6515064,-259,683,391,1130,-288,-334
6515081,-259,678,403,1130,-301,-335
6515098,-260,683,407,1131,-317,-336
6515129,-263,664,393,1130,-349,-335
6515146,-250,664,393,1130,-349,-337
6515163,-254,667,397,1132,-353,-345
6515180,-252,660,392,1130,-352,-324
6515197,-260,651,391,1129,-354,-337
6515214,-260,656,392,1129,-351,-331
6515246,-254,663,392,1128,-356,-327
6515263,-255,659,390,1131,-350,-333
6515280,-258,687,390,1130,-361,-347
6515297,-256,666,388,1130,-375,-332
6515313,-242,670,387,1131,-359,-337
6515330,-245,661,388,1129,-360,-334
6515362,-256,654,388,1124,-316,-317
6515380,-255,650,383,1118,-300,-316
6515397,-244,655,389,1127,-298,-320
6515413,-248,656,386,1113,-309,-326
6515430,-252,659,384,1121,-314,-326
6515447,-247,669,385,1112,-308,-322
6515478,-259,665,385,1103,-323,-322
6515495,-263,661,384,1118,-346,-327
6515512,-272,670,385,1106,-320,-325
6515530,-267,671,387,1103,-324,-324
6515545,-258,665,382,1102,-332,-318
6515563,-261,661,386,1104,-326,-314
6515595,-256,655,384,1101,-324,-310
6515612,-258,664,383,1099,-328,-318
6515630,-255,677,384,1102,-355,-311
6515646,-267,670,383,1100,-354,-318
6515663,-273,660,384,1102,-360,-314
6515680,-273,659,386,1102,-351,-303
6515711,-283,658,383,1100,-353,-299
6515729,-282,655,380,1104,-354,-294
6515746,-288,654,379,1102,-349,-302
6515761,-294,650,384,1105,-364,-325
6515779,-295,634,380,1101,-365,-320
6515795,-301,658,384,1099,-364,-318
6515828,-297,649,377,1097,-378,-323
6515846,-296,651,381,1095,-386,-316
6515862,-317,649,380,1076,-398,-327
6515879,-314,657,377,1065,-394,-324
6515896,-305,655,383,1041,-390,-298
6515913,-299,634,379,1010,-396,-306
6515944,-297,622,378,1006,-372,-290
6515962,-285,623,381,1004,-358,-295
6515979,-286,636,379,1001,-366,-294
6515995,-269,633,381,977,-359,-295
6516012,-260,645,384,974,-352,-301
6516029,-271,654,386,970,-351,-300
6516061,-252,635,385,951,-348,-304
6516078,-262,634,384,951,-363,-304
6516095,-221,629,384,956,-377,-303
6516112,-208,653,383,952,-428,-314
6516128,-178,656,389,945,-479,-319
6516145,-170,653,386,940,-500,-320
6516177,-184,652,386,932,-504,-329
6516195,-185,643,386,930,-504,-329
6516211,-187,653,391,928,-504,-325
6516228,-195,633,387,925,-495,-324
6516245,-201,636,393,927,-510,-335
6516263,-198,633,389,918,-489,-330
6516293,-187,631,391,933,-478,-318
6516311,-165,651,405,931,-480,-304
6516328,-155,648,393,927,-494,-300
6516345,-168,630,405,918,-481,-312
6516361,-162,635,396,908,-479,-306
6516378,-163,631,397,913,-467,-302
6516394,-170,632,400,912,-474,-319
6516428,-173,633,398,904,-471,-324
6516444,-159,652,398,914,-471,-291
6516461,-156,635,397,912,-450,-291
6516477,-175,633,396,916,-451,-299
6516494,-164,660,396,921,-463,-291
6516526,-171,628,394,943,-459,-284
6516561,-177,631,393,953,-475,-292
6516577,-188,634,408,951,-419,-302
6516594,-188,627,395,935,-395,-323
6516611,-198,628,396,931,-392,-321
6516627,-212,630,399,912,-394,-335
6516644,-208,634,397,916,-413,-320
6516676,-209,656,398,900,-417,-325
6516693,-222,628,395,883,-415,-324
6516711,-216,621,392,879,-414,-326
6516727,-215,627,394,864,-416,-331
6516744,-215,628,395,861,-403,-324
6516760,-210,624,394,842,-414,-325
6516792,-211,612,390,841,-413,-300
6516810,-191,620,409,833,-411,-314
6516826,-214,622,406,827,-414,-301
6516844,-212,614,401,809,-402,-300
6516861,-210,591,395,812,-418,-296
6516877,-205,596,402,809,-356,-292
6516909,-218,575,401,808,-342,-295
6516925,-200,571,406,809,-344,-292
6516942,-206,571,405,809,-335,-293
6516960,-214,571,403,809,-340,-294
6516976,-220,573,412,813,-357,-298
6516993,-213,570,412,811,-346,-298
6517025,-202,591,403,811,-344,-295
6517043,-202,569,410,816,-342,-295
6517058,-209,571,405,812,-321,-294
6517077,-198,567,405,818,-275,-281
6517093,-202,563,404,822,-291,-292
6517109,-215,561,407,829,-292,-302
6517142,-215,560,409,821,-292,-293
6517160,-214,564,409,838,-286,-292
6517176,-216,565,408,826,-288,-295
6517193,-220,564,408,831,-288,-294
6517210,-214,564,403,830,-292,-294
6517226,-220,564,408,842,-285,-294
6517259,-193,562,414,840,-280,-294
6517276,-219,570,409,841,-290,-291
6517293,-214,563,407,838,-294,-292
6517309,-219,579,405,838,-285,-292
6517326,-217,590,410,843,-302,-291
6517343,-213,566,407,842,-292,-292
6517374,-202,566,408,843,-293,-292
6517391,-158,571,410,842,-353,-289
6517409,-160,571,412,840,-396,-301
6517425,-158,572,414,838,-417,-293
6517442,-154,571,408,837,-416,-304
6517459,-157,572,412,838,-417,-304
6517491,-153,568,414,839,-395,-290
6517508,-181,562,416,839,-415,-302
6517524,-172,568,415,842,-404,-299
6517542,-180,558,414,841,-415,-292
6517558,-177,561,414,842,-395,-286
6517575,-168,561,415,847,-384,-285
6517607,-171,560,415,859,-385,-291
6517625,-169,561,412,860,-393,-292
6517640,-183,564,416,868,-394,-294
6517657,-181,564,416,872,-397,-293
6517675,-187,534,412,871,-335,-275
6517692,-221,539,408,869,-307,-282
6517724,-217,538,413,877,-311,-315
6517740,-215,538,409,879,-306,-324
6517757,-220,532,412,875,-332,-321
6517774,-226,531,409,882,-326,-318
6517792,-227,539,412,882,-327,-303
6517808,-223,537,411,882,-319,-302
6517840,-224,539,415,890,-311,-310
6517858,-215,541,416,889,-313,-314
6517874,-223,549,413,895,-321,-312
6517891,-217,533,412,900,-309,-305
6517908,-215,544,415,904,-314,-321
6517925,-223,538,414,899,-324,-322
6517956,-243,538,411,899,-324,-329
6517973,-238,537,415,905,-316,-327
6517990,-216,543,415,906,-289,-296
6518007,-129,543,408,909,-265,-267
6518024,-38,558,413,905,-226,-216
6518041,76,565,416,902,-213,-180
6518074,78,568,416,911,-270,-250
6518090,16,571,415,901,-274,-283
6518107,-20,564,417,913,-294,-293
6518124,-73,541,414,910,-286,-302
6518141,-99,534,426,900,-276,-315
6518157,-126,541,417,903,-314,-329
6518190,-168,535,418,901,-336,-337
6518207,-176,533,415,906,-348,-332
6518224,-203,532,416,899,-367,-350
6518240,-210,527,420,905,-369,-340
6518257,-211,536,413,898,-373,-348
6518274,-235,542,418,897,-375,-347
6518305,-235,529,420,889,-394,-356
6518323,-262,527,415,889,-398,-358
6518339,-262,530,419,894,-395,-347
6518357,-283,530,412,894,-399,-353
6518373,-285,526,417,887,-396,-357
6518389,-281,528,415,896,-389,-331
6518422,-284,528,416,897,-389,-337
6518439,-295,530,413,893,-398,-348
6518455,-293,528,417,894,-414,-334
6518473,-290,528,418,891,-416,-334
6518490,-283,531,416,894,-418,-335
6518506,-280,532,419,897,-415,-324
6518523,-296,527,416,901,-412,-336
6518555,-293,523,417,900,-425,-333
6518572,-303,529,416,899,-445,-331
6518589,-311,531,412,896,-450,-346
6518606,-311,526,422,901,-452,-335
6518623,-313,522,424,901,-453,-337
6518640,-316,507,422,899,-463,-334
6518671,-310,509,420,902,-464,-333
6518689,-323,509,421,901,-451,-329
6518705,-325,495,418,911,-466,-331
6518721,-328,492,420,910,-454,-324
6518739,-324,495,416,911,-448,-325
6518756,-324,483,416,911,-470,-324
6518788,-338,499,416,915,-448,-325
6518806,-342,493,422,926,-459,-329
6518822,-353,472,418,932,-488,-344
6518838,-366,476,417,921,-456,-327
6518855,-359,477,414,937,-425,-309
6518872,-354,479,413,932,-414,-311
6518904,-382,470,416,938,-427,-330
6518921,-392,469,416,942,-443,-325
6518938,-394,476,416,945,-441,-332
6518955,-417,464,414,946,-445,-332
6518972,-395,467,421,948,-428,-323
6518988,-409,474,415,951,-450,-337
6519020,-423,465,417,956,-451,-336
6519037,-415,473,414,969,-452,-325
6519054,-442,477,416,962,-477,-338
6519070,-442,478,416,970,-483,-336
6519088,-451,477,415,964,-473,-344
6519104,-453,478,414,976,-477,-332
6519137,-440,478,415,978,-467,-332
6519153,-451,471,413,977,-454,-337
6519173,-430,471,415,978,-452,-340
6519188,-441,471,418,978,-457,-340
6519204,-448,471,415,986,-481,-345
6519221,-441,471,424,984,-452,-337
6519253,-447,471,415,990,-462,-344
6519271,-433,471,418,1003,-472,-337
6519288,-433,470,417,1004,-448,-337
6519305,-430,473,416,1007,-481,-354
6519321,-425,473,424,1005,-503,-330
6519337,-411,475,413,1000,-484,-358
6519369,-415,475,414,1001,-507,-333
6519386,-400,503,416,1005,-447,-355
6519403,-400,499,415,1005,-416,-336
6519421,-411,489,416,1002,-371,-360
6519436,-408,478,414,1003,-388,-337
6519454,-411,474,414,1000,-308,-355
6519486,-406,468,415,998,-262,-352
6519503,-379,475,412,1012,-338,-340
6519519,-387,477,415,991,-211,-366
6519537,-382,477,410,983,-244,-364
6519554,-373,473,416,982,-206,-367
6519571,-351,475,408,981,-219,-352
6519602,-354,475,416,980,-238,-349
6519620,-360,469,408,967,-187,-359
6519636,-353,468,412,972,-165,-357
6519653,-352,480,406,975,-169,-362
6519670,-345,468,416,973,-180,-366
6519687,-341,470,416,979,-164,-357
6519719,-342,468,414,981,-153,-344
6519736,-346,469,407,989,-135,-350
6519753,-338,458,416,987,-152,-341
6519770,-341,457,404,982,-161,-353
6519786,-326,457,416,983,-156,-339
6519803,-328,457,413,969,-161,-341
6519835,-311,457,416,929,-173,-335
6519853,-318,460,416,904,-190,-341
6519869,-289,457,415,901,-208,-336
6519886,-301,453,417,895,-212,-331
6519902,-280,387,418,902,-217,-324
6519920,-275,386,418,902,-232,-328
6519952,-284,365,420,928,-251,-329
6519969,-291,366,421,913,-267,-325
6519986,-289,375,419,915,-282,-331
6520002,-295,381,420,901,-297,-326
6520019,-295,380,419,891,-302,-332
6520036,-284,366,419,874,-286,-323
6520068,-288,365,426,849,-303,-318
6520085,-294,369,421,846,-308,-321
6520102,-290,365,427,840,-317,-314
6520119,-295,364,428,839,-316,-322
6520136,-291,363,425,832,-314,-321
6520152,-293,363,444,830,-322,-317
6520184,-281,363,444,816,-323,-324
6520202,-278,365,442,812,-313,-319
6520219,-272,366,443,808,-326,-329
6520235,-259,367,444,812,-311,-306
6520252,-287,367,446,805,-327,-328
6520269,-284,363,445,807,-320,-322
6520301,-255,363,446,810,-295,-296
6520319,-200,363,444,805,-305,-261
6520335,-130,362,453,805,-328,-261
6520352,-104,368,448,804,-358,-261
6520368,-91,365,450,788,-391,-291
6520385,-143,364,447,811,-417,-303
6520417,-223,357,445,806,-418,-333
6520435,-241,357,448,796,-422,-335
6520450,-259,350,450,793,-420,-337
6520468,-270,331,445,785,-431,-339
6520485,-289,354,450,776,-431,-357
6520501,-295,336,446,773,-423,-344
6520533,-295,353,452,750,-439,-323
6520550,-300,364,445,749,-365,-335
6520568,-232,354,468,752,-347,-298
6520585,-285,366,441,735,-316,-320
6520601,-230,361,473,741,-310,-299
6520618,-307,405,447,716,-209,-329
6520650,-314,429,453,718,-46,-327
6520667,-319,408,449,693,69,-338
6520684,-287,434,447,693,167,-309
6520701,-319,455,444,684,220,-333
6520718,-291,472,450,690,266,-306
6520734,-343,513,439,683,288,-333
6520766,-356,518,432,674,364,-344
6520784,-273,511,440,670,343,-298
6520800,-258,500,475,693,351,-278
6520817,-311,521,441,668,419,-341
6520834,-302,530,450,672,416,-334
6520850,-290,540,447,674,420,-317
6520883,-242,526,451,684,475,-326
6520901,-262,568,463,692,457,-303
6520916,-277,530,442,672,476,-332
6520934,-263,554,451,692,466,-278
6520950,-223,544,445,683,603,-309
6520967,-214,555,450,694,436,-294
6520999,-251,570,443,754,504,-317
6521017,-244,568,441,763,507,-322
6521034,-227,575,437,779,476,-310
6521050,-211,564,447,783,486,-300
6521067,-209,567,439,787,453,-306
6521084,-185,541,451,814,455,-299
6521115,-161,515,450,842,422,-287
6521133,-143,478,448,858,396,-272
6521149,-128,481,450,872,331,-277
6521167,-120,452,457,877,206,-272
6521183,-121,436,456,882,111,-269
6521200,-95,423,464,908,56,-263
6521232,-93,415,459,918,-30,-258
6521250,-86,417,465,931,-71,-264
6521267,-61,400,467,804,-69,-269
6521283,-65,394,468,778,-107,-267
6521300,-61,393,466,778,-127,-262
6521317,-86,393,464,780,-149,-288
6521349,-128,398,463,777,-176,-305
6521366,-122,396,450,793,-170,-312
6521383,-132,397,466,796,-200,-328
6521399,-138,394,451,799,-190,-326
6521416,-157,386,453,812,-216,-326
6521433,-152,393,458,790,-223,-326
6521464,-117,399,460,799,-266,-336
6521482,-140,396,451,809,-281,-341
6521498,-159,388,449,807,-284,-344
6521516,-150,390,452,796,-290,-349
6521532,-181,378,446,799,-318,-355
6521548,-180,383,452,807,-309,-360
6521582,-192,366,447,797,-352,-383
6521599,-219,364,444,794,-353,-389
6521615,-234,363,441,801,-369,-381
6521632,-239,358,440,801,-392,-395
6521649,-253,355,433,794,-383,-385
6521665,-256,355,438,797,-348,-369
6521697,-260,344,438,789,-344,-382
6521715,-263,340,429,783,-360,-366
6521732,-270,272,428,780,-345,-373
6521748,-276,230,428,784,-349,-383
6521765,-266,261,429,782,-354,-386
6521782,-281,218,430,779,-355,-386
6521814,-260,121,429,780,-323,-364
6521832,-264,123,420,781,-326,-383
6521848,-264,129,434,777,-356,-389
6521865,-260,140,425,775,-358,-395
6521881,-266,149,425,763,-373,-397
6521898,-249,141,433,772,-352,-385
6521930,-246,159,422,763,-319,-396
6521947,-223,155,437,757,-316,-392
6521965,-239,157,425,749,-278,-397
6521981,-207,153,434,752,-260,-381
6521998,-187,161,428,754,-146,-386
6522015,-161,156,434,759,-205,-369
6522047,-194,383,435,747,-95,-398
6522064,-221,401,416,749,-90,-395
6522080,-187,397,420,747,-37,-383
6522097,-216,422,415,744,101,-402
6522114,-196,444,416,738,179,-389
6522131,-216,445,411,719,247,-400
6522163,-252,442,398,720,375,-402
6522181,-230,458,402,726,376,-403
6522198,-227,468,404,724,447,-384
6522213,-257,527,389,724,442,-400
6522231,-207,517,399,717,469,-378
6522247,-186,510,394,722,450,-363
6522279,-159,526,399,718,441,-361
6522296,-197,532,392,717,451,-362
6522313,-131,532,398,718,473,-343
6522330,-169,528,393,716,422,-356
6522346,-106,529,415,719,390,-344
6522363,-161,528,396,717,444,-359
6522396,-131,569,403,719,351,-344
6522414,-116,560,396,718,346,-353
6522430,-131,571,396,717,352,-354
6522447,-113,558,397,719,339,-346
6522464,-118,584,392,717,339,-349
6522479,-90,568,394,717,329,-352
6522512,-123,564,408,720,299,-350
6522530,-166,566,392,713,326,-390
6522546,-115,562,405,720,356,-359
6522563,-121,560,393,720,276,-356
6522580,-148,556,388,717,321,-389
6522597,-116,534,397,720,292,-362
6522629,-94,531,393,725,248,-367
6522647,-63,526,409,743,168,-337
6522664,-34,500,404,747,108,-342
6522681,-6,489,402,749,52,-323
6522697,-4,467,405,751,-23,-326
6522714,37,458,414,751,-65,-299
6522745,44,447,411,750,-133,-308
6522762,70,438,415,753,-163,-297
6522779,89,445,415,763,-174,-296
6522796,79,434,417,769,-196,-295
6522813,73,426,414,775,-213,-297
6522829,68,418,415,776,-180,-288
6522861,70,418,417,779,-193,-294
6522878,28,410,416,776,-228,-295
6522895,33,396,420,780,-270,-306
6522912,30,396,418,781,-267,-289
6522929,30,404,417,780,-307,-308
6522946,-5,405,417,782,-331,-302
6522978,-16,421,416,784,-374,-307
6522994,-22,425,421,782,-387,-314
6523011,-30,410,417,783,-398,-307
6523028,-34,410,418,784,-413,-317
6523045,-41,411,420,780,-419,-321
6523062,-27,410,419,784,-424,-322
6523094,-47,397,422,780,-355,-307
6523112,-51,399,417,782,-349,-311
6523128,-61,397,422,781,-366,-324
6523144,-57,397,424,781,-359,-318
6523161,-61,398,427,778,-389,-325
6523178,-61,398,427,778,-393,-327
6523211,-58,398,426,774,-388,-318
6523228,-69,395,425,768,-419,-326
6523244,-62,413,429,759,-408,-324
6523262,-63,411,431,760,-424,-328
6523279,-87,413,438,750,-441,-324
6523295,-89,411,426,760,-434,-310
6523327,-87,414,435,751,-444,-308
6523345,-66,409,439,751,-418,-304
6523361,-49,421,434,741,-439,-302
6523378,-27,440,444,720,-478,-299
6523395,11,473,443,711,-519,-288
6523411,-6,465,447,716,-516,-297
6523443,-5,455,445,712,-486,-290
6523460,13,459,452,716,-475,-293
6523476,3,457,445,713,-418,-287
6523494,7,458,444,721,-446,-277
6523511,5,470,451,729,-406,-257
6523528,38,488,449,745,-405,-258
6523560,17,487,443,748,-255,-264
6523578,31,476,446,751,-226,-260
6523594,32,467,444,748,-185,-256
6523611,32,478,447,759,-173,-251
6523628,42,473,451,771,-165,-253
6523645,-12,475,448,780,-86,-264
6523676,-29,479,445,782,-8,-239
6523693,-3,470,444,780,25,-231
6523709,-25,478,447,774,16,-232
6523727,-32,477,444,763,-20,-233
6523744,-27,486,448,745,44,-231
6523761,-32,474,444,739,-9,-232
6523793,-37,491,451,715,-24,-230
6523810,-26,488,441,703,92,-229
6523826,-30,508,448,694,23,-233
6523844,-34,495,455,685,29,-233
6523860,-36,530,447,686,15,-232
6523877,-34,525,455,685,5,-232
6523909,-29,534,459,689,30,-230
6523927,-31,543,451,686,71,-228
6523943,-37,565,452,687,56,-254
6523960,-23,565,461,686,99,-226
6523975,-5,575,453,685,123,-233
6523993,1,564,462,684,95,-231
6524025,-28,596,454,682,183,-255
6524042,-22,579,458,686,177,-240
6524059,-63,595,453,681,287,-272
6524076,-38,599,454,686,323,-271
6524092,-44,607,443,689,334,-261
6524110,-29,607,455,711,338,-258
6524141,3,600,456,719,285,-233
6524158,-3,589,467,725,240,-233
6524176,4,583,468,720,208,-233
6524193,2,579,475,722,121,-234
6524209,2,575,472,720,104,-231
6524226,31,566,475,720,34,-227
6524259,31,566,471,720,34,-227
6524276,31,566,471,720,34,-227
6524292,31,566,471,720,34,-227
6524309,31,566,471,720,34,-227
6524326,31,566,471,720,34,-227
6524357,31,566,471,720,34,-227
6524375,31,566,471,720,34,-227
6524393,31,566,471,720,34,-227
6524409,31,566,471,720,34,-227
6524425,31,566,471,720,34,-227
6524442,31,566,471,720,34,-227
6524459,31,566,471,720,34,-227
6524476,31,566,471,720,34,-227
6524507,31,566,471,720,34,-227
6524525,31,566,471,720,34,-227
6524541,31,566,471,720,34,-227
6524559,31,566,471,720,34,-227
6524575,31,566,471,720,34,-227
6524591,31,566,471,720,34,-227
6524623,31,566,471,720,34,-227
6524641,31,566,471,720,34,-227
6524658,31,566,471,720,34,-227
6524674,31,566,471,720,34,-227
6524692,31,566,471,720,34,-227
6524709,31,566,471,720,34,-227
6524740,31,566,471,720,34,-227
6524758,31,566,471,720,34,-227
6524775,37,533,480,722,-40,-213
6524791,82,494,486,688,-193,-193
6524808,57,467,497,653,-356,-202
6524824,58,470,505,659,-381,-171
6524857,-28,490,507,694,-508,-261
6524874,-89,477,517,683,-533,-226
6524890,-92,477,510,683,-548,-251
6524907,-123,473,518,661,-553,-252
6524924,-112,477,517,662,-565,-248
6524941,-130,485,509,664,-566,-238
6524973,-121,499,515,657,-560,-241
6524990,-140,491,516,654,-575,-245
6525007,-142,490,515,653,-555,-230
6525024,-142,498,515,655,-570,-234
6525040,-132,500,522,650,-570,-231
6525057,-125,484,519,656,-569,-234
6525089,-121,488,534,637,-561,-231
6525106,-123,500,528,627,-566,-238
6525124,-120,497,525,625,-564,-231
6525140,-125,496,525,628,-556,-232
6525157,-122,496,530,625,-552,-229
6525173,-126,496,531,625,-521,-231
6525205,-97,500,531,621,-548,-227
6525222,-110,499,532,620,-512,-235
6525239,-108,496,531,625,-440,-213
6525256,-105,497,530,608,-435,-223
6525273,-98,508,537,600,-414,-218
6525289,-99,500,528,604,-337,-234
6525322,-105,503,530,596,-246,-231
6525340,-95,522,529,600,-255,-232
6525356,-99,532,533,602,-167,-242
6525372,-87,532,534,610,-140,-235
6525390,-93,529,531,607,-92,-233
6525406,-74,554,528,618,-102,-230
6525439,-99,565,521,623,-34,-227
6525456,-74,564,524,624,-54,-213
6525473,-98,568,516,620,-64,-218
6525489,-60,570,525,625,-72,-223
6525506,-105,599,524,631,-70,-237
6525523,-69,560,524,626,-19,-229
6525554,-97,588,517,638,-21,-227
6525572,-72,590,524,655,-39,-211
6525589,-69,597,526,651,-48,-207
6525606,-66,591,518,654,-34,-211
6525622,-57,595,535,652,-49,-200
6525639,-73,595,531,655,-74,-219
6525671,-71,589,530,660,-31,-204
6525688,-62,592,526,679,-41,-207
6525705,-53,574,536,685,-42,-210
6525722,-64,572,519,681,-25,-205
6525739,-77,583,528,685,-29,-219
6525756,-59,573,529,686,-37,-196
6525788,-61,565,518,685,-18,-214
6525805,-60,570,530,691,-14,-214
6525821,-77,589,527,688,-16,-214
6525838,-61,596,532,692,-6,-228
6525855,-107,593,510,689,40,-246
6525872,-59,580,525,704,67,-213
6525904,-78,601,514,693,107,-229
6525921,-85,602,519,715,166,-231
6525938,-74,605,509,711,136,-232
6525954,-57,600,517,718,77,-207
6525972,-62,601,517,716,136,-231
6525988,-53,618,519,717,114,-231
6526020,-41,609,516,719,41,-212
6526038,-36,601,509,718,75,-218
6526054,-27,603,509,719,35,-194
6526071,-40,617,514,724,71,-206
6526088,-39,621,516,722,-17,-189
6526105,-25,614,513,729,31,-191
6526136,152,633,511,736,79,-113
6526153,206,647,517,729,22,-89
6526171,275,666,524,735,51,-85
6526187,267,668,514,734,43,-106
6526204,164,657,515,750,3,-174
6526221,140,646,514,741,8,-192
6526253,40,637,506,747,-46,-206
6526271,18,630,510,746,-63,-209
6526288,-11,634,506,745,-36,-232
6526304,-9,633,510,749,-75,-213
6526321,-53,621,511,745,-113,-222
6526337,-74,633,505,748,-51,-227
6526371,-70,610,511,747,-62,-222
6526389,-85,624,515,753,-156,-204
6526404,-88,605,510,749,-70,-222
6526422,-111,640,520,747,-164,-217
6526438,-97,602,520,751,-147,-230
6526454,-154,626,514,747,-117,-230
6526472,-132,630,509,749,-162,-214
6526502,-167,638,509,749,-155,-224
6526520,-153,614,515,749,-180,-219
6526537,-135,631,526,750,-244,-201
6526554,-157,604,516,749,-168,-239
6526570,-141,622,516,749,-180,-205
6526587,-149,606,536,751,-242,-194
6526619,-159,609,542,753,-218,-216
6526637,-195,608,512,748,-201,-222
6526653,-127,620,529,748,-203,-180
6526670,3,616,516,750,-144,-94
6526686,134,628,523,751,-73,-23
6526703,170,623,514,750,-66,-22
6526735,107,627,513,746,-85,-112
6526753,67,629,533,748,-171,-166
6526770,-16,597,528,749,-199,-189
6526786,-51,603,529,749,-258,-218
6526802,-120,577,530,733,-243,-238
6526820,-146,576,534,733,-265,-234
6526852,-187,564,535,751,-322,-222
6526869,-216,570,535,747,-303,-235
6526886,-206,560,536,755,-336,-227
6526902,-229,564,532,746,-342,-220
6526919,-218,551,532,744,-346,-224
6526936,-209,565,535,747,-327,-202
6526968,33,594,532,753,-222,-51
6526986,131,581,531,769,-167,-36
6527003,123,572,534,756,-169,-65
6527019,48,566,532,750,-232,-130
6527036,-26,563,532,713,-262,-191
6527053,-106,554,535,693,-306,-215
6527085,-181,541,532,637,-374,-252
6527102,-188,534,536,612,-398,-251
6527119,-218,535,537,593,-371,-230
6527137,-226,534,531,575,-383,-233
6527155,-221,540,531,559,-413,-229
6527171,-226,508,537,558,-383,-232
6527201,-241,499,530,560,-419,-224
6527219,-201,534,533,545,-386,-180
6527235,-95,536,533,560,-341,-84
6527251,78,521,533,568,-270,-27
6527268,112,543,534,577,-177,1
6527285,103,535,532,591,-191,-32
6527317,-42,535,533,596,-238,-140
6527334,-99,508,534,614,-311,-198
6527352,-134,510,538,625,-388,-216
6527368,-201,490,540,624,-394,-225
6527385,-209,495,538,627,-392,-232
6527403,-220,486,539,625,-384,-227
6527434,-228,477,541,610,-403,-197
6527452,-209,474,550,595,-404,-184
6527469,-225,477,544,576,-385,-200
6527485,-211,480,547,572,-386,-176
6527501,-234,472,539,583,-377,-194
6527518,-213,491,545,577,-378,-166
6527550,-15,500,541,548,-259,-27
6527568,105,502,548,549,-181,15
6527585,137,506,538,542,-197,4
6527601,100,500,547,533,-228,-61
6527618,26,498,543,526,-242,-117
6527634,-38,481,545,535,-369,-166
6527666,-131,491,554,525,-392,-200
6527684,-166,480,547,516,-381,-204
6527701,-177,474,557,531,-423,-202
6527718,-176,474,549,517,-396,-206
6527734,-187,475,547,524,-428,-200
6527751,-200,469,549,528,-391,-213
6527784,-204,456,547,531,-440,-213
6527801,-201,471,551,541,-419,-191
6527818,-212,457,548,541,-434,-206
6527834,-231,456,550,549,-406,-200
6527851,-206,465,546,564,-398,-178
6527867,-106,471,548,574,-346,-112
6527899,104,499,550,593,-278,-55
6527916,31,474,549,592,-337,-127
6527934,-54,468,554,592,-341,-164
6527951,-91,468,564,601,-393,-177
6527967,-154,457,544,602,-373,-196
6527984,-168,472,554,616,-411,-201
6528016,-182,460,550,621,-404,-191
6528033,-187,442,548,623,-401,-188
6528050,-204,443,562,626,-435,-200
6528066,-203,440,558,626,-393,-195
6528083,-205,449,550,616,-416,-190
6528100,-195,443,566,612,-415,-177
6528132,-217,439,552,591,-333,-158
6528149,-220,441,553,574,-368,-172
6528166,-218,436,553,567,-360,-175
6528183,-208,432,554,560,-338,-176
6528200,-173,448,551,541,-331,-147
6528216,-59,441,549,535,-246,-68
6528249,140,464,546,514,-177,-5
6528266,112,450,557,508,-225,-51
6528282,28,458,552,494,-276,-134
6528300,-48,437,547,478,-307,-159
6528316,-119,444,553,479,-362,-162
6528333,-147,443,553,471,-360,-166
6528365,-193,442,553,453,-351,-177
6528382,-186,427,555,454,-395,-161
6528399,-187,428,554,451,-356,-166
6528417,-188,429,555,441,-357,-159
6528432,-194,425,563,443,-363,-160
6528450,-187,426,551,444,-368,-160
6528481,-184,425,558,433,-340,-160
6528499,-191,426,553,429,-346,-138
6528516,-199,426,552,424,-347,-136
6528531,-190,426,551,414,-325,-129
6528549,-189,426,553,415,-290,-128
6528566,-87,443,549,398,-204,-28
6528598,159,472,558,387,-134,37
6528615,138,461,549,386,-139,-4
6528632,83,444,552,382,-146,-62
6528648,3,436,552,386,-191,-127
6528665,-60,437,557,377,-268,-171
6528681,-99,445,543,369,-294,-186
6528714,-160,434,561,362,-313,-186
6528731,-169,426,554,365,-301,-191
6528747,-175,424,557,367,-324,-171
6528765,-194,415,547,362,-315,-184
6528782,-181,430,551,366,-324,-191
6528798,-199,420,552,362,-325,-156
6528830,-196,416,562,368,-353,-163
6528848,-206,407,555,376,-359,-156
6528865,-202,417,552,377,-351,-130
6528882,-168,409,548,374,-318,-100
6528898,-48,424,543,371,-234,-26
6528915,74,433,542,381,-175,37
6528947,142,445,549,386,-259,-20
6528963,78,440,552,385,-350,-91
6528981,-19,427,557,404,-361,-144
6528998,-69,426,545,393,-368,-152
6529015,-124,426,554,411,-386,-166
6529031,-153,425,547,416,-383,-164
6529063,-186,413,552,433,-411,-158
6529080,-193,412,564,444,-409,-155
6529097,-184,412,558,444,-410,-145
6529114,-202,412,552,452,-397,-131
6529131,-198,412,548,464,-412,-134
6529147,-163,416,548,472,-380,-113
6529180,-90,426,550,491,-379,-94
6529197,-130,428,554,506,-398,-104
6529214,-87,448,562,512,-354,-61
6529232,91,442,550,533,-242,68
6529248,117,448,549,533,-149,71
6529264,69,425,533,542,-136,27
6529296,-53,411,536,562,-213,-92
6529314,-86,395,539,565,-257,-120
6529330,-146,411,535,572,-309,-124
6529348,-179,394,539,594,-306,-132
6529363,-208,396,536,593,-329,-137
6529381,-233,395,537,601,-333,-149
6529412,-257,386,532,618,-354,-127
6529430,-261,390,535,618,-378,-129
6529446,-260,388,532,624,-361,-124
6529464,-258,395,531,625,-363,-128
6529480,-269,395,532,660,-350,-123
6529497,-186,401,533,652,-286,-64
6529529,66,411,528,660,-144,74
6529546,78,415,530,672,-175,9
6529562,46,420,531,675,-226,-30
6529595,-74,412,526,683,-288,-121
6529613,-100,396,518,686,-326,-131
6529645,-173,393,531,706,-363,-153
6529662,-201,398,533,715,-360,-172
6529678,-229,397,537,717,-393,-163
6529697,-239,398,529,717,-382,-156
6529712,-229,397,526,734,-392,-153
6529730,-239,391,530,742,-320,-122
6529761,-268,387,525,751,-254,-126
6529778,-280,389,516,751,-277,-130
6529795,-290,379,519,752,-261,-120
6529812,-292,381,520,755,-264,-126
6529830,-262,380,519,772,-228,-86
6529845,-135,391,524,775,-151,-14
6529878,46,409,511,781,-18,71
6529895,8,401,522,790,-67,-12
6529911,-52,396,504,796,-82,-36
6529929,-113,394,518,803,-136,-102
6529946,-162,397,515,807,-201,-118
6529962,-194,397,520,813,-248,-128
6529994,-254,378,523,812,-299,-150
6530012,-301,398,522,814,-330,-144
6530028,-306,396,519,811,-338,-131
6530046,-303,397,531,827,-345,-128
6530062,-329,392,509,822,-351,-134
6530079,-319,386,523,837,-326,-130
6530144,12,440,528,842,-327,-54
6530162,-63,440,526,842,-438,-96
6530178,-94,431,522,842,-493,-133
6530195,-165,424,519,849,-450,-127
6530212,-183,421,518,851,-499,-167
6530229,-223,412,519,850,-508,-154
6530261,-248,417,521,850,-509,-166
6530278,-275,416,513,856,-531,-174
6530295,-287,400,519,855,-508,-159
6530311,-294,398,509,850,-509,-162
6530328,-222,415,519,856,-476,-104
6530345,-98,421,519,858,-393,-25
6530377,74,445,519,861,-320,18
6530394,64,441,514,867,-350,-1
6530411,-11,434,522,871,-369,-77
6530428,-81,426,517,870,-403,-128
6530445,-145,416,519,870,-392,-131
6530461,-184,417,515,870,-419,-158
6530493,-243,402,520,868,-446,-162
6530511,-259,396,515,872,-465,-167
6530528,-264,393,511,871,-422,-144
6530544,-149,413,504,871,-361,-54
6530561,-10,422,512,869,-299,21
6530578,10,418,506,872,-241,10
6530610,-36,394,503,871,-150,-16
6530627,-88,386,504,872,-151,-53
6530643,-150,373,506,874,-172,-95
6530661,-192,383,506,872,-266,-128
6530677,-234,380,507,862,-307,-159
6530694,-255,380,509,858,-330,-157
6530726,-287,364,511,851,-356,-161
6530744,-307,367,519,843,-339,-162
6530759,-313,364,513,841,-365,-161
6530778,-325,362,510,840,-381,-162
6530794,-320,380,518,826,-358,-150
6530811,-303,378,508,819,-364,-149
6530842,-306,378,518,814,-354,-136
6530860,-269,382,504,814,-316,-106
6530877,-179,391,513,809,-252,-46
6530893,-24,397,507,809,-150,77
6530910,35,398,507,809,-124,62
6530926,66,396,506,808,-170,18
6530959,-64,385,504,788,-183,-63
6530977,-106,383,509,793,-239,-93
6530993,-141,392,517,798,-288,-132
6531010,-187,384,513,791,-341,-135
6531027,-226,386,511,777,-339,-171
6531043,-257,383,512,785,-374,-153
6531075,-291,383,507,782,-382,-155
6531091,-297,383,514,781,-400,-161
6531108,-315,384,511,779,-395,-157
6531126,-309,381,511,781,-398,-161
6531143,-322,382,509,781,-399,-137
6531160,-303,367,507,782,-376,-128
6531192,-131,391,506,782,-207,-3
6531209,29,397,508,778,-213,39
6531226,77,413,514,782,-271,19
6531243,52,424,510,780,-299,-28
6531259,12,414,518,782,-393,-75
6531276,-76,410,508,780,-345,-97
6531308,-167,391,511,782,-421,-139
6531326,-223,391,524,788,-427,-159
6531342,-235,391,519,779,-457,-168
6531359,-258,405,516,797,-444,-167
6531375,-259,414,526,802,-462,-153
6531392,-283,396,516,783,-460,-160
6531424,-309,397,517,782,-474,-166
6531442,-303,395,517,783,-480,-147
6531458,-222,395,505,778,-385,-47
6531475,-24,414,525,796,-311,36
6531492,-1,414,508,790,-289,12
6531509,11,396,510,807,-290,12
6531541,-60,394,511,809,-270,-63
6531559,-119,396,511,805,-313,-101
6531575,-189,387,511,807,-357,-124
6531592,-252,385,510,811,-387,-161
6531609,-273,384,522,812,-399,-157
6531625,-302,384,512,812,-413,-173
6531657,-319,399,517,815,-426,-160
6531674,-352,394,508,809,-426,-158
6531692,-352,385,514,809,-438,-160
6531708,-355,387,512,823,-430,-163
6531725,-324,385,520,830,-392,-126
6531741,-300,396,511,842,-380,-130
6531773,-236,398,508,838,-330,-75
6531790,-137,401,505,833,-283,5
6531807,-53,381,507,822,-215,39
6531824,3,352,509,809,-235,23
6531840,-33,354,509,809,-224,-17
6531858,-94,350,511,799,-261,-73
6531890,-193,349,511,781,-326,-133
6531908,-212,349,511,783,-347,-126
6531924,-253,349,510,776,-357,-136
6531941,-278,331,517,777,-379,-136
6531957,-294,335,512,761,-392,-152
6531974,-297,321,512,759,-403,-149
6532007,-329,325,517,749,-418,-153
6532024,-352,325,516,769,-427,-157
6532041,-358,325,509,759,-434,-151
6532058,-370,326,514,763,-430,-159
6532074,-360,326,509,769,-430,-133
6532091,-361,337,507,775,-422,-130
6532122,-362,336,505,780,-422,-128
6532139,-355,335,508,784,-421,-126
6532156,-359,336,506,789,-395,-130
6532189,-360,337,502,812,-400,-127
6532207,-363,324,508,814,-387,-132
6532240,-357,328,505,838,-397,-127
6532257,-357,327,506,836,-381,-121
6532274,-351,327,505,845,-391,-120
6532290,-351,331,507,839,-384,-121
6532307,-340,334,504,844,-391,-121
6532324,-337,336,508,844,-383,-121
6532356,-337,331,503,864,-388,-120
6532373,-336,334,506,857,-379,-120
6532390,-337,335,505,865,-362,-119
6532407,-346,324,504,865,-378,-123
6532423,-330,324,505,865,-370,-119
6532440,-327,325,504,865,-369,-121
6532472,-326,326,505,871,-376,-126
6532490,-332,325,505,881,-380,-123
6532506,-328,325,510,876,-386,-118
6532523,-320,325,506,877,-378,-115
6532539,-315,329,509,882,-379,-121
6532556,-309,332,505,879,-364,-94
6532588,-314,330,508,883,-387,-92
6532605,-329,353,506,881,-386,-96
6532623,-333,394,504,878,-398,-109
6532639,-331,395,505,876,-388,-95
6532656,-327,395,507,876,-382,-104
6532673,-319,385,504,877,-372,-88
6532705,-315,385,506,876,-374,-115
6532723,-312,383,503,878,-369,-107
6532739,-306,389,504,876,-378,-99
6532756,-302,392,504,876,-363,-95
6532772,-289,398,509,881,-368,-128
6532789,-297,385,506,878,-367,-125
6532821,-292,381,507,879,-361,-112
6532839,-298,384,506,875,-372,-119
6532854,-290,382,506,876,-361,-106
6532871,-282,380,503,875,-357,-101
6532889,-295,385,503,880,-356,-95
6532905,-292,379,502,882,-353,-130
6532937,-291,378,504,878,-357,-121
6532954,-297,372,503,882,-351,-130
6532971,-283,383,501,879,-354,-100
6532989,-294,380,500,889,-353,-107
6533005,-295,380,502,889,-353,-101
6533022,-295,362,496,879,-349,-93
6533054,-294,374,501,896,-340,-114
6533071,-284,373,498,888,-334,-97
6533089,-290,366,501,898,-348,-101
6533105,-289,374,499,894,-342,-109
6533122,-291,378,499,895,-344,-122
6533138,-304,378,499,900,-355,-126
6533170,-294,388,508,901,-352,-130
6533188,-294,387,506,902,-354,-130
6533205,-294,387,502,904,-353,-123
6533221,-281,380,502,900,-353,-123
6533238,-272,381,503,904,-357,-127
6533255,-279,382,501,905,-349,-110
6533286,-275,384,505,909,-351,-126
6533303,-274,384,502,912,-348,-124
6533320,-284,383,503,912,-357,-129
6533338,-277,391,500,913,-351,-122
6533354,-275,387,503,916,-356,-122
6533371,-290,387,499,921,-352,-106
6533403,-277,396,500,921,-337,-109
6533420,-272,396,500,921,-348,-93
6533437,-269,398,503,937,-342,-103
6533454,-269,391,502,932,-347,-111
6533471,-279,394,501,932,-364,-122
6533487,-278,393,503,939,-355,-99
6533519,-274,395,502,938,-353,-105
6533537,-267,385,503,949,-355,-99
6533553,-266,382,504,949,-351,-98
6533571,-263,389,502,946,-351,-98
6533587,-269,386,501,943,-346,-100
6533604,-233,389,506,950,-333,-65
6533636,-67,409,495,953,-240,32
6533654,37,415,498,952,-163,74
6533670,71,417,498,953,-138,67
6533687,67,411,502,953,-130,69
6533703,-3,392,497,957,-120,-2
6533720,-42,395,502,957,-167,-35
6533752,-126,402,504,965,-280,-104
6533769,-139,406,505,965,-313,-104
6533785,-177,399,501,965,-320,-115
6533804,-202,393,505,973,-338,-130
6533820,-226,384,504,967,-345,-130
6533836,-228,395,507,974,-339,-158
6533869,-264,386,508,975,-352,-161
6533886,-275,382,503,978,-358,-156
6533903,-266,391,510,977,-366,-158
6533920,-283,389,507,977,-369,-160
6533937,-276,399,510,980,-364,-163
6533953,-274,388,508,981,-374,-155
6533985,-260,388,510,981,-368,-157
6534003,-264,388,508,983,-360,-158
6534019,-257,399,508,986,-362,-158
6534036,-272,396,508,984,-357,-157
6534053,-262,386,510,989,-368,-157
6534069,-276,388,510,989,-367,-158
6534101,-277,383,510,1002,-375,-161
6534119,-279,381,507,996,-376,-163
6534135,-272,398,512,989,-380,-160
6534153,-274,393,506,994,-376,-161
6534169,-276,396,507,986,-372,-158
6534186,-272,382,510,997,-372,-171
6534217,-283,384,504,986,-390,-165
6534235,-276,380,509,995,-390,-135
6534252,-266,390,509,994,-374,-144
6534269,-263,392,514,1001,-392,-158
6534285,-258,389,507,996,-369,-162
6534302,-263,389,508,1001,-380,-161
6534334,-251,393,510,992,-384,-159
6534351,-240,387,512,1005,-386,-136
6534368,-253,385,508,998,-384,-154
6534385,-257,384,506,990,-385,-160
6534402,-261,397,503,1010,-369,-144
6534418,-268,395,508,990,-392,-161
6534450,-243,397,506,999,-382,-146
6534467,-247,387,506,1001,-357,-124
6534484,-245,385,510,1006,-366,-140
6534501,-245,385,510,1006,-366,-140
6534518,-245,385,510,1006,-366,-140
6534535,-245,385,510,1006,-366,-140
6534567,-245,385,510,1006,-366,-140
6534585,-245,385,510,1006,-366,-140
6534601,-245,385,510,1006,-366,-140
6534618,-245,385,510,1006,-366,-140
6534634,-245,385,510,1006,-366,-140
6534651,-245,385,510,1006,-366,-140
6534683,-245,385,510,1006,-366,-140
6534700,-245,385,510,1006,-366,-140
6534718,-245,385,510,1006,-366,-140
6534734,-245,385,510,1006,-366,-140
6534751,-245,385,510,1006,-366,-140
6534767,-245,385,510,1006,-366,-140
6534799,-245,385,510,1006,-366,-140
6534816,-245,385,510,1006,-366,-140
6534834,-245,385,510,1006,-366,-140
6534850,-245,385,510,1006,-366,-140
6534867,-245,385,510,1006,-366,-140
6534884,-245,385,510,1006,-366,-140
6534916,-245,385,510,1006,-366,-140
6534933,-245,385,510,1006,-366,-140
6534950,-245,385,510,1006,-366,-140
6534967,-245,385,510,1006,-366,-140
6534982,-245,385,510,1006,-366,-140
6535000,-245,385,510,1006,-366,-140
