TIME,AF3,F7,F3,F4,F8,AF4
2150261,149,975,632,986,3946,107
2150278,139,976,637,959,3304,103
2150294,129,968,636,963,3501,116
2150310,134,984,660,972,3438,147
2150328,121,975,651,975,3225,144
2150359,144,975,691,1004,2247,164
2150377,139,982,689,991,2137,159
2150394,153,982,691,1001,2224,156
2150410,144,983,700,986,2347,134
2150427,151,991,727,1004,2584,125
2150444,176,999,771,1039,2782,148
2150476,186,1006,782,1037,3079,147
2150493,197,1010,798,1063,3433,159
2150509,200,1002,800,1050,3410,140
2150527,215,1016,824,1065,3349,152
2150544,228,1011,821,1066,3331,155
2150561,221,1009,817,1038,3380,132
2150593,201,1005,858,1036,3491,119
2150610,219,1006,874,1055,3513,137
2150627,211,1015,890,1051,3511,154
2150643,234,999,894,1055,3495,140
2150660,236,1015,914,1045,3486,143
2150677,227,986,881,1026,3397,119
2150694,240,998,909,1028,3356,125
2150726,233,993,937,1022,3228,122
2150743,223,991,936,996,3181,114
2150761,255,995,965,1019,3142,122
2150777,260,994,976,1006,3099,110
2150793,278,994,995,1020,3061,126
2150810,261,999,988,999,3004,107
2150892,272,999,979,1030,2779,120
2150910,265,991,973,1018,2739,112
2150926,263,991,979,1026,2709,137
2150943,258,985,961,1006,2632,111
2150959,263,979,968,1008,2618,100
2150976,263,979,968,1008,2618,100
2151009,263,979,968,1008,2618,100
2151026,263,979,968,1008,2618,100
2151043,263,979,968,1008,2618,100
2151059,263,979,968,1008,2618,100
2151076,263,979,968,1008,2618,100
2151093,263,979,968,1008,2618,100
2151124,263,979,968,1008,2618,100
2151141,263,979,968,1008,2618,100
2151159,263,979,968,1008,2618,100
2151175,405,1043,1039,1035,2623,220
2151191,276,1007,934,1001,2254,95
2151208,198,971,875,923,2032,34
2151241,180,990,912,941,2010,61
2151259,201,1004,928,957,1990,71
2151275,201,1004,915,968,1947,60
2151292,206,997,925,986,1935,72
2151310,209,1014,912,978,1912,71
2151325,228,1038,950,997,1922,84
2151359,229,1042,939,987,1882,77
2151375,299,1094,1010,1043,1974,147
2151392,430,1158,1073,1081,2092,300
2151409,438,1218,1092,1079,2131,331
2151426,435,1259,1102,1092,2139,326
2151442,445,1296,1134,1109,2129,344
2151458,445,1296,1134,1109,2129,344
2151490,363,1359,1082,1054,1966,287
2151508,380,1394,1107,1082,1917,328
2151524,367,1397,1113,1084,1871,324
2151541,352,1427,1117,1080,1849,336
2151558,357,1438,1113,1089,1836,367
2151575,351,1442,1111,1071,1804,364
2151607,343,1482,1126,1067,1787,414
2151623,336,1497,1129,1072,1818,442
2151641,340,1513,1145,1076,1839,475
2151658,324,1516,1145,1083,1876,485
2151674,309,1517,1132,1101,2009,475
2151691,301,1557,1149,1119,2278,518
2151723,304,1570,1133,1117,2482,504
2151741,305,1563,1147,1119,2482,514
2151757,292,1566,1169,1105,2440,500
2151774,294,1556,1159,1097,2420,468
2151791,286,1547,1161,1074,2407,447
2151807,307,1556,1175,1097,2415,458
2151840,307,1576,1203,1108,2360,454
2151857,268,1558,1168,1068,2273,409
2151874,269,1563,1182,1073,2240,411
2151891,251,1558,1201,1085,2215,404
2151907,278,1583,1208,1092,2247,439
2151924,367,1613,1284,1151,2087,556
2151956,377,1618,1305,1157,-3833,563
2151974,337,1607,1287,1139,-6111,528
2151990,306,1608,1253,1110,-7110,440
2152007,270,1572,1236,1090,-7012,389
2152023,238,1564,1215,1079,-6940,370
2152040,240,1565,1195,1076,-6939,332
2152072,137,1528,1114,1023,-6939,247
2152090,123,1524,1115,1043,-6939,262
2152107,109,1526,1083,1015,-6939,252
2152123,106,1538,1084,1047,-6939,265
2152140,123,1536,1107,1064,-6939,278
2152157,148,1573,1116,1088,-6939,339
2152189,163,1622,1151,1131,-6939,410
2152206,172,1638,1145,1127,-6939,420
2152223,205,1635,1149,1121,-6939,428
2152240,250,1635,1174,1136,-6939,470
2152256,249,1639,1181,1150,-6939,505
2152273,265,1636,1166,1130,-6939,520
2152306,277,1638,1169,1128,-6939,521
2152323,300,1654,1196,1151,-6939,567
2152340,290,1658,1183,1141,-6939,541
2152356,294,1656,1174,1136,-6939,573
2152373,317,1665,1199,1152,-6939,590
2152390,305,1663,1190,1160,-6939,576
2152422,308,1653,1174,1141,-6939,555
2152439,303,1627,1145,1108,-6939,513
2152456,445,1624,1140,1104,-6939,494
2152472,398,1589,1103,1071,-6939,460
2152489,403,1585,1101,1054,-6939,443
2152506,382,1571,1103,1068,-6939,442
2152538,376,1565,1116,1053,-6939,418
2152556,391,1541,1119,1066,-6939,422
2152571,443,1555,1156,1082,-6939,473
2152588,501,1576,1180,1113,-6939,521
2152606,502,1595,1205,1101,-6939,533
2152622,433,1584,1181,1072,-6939,489
2152654,338,1537,1128,999,-6939,381
2152671,331,1535,1147,1024,-6939,393
2152689,302,1524,1142,1035,-6939,365
2152705,256,1523,1098,989,-6939,355
2152722,255,1530,1108,996,-6939,369
2152739,256,1529,1146,1005,-6939,375
2152771,255,1515,1218,1007,-6939,376
2152789,256,1507,1234,978,-6939,365
2152804,247,1495,1253,1001,-6939,357
2152822,251,1500,1270,983,-6939,355
2152838,228,1491,1279,1006,-6939,335
2152855,239,1499,1293,1006,-6939,327
2152887,216,1483,1282,996,-6945,307
2152905,208,1468,1281,1004,-6918,291
2152921,205,1459,1270,981,-6872,300
2152937,187,1454,1255,988,-6807,285
2152955,174,1450,1262,976,-6744,263
2152971,146,1433,1208,920,-6701,237
2153004,134,1435,1222,959,-6546,265
2153021,123,1439,1215,956,-6472,254
2153038,124,1435,1213,947,-6341,265
2153055,163,1465,1250,989,-6334,335
2153071,213,1494,1303,1026,-6477,398
2153088,261,1507,1290,1019,-6560,449
2153120,169,1496,1263,987,-5791,398
2153137,139,1501,1235,971,-3892,375
2153153,119,1511,1229,967,-2808,347
2153171,97,1512,1205,962,-1331,337
2153187,104,1506,1214,975,-736,321
2153205,77,1533,1198,957,-374,302
2153236,65,1521,1182,952,-399,267
2153254,44,1507,1177,958,-491,242
2153270,45,1500,1173,961,-399,236
2153286,14,1492,1151,946,-167,214
2153304,-1,1481,1121,936,40,181
2153321,-23,1467,1107,937,137,169
2153353,-78,1414,1070,898,-163,82
2153370,-76,1378,1067,907,302,72
2153387,-129,1349,1048,882,1087,27
2153404,-120,1327,1047,873,940,7
2153420,-139,1307,1027,848,782,-30
2153437,-142,1292,1026,850,162,-43
2153469,-171,1251,1015,815,-1089,-90
2153487,-186,1233,1007,801,-1706,-143
2153503,-189,1231,1028,794,-2243,-145
2153520,-216,1222,1038,791,-2716,-170
2153537,-225,1226,1047,786,-3032,-170
2153554,-218,1230,1067,808,-3263,-154
2153586,-289,1210,1064,778,-3629,-206
2153603,-328,1195,1063,764,-3556,-227
2153620,-356,1195,1082,753,-3459,-242
2153636,-362,1172,1102,775,-3465,-242
2153653,-366,1168,1098,756,-3453,-247
2153670,-378,1163,1103,757,-3443,-249
2153702,-297,1184,1153,780,-3356,-190
2153720,-249,1192,1199,817,-3276,-130
2153735,-174,1200,1229,849,-3209,-36
2153752,-217,1174,1214,804,-3377,-90
2153769,-291,1151,1171,766,-3327,-167
2153786,-319,1115,1160,765,-3363,-212
2153818,-402,1066,1093,713,-3778,-351
2153835,-405,1045,1088,724,-3855,-362
2153853,-439,1031,1044,710,-3918,-422
2153869,-432,1018,1041,717,-3847,-445
2153886,-446,1012,1020,709,-4007,-433
2153903,-437,1002,1038,722,-4434,-430
2153935,-431,1015,1047,769,-4244,-366
2153953,-443,1001,1001,726,-4233,-401
2153968,-437,1004,1018,735,-3951,-399
2153986,-425,978,1002,709,-3877,-405
2154002,-408,927,1005,722,-4270,-401
2154019,-398,903,1007,708,-5044,-419
2154051,-384,881,1012,687,-5929,-435
2154069,-369,864,1006,686,-6386,-441
2154086,-344,840,1017,692,-6712,-417
2154101,-329,822,999,688,-6792,-445
2154119,-319,813,1008,696,-6793,-431
2154135,-308,813,1037,706,-6801,-422
2154167,-292,814,1061,718,-6862,-405
2154184,-262,816,1073,746,-6837,-405
2154201,-231,810,1062,718,-6788,-446
2154219,-187,793,1104,754,-6803,-419
2154234,-185,770,1088,737,-6802,-438
2154252,-165,805,1122,750,-6784,-429
2154284,-139,919,1159,775,-6791,-428
2154301,-113,953,1168,793,-6233,-460
2154317,-94,977,1172,778,-4563,-481
2154334,-10,1001,1182,803,-3211,-444
2154352,101,1030,1246,837,-3301,-392
2154368,194,1048,1316,896,-3418,-278
2154401,201,1068,1357,900,-3366,-350
2154418,198,1067,1372,906,-2500,-368
2154435,173,1057,1358,884,37,-401
2154451,177,1038,1375,883,3256,-418
2154468,158,1040,1363,872,6520,-460
2154485,150,1044,1369,872,7145,-453
2154517,115,1037,1343,845,6955,-502
2154534,105,1010,1344,871,6955,-505
2154550,118,1014,1376,889,6957,-492
2154567,99,1011,1357,879,6957,-480
2154584,99,1012,1334,881,6957,-503
2154601,74,1007,1309,858,6957,-500
2154633,102,1045,1353,896,6957,-418
2154650,127,1063,1343,907,6957,-390
2154667,129,1037,1333,892,6957,-391
2154684,175,1061,1356,920,6957,-374
2154702,193,1034,1345,886,6957,-405
2154717,192,1039,1345,897,6957,-391
2154750,198,1047,1373,929,6958,-347
2154767,215,1080,1397,938,6958,-347
2154784,234,1086,1413,957,6957,-318
2154800,289,1104,1459,978,6927,-257
2154816,369,1120,1488,1012,6779,-147
2154833,370,1121,1479,994,6493,-122
2154866,294,1096,1468,1003,6173,-113
2154884,261,1102,1457,999,5966,-130
2154899,265,1073,1446,1000,5550,-130
2154917,283,1074,1416,974,4907,-154
2154933,252,1054,1421,981,4354,-172
2154949,261,1035,1428,963,4172,-184
2154983,295,1004,1414,937,2904,-231
2155000,291,980,1408,937,2336,-233
2155017,263,963,1369,900,1752,-258
2155033,282,950,1388,945,1588,-228
2155050,250,939,1391,925,1218,-261
2155067,226,927,1367,923,609,-277
2155098,267,912,1368,921,-825,-258
2155116,258,907,1360,910,-1577,-253
2155132,281,906,1380,938,-1832,-230
2155150,288,903,1384,938,-1824,-209
2155165,290,889,1396,933,-1866,-216
2155183,295,881,1379,939,-1990,-203
2155215,306,850,1367,937,-2344,-197
2155232,311,837,1366,935,-2799,-197
2155248,345,843,1391,959,-3205,-152
2155266,331,807,1372,949,-3329,-159
2155283,337,812,1371,947,-3295,-154
2155300,346,802,1360,954,-3578,-136
2155332,345,783,1344,943,-3251,-135
2155349,392,812,1372,972,-2440,-105
2155365,429,812,1401,972,-1830,-57
2155382,495,847,1444,1012,-1239,18
2155399,525,841,1442,1006,-887,54
2155416,529,844,1450,1029,-968,72
2155448,487,807,1407,996,-979,20
2155465,461,800,1368,975,-1229,-24
2155481,445,787,1374,991,-1280,-10
2155499,400,773,1337,954,-1271,-40
2155516,388,765,1314,949,-653,-57
2155532,392,752,1330,950,-91,-44
2155564,370,750,1327,959,-865,-69
2155582,371,713,1313,937,-1175,-94
2155598,376,713,1317,949,-1193,-105
2155614,373,704,1306,920,-1177,-133
2155632,378,695,1301,930,109,-120
2155648,402,695,1304,927,4360,-110
2155680,415,691,1299,937,6859,-101
2155697,394,687,1288,910,6980,-104
2155715,402,688,1292,922,6955,-91
2155732,388,690,1265,899,6953,-100
2155748,375,687,1240,872,6947,-129
2155765,411,688,1251,896,6947,-101
2155797,463,688,1264,922,6952,-74
2155814,461,703,1267,938,6937,-54
2155830,445,694,1257,935,6877,-54
2155848,451,697,1259,938,6790,-25
2155864,474,705,1271,958,6773,-5
2155881,471,703,1268,935,6744,-21
2155914,484,710,1280,954,6623,22
2155931,480,715,1262,963,6586,22
2155948,465,711,1252,960,6258,12
2155965,468,701,1242,949,5425,23
2155981,464,687,1238,948,4701,-20
2155998,491,686,1230,958,4135,-8
2156030,521,685,1238,956,3090,-10
2156048,516,693,1232,959,3162,-18
2156064,541,700,1244,971,3472,11
2156081,555,694,1226,970,5065,4
2156098,632,726,1277,1006,4774,73
2156114,680,758,1327,1066,6134,107
2156146,747,759,1313,1070,6081,172
2156163,715,749,1285,1050,6229,141
2156179,694,748,1286,1034,6625,108
2156197,666,717,1247,1029,6458,76
2156214,659,721,1267,1041,6167,91
2156230,649,715,1263,1027,6035,93
2156262,636,709,1249,1019,5675,54
2156280,612,712,1242,1017,5540,65
2156297,586,712,1232,1026,5554,49
2156312,556,708,1222,1008,5570,26
2156330,546,713,1197,1002,5483,28
2156347,543,708,1165,991,5401,9
2156379,524,714,1150,1003,5191,9
2156396,539,709,1154,1003,5061,-13
2156413,552,717,1157,996,4870,-20
2156430,571,718,1170,1001,4751,-12
2156447,583,718,1174,1002,4592,-20
2156463,572,719,1187,992,4446,-25
2156495,559,710,1175,1012,3898,-41
2156513,553,721,1192,1006,3830,-56
2156530,551,721,1212,1008,3736,-51
2156546,540,725,1194,1006,3629,-45
2156563,513,712,1155,983,3402,-78
2156579,513,717,1149,991,3352,-59
2156612,509,735,1122,1000,2662,-62
2156629,507,736,1123,993,2153,-65
2156646,504,736,1090,998,1213,-64
2156662,525,745,1107,1022,749,-13
2156680,514,742,1096,1008,427,-10
2156697,518,741,1086,1004,140,-16
2156728,519,742,1050,989,189,-26
2156745,545,752,1043,1011,-299,8
2156762,525,736,1017,991,-150,-12
2156779,554,747,1021,998,529,-28
2156795,582,744,1010,995,441,-21
2156812,597,751,1013,1011,166,22
2156845,612,756,998,1013,-247,42
2156862,608,762,1013,1040,-243,47
2156879,584,755,981,1017,-254,18
2156896,589,744,969,1007,35,42
2156912,591,740,960,1001,156,10
2156929,624,742,975,1025,653,28
2156961,638,748,962,987,1121,-3
2156979,670,752,985,1015,1527,51
2156995,672,745,976,977,1564,12
2157012,715,754,1004,1010,1863,64
2157028,708,738,1000,983,2511,37
2157045,711,729,996,973,3254,37
2157077,740,738,1037,985,3182,50
2157094,775,762,1079,1004,3197,76
2157111,825,767,1095,1034,3422,131
2157128,869,792,1110,1025,4110,147
2157144,916,794,1137,1026,4627,191
2157162,991,830,1192,1083,4612,262
2157193,1010,853,1213,1103,4211,315
2157210,1007,847,1193,1086,4548,318
2157227,991,853,1187,1103,5151,330
2157245,984,853,1179,1103,5350,343
2157261,965,851,1155,1076,5337,304
2157279,973,842,1167,1101,5632,312
2157310,957,840,1131,1082,5351,266
2157329,981,845,1132,1070,5229,245
2157344,967,837,1096,1040,4944,207
2157361,952,825,1078,1041,4574,193
2157378,943,827,1039,1019,4134,162
2157394,961,833,1040,1033,3749,167
2157427,954,844,1051,1023,3045,153
2157444,960,842,1026,1002,2625,131
2157461,975,846,1036,1021,2503,135
2157477,994,848,1038,1018,2633,136
2157494,997,847,1017,1017,2684,129
2157511,987,845,1017,1011,2748,107
2157543,981,853,1037,1021,2269,130
2157560,982,868,1032,1038,2124,135
2157576,958,860,1019,1034,2278,127
2157594,963,868,1038,1038,2287,133
2157610,952,865,1023,1032,2210,135
2157627,973,887,1045,1046,2161,140
2157659,983,893,1079,1062,2046,175
2157676,971,899,1080,1066,1935,171
2157693,991,912,1093,1075,1618,206
2157710,1004,930,1105,1073,1081,226
2157728,995,934,1087,1063,509,222
2157744,981,939,1082,1066,-97,214
2157776,953,936,1079,1061,-1372,208
2157792,952,940,1078,1082,-2267,223
2157810,938,940,1055,1066,-3166,216
2157826,928,967,1083,1091,-1889,214
2157843,941,968,1071,1089,-1071,251
2157860,944,986,1085,1105,-729,279
2157892,930,982,1050,1078,-799,278
2157909,923,981,1046,1075,-655,278
2157925,909,986,1040,1065,-420,275
2157943,931,995,1043,1077,-290,297
2157960,943,996,1039,1086,-203,307
2157975,937,996,1030,1069,-278,297
2158008,931,994,1021,1076,-120,275
2158026,936,993,1008,1051,-60,265
2158043,933,998,1005,1057,65,273
2158058,910,995,997,1046,184,265
2158076,906,991,992,1046,456,267
2158092,888,985,980,1027,582,253
2158125,857,983,969,1029,600,227
2158143,894,988,986,1052,655,259
2158159,903,990,991,1048,862,263
2158176,917,982,991,1045,1270,251
2158193,903,988,1000,1046,2046,244
2158210,939,984,974,1034,3513,238
2158241,911,983,943,1021,4630,205
2158259,904,987,958,1046,5783,228
2158274,871,981,956,1020,6099,213
2158292,873,987,974,1028,5860,220
2158309,851,988,968,1037,5741,216
2158325,844,970,954,1028,5677,202
2158358,811,962,923,1013,6146,175
2158375,804,966,917,996,6482,161
2158392,802,972,923,987,6636,171
2158409,789,977,917,999,6733,174
2158425,769,959,884,969,6639,140
2158442,752,970,880,971,6577,133
2158475,715,969,875,945,6583,93
2158492,721,969,883,924,6531,107
2158508,713,964,881,919,6549,114
2158525,710,968,870,902,6493,105
2158542,702,964,867,895,6417,116
2158558,717,970,876,906,6322,130
2158590,684,978,856,867,6029,89
2158608,691,982,870,880,5964,92
2158624,674,972,857,874,5848,101
2158641,668,980,851,861,5746,73
2158657,662,970,851,867,5666,85
2158675,648,973,849,870,5587,86
2158707,611,968,826,866,5372,46
2158724,616,963,824,867,5290,44
2158741,613,966,845,879,5187,66
2158758,610,966,814,862,5087,43
2158774,608,960,818,866,5025,36
2158791,586,959,801,850,4971,31
2158823,555,951,789,843,4897,11
2158840,552,956,783,846,4818,16
2158857,560,949,789,863,4736,4
2158874,563,955,778,857,4730,31
2158891,537,946,750,851,4620,18
2158907,509,939,737,824,4511,5
2158939,494,933,734,817,4243,8
2158957,485,938,730,824,4116,1
2158973,477,938,729,826,4048,-2
2158990,477,935,732,833,4075,11
2159007,481,931,735,840,3926,13
2159024,484,934,746,856,3886,17
2159072,494,920,756,865,3774,51
2159089,493,907,758,867,3729,51
2159106,490,896,739,860,3684,39
2159124,488,894,768,892,3622,47
2159140,511,891,752,871,3524,34
2159156,480,888,729,851,3441,40
2159189,488,887,735,863,3390,46
2159207,497,888,731,870,3296,56
2159223,487,883,729,865,3226,56
2159240,496,887,741,880,3174,60
2159273,468,879,699,847,3032,47
2159305,473,883,725,871,3006,62
2159323,460,872,705,858,2896,49
2159340,456,864,704,853,2819,31
2159356,463,880,707,864,2770,42
2159373,453,868,695,844,2702,26
2159390,454,867,700,846,2670,27
2159422,453,854,696,821,2580,7
2159439,456,859,706,823,2483,-1
2159456,445,862,694,810,2437,-11
2159473,450,849,691,820,2389,-16
2159489,439,852,706,831,2345,-23
2159506,444,836,694,831,2264,-34
2159539,444,841,718,850,2183,-32
2159556,433,837,701,835,2121,-21
2159572,435,840,712,859,2089,-15
2159589,447,827,723,868,2048,-6
2159606,434,831,724,869,1996,-11
2159622,405,828,725,844,1901,-31
2159654,408,824,722,848,1825,-49
2159672,425,821,733,871,1825,-36
2159688,401,824,727,866,1827,-43
2159705,392,822,725,876,1747,-46
2159722,390,822,727,867,1717,-70
2159739,392,821,739,886,1724,-48
2159771,364,802,744,843,1679,-75
2159789,371,801,747,850,1628,-53
2159805,349,791,757,857,1616,-68
2159822,377,791,760,893,1646,-46
2159839,374,782,767,898,1660,-41
2159855,367,780,768,908,1616,-44
2159887,382,769,771,914,1606,-31
2159904,343,757,733,868,1529,-80
2159921,345,765,729,883,1516,-60
2159938,338,751,720,876,1464,-62
2159955,334,743,726,879,1419,-42
2159972,316,732,700,869,1354,-69
2160004,313,722,708,892,1300,-45
2160021,291,717,668,859,1231,-77
2160037,301,721,683,882,1311,-61
2160054,310,727,679,886,1318,-56
2160071,316,715,679,896,1329,-46
2160088,328,722,714,911,1320,-34
2160120,303,710,691,898,1260,-44
2160138,324,709,702,912,1254,-41
2160153,316,709,692,902,1194,-39
2160170,335,707,717,929,1188,-14
2160188,319,706,711,937,1123,-33
2160204,340,701,704,931,1138,-2
2160237,359,718,742,955,1147,25
2160254,328,710,701,926,1066,-18
2160271,332,703,702,928,1070,-16
2160288,345,709,703,937,1073,-5
2160305,335,697,696,929,1068,-19
2160321,342,702,700,949,1040,-3
2160352,307,682,679,918,946,-46
2160369,318,675,686,929,923,-45
2160387,322,686,702,949,922,-17
2160404,307,677,684,924,869,-36
2160420,334,689,712,960,898,0
2160437,327,676,698,958,876,-13
2160453,325,663,685,942,825,-20
2160486,327,701,686,900,685,-73
2160503,313,704,675,881,624,-98
2160521,301,697,669,885,595,-116
2160537,301,697,669,885,595,-116
2160553,301,697,669,885,595,-116
2160570,301,697,669,885,595,-116
2160602,301,697,669,885,595,-116
2160619,301,697,669,885,595,-116
2160637,301,697,669,885,595,-116
2160654,301,697,669,885,595,-116
2160671,301,697,669,885,595,-116
2160688,301,697,669,885,595,-116
2160718,301,697,669,885,595,-116
2160736,301,697,669,885,595,-116
2160753,301,697,669,885,595,-116
2160769,301,697,669,885,595,-116
2160786,301,697,669,885,595,-116
2160803,301,697,669,885,595,-116
2160835,301,697,669,885,595,-116
2160853,301,697,669,885,595,-116
2160869,301,697,669,885,595,-116
2160886,301,697,669,885,595,-116
2160903,301,697,669,885,595,-116
2160919,301,697,669,885,595,-116
2160951,301,697,669,885,595,-116
2160969,301,697,669,885,595,-116
2160985,301,697,669,885,595,-116
2161002,301,697,669,885,595,-116
2161018,301,697,669,885,595,-116
2161036,301,697,669,885,595,-116
2161068,301,697,669,885,595,-116
2161086,301,697,669,885,595,-116
2161102,301,697,669,885,595,-116
2161119,301,697,669,885,595,-116
2161135,301,697,669,885,595,-116
2161152,301,697,669,885,595,-116
2161184,297,670,683,890,535,-124
2161202,311,661,720,922,518,-126
2161218,484,675,754,926,483,-144
2161235,502,687,803,940,467,-95
2161252,499,695,806,969,468,-10
2161268,506,641,823,983,522,61
2161300,477,636,823,982,440,46
2161318,496,632,850,998,447,68
2161335,466,620,814,976,421,42
2161352,476,627,838,984,432,43
2161367,484,626,835,981,426,46
2161385,461,622,820,955,404,18
2161417,465,643,854,982,452,56
2161433,539,675,894,1004,499,88
2161451,623,715,949,1047,610,190
2161468,642,727,971,1067,679,229
2161485,613,712,953,1053,681,199
2161500,568,702,931,1035,635,165
2161533,508,657,890,998,514,72
2161551,455,655,875,978,456,48
2161568,456,642,878,985,448,61
2161583,438,636,865,975,414,45
2161601,449,639,888,1012,444,87
2161617,424,615,863,986,401,48
2161649,412,620,855,991,386,44
2161667,390,611,855,970,341,6
2161683,390,609,851,986,340,17
2161701,399,615,887,1001,355,34
2161717,371,605,833,958,298,-12
2161734,381,612,866,984,331,23
2161767,379,609,850,977,322,12
2161783,369,616,849,980,309,7
2161800,355,613,846,967,294,-6
2161817,364,612,854,976,303,0
2161834,361,617,854,964,313,13
2161851,347,608,833,952,271,-9
2161882,375,631,861,975,297,55
2161900,361,617,865,989,282,62
2161916,353,612,795,962,253,43
2161933,372,618,816,987,305,95
2161950,362,612,803,987,304,95
2161967,350,608,788,977,286,72
2161999,354,618,786,974,275,69
2162016,356,630,798,985,277,72
2162033,358,629,778,960,236,58
2162050,365,625,790,984,266,85
2162066,372,629,799,986,265,79
2162083,357,625,807,989,270,80
2162115,353,616,819,989,290,77
2162132,338,597,809,978,245,70
2162148,365,592,834,1001,276,121
2162166,326,581,828,982,245,102
2162183,343,578,823,991,257,106
2162200,310,569,806,948,180,61
2162215,344,574,818,983,245,101
2162248,360,574,832,966,237,120
2162266,360,574,832,966,237,120
2162282,360,574,832,966,237,120
2162298,360,574,832,966,237,120
2162316,403,605,909,1006,271,151
2162332,447,638,934,1018,322,217
2162349,442,650,920,979,298,195
2162381,445,648,935,985,326,215
2162398,389,633,908,937,290,170
2162416,424,654,962,976,336,213
2162432,387,648,972,988,356,202
2162448,367,631,951,957,331,152
2162466,420,641,1008,1008,400,178
2162497,396,626,998,988,378,133
2162515,387,612,1025,1001,380,133
2162532,372,622,999,965,322,89
2162549,350,623,980,948,236,60
2162565,347,620,982,948,202,52
2162582,328,620,963,944,177,34
2162614,279,604,942,926,176,16
2162632,268,606,927,920,188,25
2162648,260,607,919,923,160,5
2162665,296,620,931,941,193,39
2162681,284,624,922,920,150,4
2162698,310,653,967,943,160,24
2162731,319,696,970,946,134,19
2162748,330,714,965,931,103,-8
2162765,376,756,974,927,73,12
2162781,396,780,959,899,17,-18
2162798,370,724,942,916,69,22
2162815,377,773,946,918,50,7
2162847,367,816,945,913,23,28
2162864,332,798,913,878,-24,-7
2162881,316,798,894,865,-40,-10
2162898,320,794,888,865,-56,-22
2162914,294,791,856,848,-94,-40
2162931,314,799,879,877,-83,-5
2162964,308,790,821,841,-97,-22
2162981,319,789,858,869,-42,-17
2162997,294,785,814,822,-96,-79
2163013,287,779,814,832,-57,-74
2163031,283,765,790,812,-58,-95
2163047,269,765,765,803,-87,-114
2163079,234,764,734,793,-153,-162
2163096,229,776,736,795,-188,-172
2163114,200,768,717,765,-253,-191
2163130,216,791,733,778,-259,-173
2163147,229,797,739,781,-267,-168
2163164,229,807,737,793,-289,-168
2163196,208,797,741,788,-332,-176
2163214,210,760,728,780,-239,-142
2163229,190,758,713,776,-244,-182
2163247,194,753,712,771,-295,-192
2163264,193,715,704,772,-284,-218
2163280,199,715,700,764,-308,-224
2163313,239,735,708,772,-271,-225
2163330,207,735,676,741,-283,-255
2163348,232,752,682,788,-276,-243
2163364,213,732,672,797,-348,-249
2163380,212,738,666,780,-366,-256
2163397,205,747,662,773,-414,-265
2163429,195,775,678,757,-396,-260
2163446,166,780,677,748,-408,-258
2163463,169,783,688,753,-406,-262
2163479,150,778,688,751,-414,-271
2163496,164,783,702,747,-400,-274
2163513,155,768,686,743,-356,-289
2163546,200,773,689,749,-324,-293
2163563,191,770,684,730,-319,-312
2163580,202,767,679,727,-282,-318
2163597,176,743,655,706,-311,-371
2163613,190,683,631,686,-289,-350
2163629,167,707,638,709,-274,-351
2163661,197,749,630,680,-340,-389
2163678,190,759,636,666,-338,-383
2163695,196,740,623,678,-317,-364
2163713,196,751,626,686,-273,-325
2163728,198,752,631,699,-213,-290
2163746,185,754,609,701,-166,-279
2163778,160,733,627,731,-89,-220
2163796,135,752,629,717,-101,-217
2163812,143,768,648,732,-95,-193
2163829,141,783,642,718,-111,-206
2163846,144,790,642,723,-93,-199
2163863,128,779,635,720,-101,-223
2163894,182,803,666,752,-20,-168
2163912,180,778,665,757,-19,-185
2163928,190,779,662,753,23,-171
2163944,200,794,656,755,-1,-199
2163962,209,789,665,763,17,-200
2163978,229,776,674,779,77,-178
2164011,196,742,663,749,91,-210
2164028,193,740,671,745,86,-225
2164045,218,744,696,755,83,-216
2164061,226,748,696,731,85,-228
2164078,250,760,713,739,83,-235
2164095,258,738,713,732,101,-229
2164127,263,710,726,728,131,-253
2164145,241,688,722,719,154,-296
2164162,246,688,693,676,149,-316
2164177,258,672,724,691,152,-309
2164195,279,673,734,691,181,-310
2164212,270,691,727,667,191,-336
2164244,441,763,851,726,396,-214
2164261,499,785,892,726,455,-191
2164277,480,771,860,685,428,-223
2164294,464,765,880,704,366,-271
2164311,433,738,846,656,278,-326
2164328,446,724,844,661,226,-341
2164360,477,687,860,666,168,-367
2164378,446,648,846,648,88,-409
2164394,467,612,853,652,135,-377
2164410,432,568,815,616,96,-412
2164427,493,570,855,660,145,-355
2164444,499,567,853,623,106,-367
2164476,545,594,901,656,128,-319
2164494,550,614,890,627,117,-348
2164510,693,653,907,645,96,-324
2164527,688,633,892,621,127,-316
2164544,666,610,898,633,90,-329
2164560,654,636,914,644,120,-283
2164593,635,603,888,614,89,-271
2164611,661,605,940,673,154,-207
2164627,634,597,915,650,88,-217
2164644,625,590,929,658,73,-195
2164661,614,585,926,655,-13,-188
2164677,586,594,927,674,-36,-186
2164709,599,578,970,710,-50,-167
2164726,584,566,963,711,-50,-190
2164742,589,552,970,715,-48,-165
2164760,597,545,990,728,-74,-160
2164777,624,523,990,736,-226,-130
2164794,623,515,1004,762,-2234,-114
2164825,633,489,1024,786,-5542,-96
2164842,630,485,1019,784,-6834,-95
2164859,604,460,989,773,-6996,-126
2164877,638,473,992,788,-6993,-100
2164893,643,475,1018,780,-6950,-128
2164910,634,480,1016,763,-6947,-141
2164943,608,473,1046,804,-6947,-95
2164959,587,455,1049,811,-6947,-48
2164976,580,452,1037,793,-6947,-66
2164993,581,439,1059,820,-6947,-44
2165010,554,424,1044,799,-6947,-57
2165026,558,434,1094,831,-6947,-3
2165059,577,433,1135,856,-6947,35
2165076,506,423,1112,837,-6947,28
2165092,506,425,1116,839,-6947,33
2165109,468,424,1136,839,-6947,27
2165126,474,430,1145,838,-6947,35
2165143,455,418,1137,812,-6947,3
2165175,482,428,1169,833,-6947,40
2165193,501,439,1196,839,-6947,46
2165208,509,427,1195,837,-6947,29
2165226,495,431,1164,825,-6947,26
2165242,484,430,1172,836,-6947,11
2165259,468,429,1147,835,-6947,5
2165291,392,425,1128,835,-6947,-18
2165309,306,424,1064,804,-6947,-20
2165325,268,417,1069,805,-6947,-42
2165341,235,418,1026,786,-6947,-70
2165359,223,417,994,784,-6947,-82
2165375,217,412,974,774,-6947,-104
2165407,272,456,974,798,-6947,-105
2165424,373,487,1014,837,-6947,-12
2165441,412,497,1030,872,-6947,31
2165458,381,470,989,850,-6947,11
2165475,317,454,970,841,-6947,-41
2165491,276,432,942,824,-6947,-57
2165524,244,398,889,763,-6947,-160
2165542,267,376,866,737,-6947,-220
2165557,245,357,826,723,-6947,-267
2165575,274,345,811,705,-6947,-286
2165592,264,326,819,710,-6947,-320
2165607,280,329,821,726,-6947,-332
2165640,152,265,700,567,-6947,-528
2165658,57,219,596,468,-6947,-651
2165675,-51,173,489,361,-6947,-802
2165690,15,178,538,434,-6947,-746
2165708,-90,167,496,393,-6947,-840
2165725,-86,148,439,340,-6947,-849
2165756,-89,137,389,318,-6947,-868
2165773,-57,131,361,307,-6947,-894
2165790,-67,133,362,315,-6947,-891
2165808,-55,129,349,324,-6947,-909
2165825,-50,106,345,336,-6947,-929
2165840,-68,107,328,334,-6947,-957
2165873,-90,81,288,331,-6947,-999
2165891,-132,55,249,324,-6947,-1057
2165906,-161,48,225,303,-6947,-1082
2165924,-157,42,206,289,-6947,-1099
2165941,-205,26,169,251,-6947,-1148
2165957,-221,17,139,236,-6947,-1159
2165990,-235,-12,75,179,-6947,-1203
2166007,-299,-31,41,150,-6947,-1277
2166024,-294,-48,34,137,-6947,-1292
2166040,-298,-69,-2,128,-6947,-1320
2166057,-308,-76,-33,110,-6947,-1341
2166074,-309,-83,-40,102,-6947,-1340
2166106,-342,-117,-118,59,-6947,-1457
2166123,-380,-145,-152,37,-6947,-1405
2166139,-370,-154,-110,85,-6947,-1365
2166157,-409,-170,-164,37,-6947,-1418
2166174,-397,-176,-173,44,-6947,-1407
2166190,-409,-184,-177,58,-6947,-1400
2166222,-460,-210,-203,45,-6947,-1421
2166239,-486,-218,-240,0,-6947,-1448
2166256,-459,-229,-230,6,-6947,-1424
2166273,-499,-245,-280,-13,-6947,-1486
2166290,-485,-248,-280,-7,-6947,-1486
2166307,-503,-254,-310,-9,-6947,-1480
2166339,-512,-276,-336,-45,-6947,-1493
2166357,-544,-285,-349,-32,-6947,-1502
2166372,-538,-285,-339,-34,-6947,-1492
2166389,-567,-298,-368,-54,-6947,-1543
2166406,-610,-294,-372,-58,-6947,-1559
2166423,-639,-309,-420,-73,-6947,-1551
2166455,-647,-323,-411,-65,-6947,-1521
2166473,-644,-315,-416,-61,-6947,-1522
2166488,-633,-316,-400,-39,-6947,-1501
2166506,-617,-313,-387,-57,-6947,-1497
2166523,-618,-311,-393,-50,-6947,-1496
2166539,-610,-309,-390,-48,-6947,-1481
2166571,-581,-312,-388,-32,-6947,-1435
2166589,-561,-302,-359,4,-6947,-1402
2166606,-555,-299,-375,-9,-6947,-1403
2166621,-521,-284,-333,18,-6948,-1365
2166639,-502,-284,-337,11,-6949,-1377
2166656,-473,-281,-347,2,-6932,-1346
2166687,-386,-269,-295,20,-6932,-1323
2166704,-370,-276,-291,31,-6934,-1331
2166721,-330,-275,-262,35,-6934,-1316
2166739,-290,-261,-252,55,-6935,-1283
2166756,-276,-258,-215,81,-6934,-1260
2166771,-242,-237,-199,103,-6929,-1219
2166804,-243,-224,-181,126,-6908,-1179
2166821,-192,-215,-173,147,-6876,-1171
2166838,-198,-217,-148,158,-6824,-1155
2166855,-196,-202,-149,179,-6797,-1127
2166872,-160,-195,-118,215,-6741,-1072
2166889,-164,-180,-110,214,-6691,-1050
2166920,-119,-150,-47,276,-6483,-951
2166938,-116,-149,-36,285,-6533,-939
2166954,-35,-129,32,338,-6529,-853
2166971,-50,-129,30,321,-6578,-839
2166988,29,-110,99,373,-6556,-767
2167005,40,-105,111,372,-6558,-749
2167038,97,-69,246,462,-6502,-669
2167054,143,-44,284,504,-6498,-606
2167071,233,-21,368,552,-6403,-515
2167088,255,-8,409,582,-6377,-487
2167105,280,11,470,614,-6263,-432
2167121,304,27,512,643,-6181,-395
2167153,394,70,616,714,-5878,-316
2167170,470,108,708,790,-5722,-209
2167187,489,143,736,774,-5742,-156
2167204,511,156,755,778,-5654,-83
2167221,510,171,786,790,-5512,-53
2167238,482,176,770,768,-5456,-80
2167270,451,187,767,745,-5406,-82
2167288,442,188,792,763,-5392,-78
2167304,441,198,795,765,-5350,-75
2167321,466,205,831,789,-5319,-60
2167337,482,227,854,785,-5319,-46
2167354,529,240,900,831,-5225,8
2167386,581,286,989,900,-5049,77
2167403,608,310,1026,927,-4964,103
2167420,632,312,1055,943,-4941,112
2167436,633,325,1063,953,-4873,121
2167453,675,344,1111,977,-4668,171
2167470,696,361,1110,975,-4698,166
2167503,677,364,1133,893,-4718,144
2167520,706,376,1150,919,-4713,166
2167536,734,383,1166,932,-4730,182
2167554,720,390,1178,933,-4569,163
2167570,730,394,1184,941,-4503,173
2167586,679,397,1185,949,-4638,168
2167618,702,410,1180,959,-4723,191
2167635,699,412,1199,966,-4662,201
2167652,699,410,1173,948,-4615,194
2167669,697,418,1190,952,-4595,208
2167686,705,428,1202,984,-4418,206
2167703,711,425,1167,957,-4229,196
2167735,689,437,1175,954,-3893,206
2167752,696,438,1177,976,-3752,227
2167769,685,420,1167,951,-3694,197
2167786,685,437,1175,973,-3651,195
2167803,664,436,1150,947,-3611,158
2167819,672,435,1155,952,-3556,175
2167852,647,443,1122,930,-3515,132
2167869,645,437,1121,936,-3426,140
2167886,652,443,1123,949,-3337,145
2167903,663,456,1132,955,-3265,154
2167919,645,451,1141,944,-3250,130
2167935,657,466,1152,950,-3096,146
2167968,701,512,1191,979,-2978,209
2167985,762,553,1203,1010,-2977,298
2168002,722,538,1183,970,-2969,235
2168018,710,535,1167,969,-3032,227
2168035,635,507,1106,926,-3184,165
2168052,586,503,1072,901,-3140,106
2168084,502,475,980,837,-3306,33
2168102,457,465,914,803,-3387,-8
2168119,473,473,945,884,-3383,72
2168135,489,493,975,916,-3464,107
2168152,479,492,972,947,-3342,144
2168169,460,499,978,952,-3511,135
2168201,441,504,949,950,-3196,139
2168218,441,512,944,965,-3315,130
2168234,432,508,953,953,-2525,145
2168252,432,513,956,980,-2115,136
2168269,424,507,953,981,-2101,133
2168285,423,509,955,994,-2570,147
2168317,420,515,940,987,-2277,144
2168334,426,522,947,1005,-2106,151
2168352,448,536,957,1007,-1953,168
2168368,417,525,934,987,-1889,136
2168385,425,529,940,1000,-2046,125
2168402,427,536,954,1010,-1905,138
2168434,421,541,947,1005,-1102,112
2168451,442,549,954,1009,-869,130
2168468,442,557,958,1018,-1211,125
2168485,448,558,951,1005,-378,119
2168501,425,556,943,1005,45,115
2168518,443,565,962,1038,96,133
2168550,416,549,919,1005,-208,106
2168568,433,547,922,1010,-278,121
2168585,422,544,919,1005,-426,115
2168600,426,541,900,995,-385,109
2168617,435,537,912,986,-439,98
2168634,446,547,922,1001,-649,117
2168667,454,557,922,990,-1037,106
2168684,456,559,919,978,-1189,99
2168701,471,570,934,994,-1247,108
2168718,448,563,930,992,-1325,87
2168734,445,567,929,984,-1455,94
2168751,451,576,950,997,-1638,92
2168782,467,576,953,1010,-1688,101
2168799,456,576,953,1008,-1774,81
2168817,437,571,945,1008,-1855,77
2168834,414,575,929,990,-1961,38
2168851,413,570,932,1002,-1958,47
2168867,392,567,931,1006,-1893,25
2168899,375,577,911,986,-1330,23
2168915,374,579,914,986,-660,29
2168933,370,591,895,983,203,21
2168950,365,606,887,977,3887,19
2168967,388,618,891,995,6206,26
2168984,378,623,881,964,7166,18
2169015,366,579,851,949,4974,-10
2169033,346,586,835,954,3602,-4
2169050,350,597,846,981,3254,25
2169067,332,601,841,985,2724,41
2169083,319,605,845,1009,2465,50
2169100,280,594,805,966,2183,24
2169132,290,595,798,997,1474,25
2169150,294,592,796,1003,841,51
2169166,299,593,778,997,549,49
2169183,287,596,780,997,331,42
2169200,303,602,791,1016,169,74
2169216,303,599,799,1018,176,57
2169248,283,604,785,1009,1336,43
2169265,276,606,767,1007,1291,43
2169283,276,610,769,1003,1218,17
2169299,282,608,770,1001,1160,19
2169316,282,614,761,985,1248,11
2169333,282,619,769,988,1271,-12
2169365,260,621,735,966,1214,-42
2169381,267,629,770,1007,1257,-9
2169398,257,622,746,978,1320,-28
2169416,243,621,729,975,1375,-41
2169432,278,634,755,1017,1465,4
2169449,262,629,748,996,1504,-17
2169481,268,629,761,995,1578,-4
2169499,275,632,765,1009,1643,2
2169515,265,638,767,1001,1569,-33
2169532,259,629,728,952,1558,-51
2169548,248,629,741,990,1446,-61
2169566,265,638,737,974,1398,-76
2169597,287,637,750,995,1446,-63
2169615,251,631,708,960,1427,-115
2169632,248,629,712,952,1452,-146
2169648,249,627,711,948,1425,-181
2169665,243,627,700,944,1241,-183
2169681,238,627,714,946,1076,-186
2169714,225,619,698,942,877,-196
2169730,223,623,684,928,742,-210
2169748,209,615,671,915,789,-214
2169765,247,621,707,965,888,-170
2169781,230,626,699,936,933,-182
2169798,204,612,669,918,787,-199
2169830,190,604,667,914,493,-188
2169848,186,610,670,920,611,-157
2169865,182,610,664,913,743,-130
2169881,168,605,667,926,639,-124
2169898,168,610,652,902,680,-122
2169915,141,599,649,904,874,-146
2169947,173,621,670,920,1061,-54
2169964,157,622,640,892,1060,-83
2169981,176,619,649,897,1145,-47
2169998,141,622,618,889,1110,-74
2170014,159,626,636,901,1109,-40
2170031,153,623,644,914,1183,-16
2170063,140,612,642,917,1304,-23
2170081,112,608,617,889,1302,-51
2170096,97,620,624,916,1438,-26
2170114,93,623,637,927,1297,-14
2170131,84,626,645,936,1254,-12
2170147,76,629,644,935,1208,-24
2170180,36,602,581,878,950,-76
2170197,31,604,582,883,1156,-71
2170214,43,602,577,876,1257,-94
2170230,56,610,609,907,1277,-67
2170247,62,611,607,895,1195,-84
2170264,36,600,576,880,1136,-120
2170296,4,589,543,846,1282,-150
2170314,-23,573,489,789,1068,-204
2170330,-45,562,485,787,1001,-238
2170347,-46,568,495,820,874,-213
2170363,-118,563,485,805,883,-226
2170380,-118,557,471,790,843,-254
2170412,-83,558,477,808,1129,-262
2170430,-102,554,471,806,1018,-270
2170446,-92,557,463,798,845,-284
2170463,-125,539,435,778,900,-315
2170479,-117,542,438,786,970,-310
2170496,-110,529,433,788,898,-319
2170528,-108,526,425,784,759,-332
2170546,-78,535,453,817,760,-303
2170562,-97,529,423,784,715,-334
2170579,-97,529,423,784,715,-334
2170596,-97,529,423,784,715,-334
2170613,-97,529,423,784,715,-334
2170645,-97,529,423,784,715,-334
2170663,-97,529,423,784,715,-334
2170679,-97,529,423,784,715,-334
2170695,-97,529,423,784,715,-334
2170712,-97,529,423,784,715,-334
2170729,-97,529,423,784,715,-334
2170795,-97,529,423,784,715,-334
2170812,-97,529,423,784,715,-334
2170829,-97,529,423,784,715,-334
2170846,-97,529,423,784,715,-334
2170862,-97,529,423,784,715,-334
2170878,-97,529,423,784,715,-334
2170895,-97,529,423,784,715,-334
2170927,-97,529,423,784,715,-334
2170944,-97,529,423,784,715,-334
2170961,-97,529,423,784,715,-334
2170978,-97,529,423,784,715,-334
2170995,-97,529,423,784,715,-334
2171012,-97,529,423,784,715,-334
2171044,-97,529,423,784,715,-334
2171062,-97,529,423,784,715,-334
2171077,-97,529,423,784,715,-334
2171095,-97,529,423,784,715,-334
2171111,-97,529,423,784,715,-334
2171128,-97,529,423,784,715,-334
2171160,-97,529,423,784,715,-334
2171178,-97,529,423,784,715,-334
2171195,-97,529,423,784,715,-334
2171211,-97,529,423,784,715,-334
2171228,-97,529,423,784,715,-334
2171244,-97,529,423,784,715,-334
2171276,-102,528,424,781,712,-357
2171294,-43,563,451,838,5525,-412
2171313,-71,563,470,909,6429,-408
2171327,-234,507,270,763,6969,-609
2171344,-329,494,175,730,6957,-596
2171361,-408,454,78,640,6957,-706
2171393,-193,505,324,828,6959,-472
2171409,-163,520,334,840,6960,-450
2171426,-156,527,340,833,6938,-439
2171444,-147,530,356,829,6952,-429
2171461,-139,535,365,826,6951,-420
2171477,-140,539,359,821,6947,-421
2171509,-126,540,362,819,6953,-423
2171526,-105,546,386,845,6949,-396
2171543,-105,552,400,858,6937,-393
2171560,-92,563,419,872,6946,-381
2171577,-88,564,410,851,6965,-393
2171594,-84,570,422,860,6965,-391
2171626,-91,562,419,838,6961,-404
2171644,-87,566,403,832,6948,-410
2171660,-103,566,429,850,6926,-409
2171676,-117,565,397,827,6953,-426
2171694,-87,572,427,855,6948,-398
2171710,-106,565,393,825,6947,-427
2171743,-86,564,420,854,6948,-405
2171760,-95,563,421,856,6948,-403
2171777,-95,565,422,852,6936,-407
2171793,-99,563,422,845,6900,-406
2171810,-103,560,411,859,6833,-405
2171826,-85,566,414,847,6801,-395
2171858,-119,562,383,824,6793,-403
2171876,-121,564,385,838,6794,-388
2171892,-119,561,397,860,6742,-357
2171909,-119,565,378,854,6602,-359
2171927,-120,564,374,844,6391,-362
2171943,-133,561,364,840,6319,-369
2171975,-122,563,394,854,6174,-348
2171993,-117,569,382,861,5899,-344
2172009,-124,564,386,852,5703,-348
2172026,-124,569,400,869,5457,-338
2172043,-116,571,396,842,5387,-336
2172060,-117,561,404,859,5368,-324
2172091,-110,570,415,872,5069,-319
2172109,-104,572,420,864,5188,-316
2172126,-109,571,420,859,5611,-318
2172142,-126,566,409,841,5511,-338
2172158,-51,572,432,857,5494,-322
2172175,-62,568,422,825,5355,-334
2172208,-64,568,422,831,5255,-344
2172226,-33,573,445,823,5124,-327
2172242,-37,567,430,815,5043,-345
2172259,-29,572,452,848,4966,-317
2172275,-43,568,450,826,4873,-343
2172292,-42,565,447,837,4812,-342
2172324,-39,565,455,829,4750,-319
2172342,-40,563,453,832,4877,-301
2172359,-7,571,493,852,4926,-282
2172375,-30,580,472,839,4754,-294
2172391,-25,589,480,840,4591,-287
2172409,-46,579,480,838,4448,-309
2172441,-33,584,494,836,4699,-300
2172458,-38,570,488,838,4968,-316
2172478,-42,575,499,840,5025,-316
2172492,-55,566,483,831,5034,-322
2172508,-32,577,497,851,4994,-305
2172525,-34,572,505,837,4842,-310
2172557,-31,572,491,835,4556,-329
2172574,-37,573,485,832,4580,-334
2172591,-33,565,473,845,4543,-317
2172607,-43,570,472,841,4553,-325
2172625,-55,565,462,843,4542,-322
2172642,-55,569,466,857,4360,-326
2172673,-72,561,443,838,4252,-357
2172690,-70,562,442,834,3981,-364
2172708,-59,567,457,853,3762,-336
2172724,-64,569,433,843,3608,-333
2172742,-58,573,437,841,3468,-322
2172758,-74,572,427,837,3429,-311
2172790,-101,572,412,810,3311,-297
2172808,-104,568,417,807,3113,-300
2172824,-115,564,413,811,2924,-296
2172841,-102,562,396,786,2719,-309
2172858,-93,560,405,813,2652,-267
2172875,-90,565,416,816,2613,-260
2172906,-106,536,390,804,2780,-268
2172924,-152,516,339,743,2449,-329
2172940,-204,487,266,683,2533,-379
2172957,-293,448,160,598,1921,-499
2172974,-406,386,43,486,1467,-612
2172991,-468,359,-48,420,1415,-707
2173022,-526,325,-111,396,1345,-760
2173039,-523,326,-103,416,1066,-753
2173056,-545,306,-142,392,779,-783
2173074,-568,308,-173,360,930,-824
2173090,-577,298,-180,357,1240,-841
2173107,-596,290,-190,351,1035,-863
2173139,-639,264,-244,317,368,-924
2173157,-667,256,-268,299,462,-950
2173173,-655,248,-262,301,463,-952
2173190,-672,246,-281,290,741,-960
2173207,-669,246,-259,318,783,-957
2173223,-643,246,-265,316,812,-930
2173255,-670,235,-277,312,633,-972
2173273,-687,215,-287,297,653,-994
2173290,-670,218,-287,303,691,-990
2173306,-664,214,-280,300,698,-994
2173323,-665,213,-304,292,608,-998
2173340,-684,209,-308,295,552,-1020
2173372,-687,189,-304,299,667,-993
2173388,-686,185,-301,310,597,-990
2173406,-686,181,-316,288,398,-995
2173423,-701,177,-323,283,290,-999
2173440,-707,167,-326,274,8,-1028
2173456,-696,176,-320,289,-122,-1002
2173488,-705,168,-317,288,-79,-1004
2173506,-686,170,-305,305,105,-991
2173522,-693,169,-306,299,31,-993
2173539,-670,172,-289,302,285,-982
2173556,-675,175,-278,312,362,-979
2173573,-650,189,-260,328,248,-956
2173605,-637,201,-248,337,569,-938
2173622,-619,208,-244,342,531,-924
2173639,-629,211,-245,343,130,-910
2173655,-606,221,-211,376,300,-873
2173672,-613,218,-217,384,193,-867
2173689,-595,219,-196,406,277,-840
2173721,-567,228,-152,426,277,-815
2173738,-571,236,-142,440,341,-808
2173755,-551,239,-125,434,379,-799
2173772,-549,249,-115,449,380,-791
2173788,-525,251,-80,461,410,-760
2173805,-507,264,-69,483,457,-742
2173837,-482,271,-36,504,331,-717
2173854,-449,282,10,537,127,-675
2173871,-425,289,20,530,44,-668
2173888,-399,308,74,568,622,-613
2173905,-370,315,83,577,487,-603
2173922,-327,333,144,620,248,-550
2173954,-258,361,214,668,517,-482
2173972,-232,380,260,693,856,-454
2173987,-215,385,261,689,805,-449
2174005,-168,402,349,747,522,-397
2174021,-126,414,352,759,658,-353
2174038,-120,425,373,763,926,-338
2174070,-41,451,475,823,1223,-255
2174088,-18,457,481,841,1122,-237
2174105,9,469,517,867,1080,-195
2174120,32,476,535,876,967,-178
2174138,49,482,573,882,895,-164
2174154,52,503,562,853,955,-181
2174186,43,499,556,858,1046,-182
2174203,33,488,556,848,951,-191
2174220,56,501,562,866,924,-170
2174237,20,497,542,841,815,-212
2174254,50,508,569,854,778,-190
2174271,49,511,571,847,747,-202
2174303,28,506,558,846,814,-229
2174321,43,514,576,850,875,-214
2174337,18,503,529,825,1028,-241
2174354,6,505,534,825,1395,-243
2174371,-2,503,516,809,1511,-266
2174388,-18,495,493,791,1485,-274
2174419,-51,474,476,763,1298,-329
2174437,-97,460,430,727,1245,-380
2174453,-102,459,417,724,1180,-408
2174470,-111,461,392,717,1245,-402
2174487,-106,468,398,730,1204,-404
2174504,-103,464,382,714,1103,-411
2174535,-121,473,383,714,759,-402
2174553,-143,464,354,693,605,-392
2174570,-153,470,365,714,704,-380
2174586,-156,469,360,717,772,-384
2174603,-171,474,346,705,663,-384
2174620,-160,477,364,729,604,-378
2174652,-177,472,341,718,563,-382
2174670,-183,470,334,692,521,-400
2174686,-186,467,338,697,533,-409
2174703,-180,458,341,705,627,-400
2174720,-174,458,348,714,634,-394
2174736,-200,451,319,695,687,-424
2174769,-196,451,318,695,730,-426
2174786,-167,453,345,716,856,-400
2174803,-184,457,343,710,867,-418
2174819,-155,460,355,730,917,-393
2174836,-153,459,366,730,905,-392
2174852,-140,471,376,736,909,-372
2174885,-114,469,404,761,896,-359
2174903,-127,466,391,755,896,-369
2174919,-122,468,390,763,906,-365
2174936,-119,471,389,755,977,-367
2174952,-115,470,399,761,874,-359
2174969,-140,462,362,718,799,-397
2175001,-150,456,348,716,881,-411
2175019,-142,458,358,723,775,-401
2175036,-134,457,368,721,718,-399
2175053,-144,463,367,717,655,-395
2175069,-141,459,352,718,639,-407
2175085,-144,457,366,714,607,-398
2175118,-133,464,370,739,541,-373
2175136,-110,475,389,753,465,-356
2175151,-108,474,404,769,461,-330
2175169,-75,488,433,784,439,-312
2175185,-55,501,480,825,494,-274
2175202,-18,528,525,863,576,-226
2175235,37,547,584,904,650,-152
2175252,75,566,625,945,643,-113
2175268,101,574,655,963,646,-76
2175285,121,591,683,973,637,-73
2175302,144,600,715,1003,842,-28
2175318,172,614,783,1046,743,-1
2175351,256,664,895,1112,1145,89
2175368,315,687,939,1160,1267,156
2175384,336,703,969,1181,1415,190
2175402,381,717,1004,1193,1551,223
2175418,380,743,1029,1211,1494,242
2175435,407,749,1063,1220,1441,279
2175470,410,757,1087,1239,1414,292
2175487,425,771,1093,1251,1525,327
2175503,434,777,1083,1236,1538,330
2175520,441,797,1095,1233,1370,336
2175537,469,800,1110,1240,1375,365
2175554,472,805,1109,1254,1441,358
2175583,464,808,1096,1236,1353,346
2175601,475,815,1116,1258,1366,373
2175618,485,820,1137,1256,1337,373
2175633,502,816,1139,1271,1387,382
2175651,511,818,1150,1277,1343,381
2175668,506,823,1132,1269,1372,367
2175700,503,822,1116,1266,1039,355
2175718,517,829,1117,1266,1138,370
2175734,504,829,1102,1264,1108,349
2175750,492,831,1096,1244,1039,334
2175767,495,834,1105,1253,1080,340
2175784,500,834,1109,1267,1063,352
2175816,516,837,1119,1280,895,380
2175833,522,855,1113,1272,865,369
2175850,519,849,1116,1266,929,373
2175867,516,848,1107,1251,920,362
2175884,518,855,1113,1275,1024,380
2175900,495,857,1093,1257,923,351
2175932,482,861,1095,1253,900,343
2175950,501,870,1113,1274,839,364
2175966,488,870,1101,1262,815,353
2175983,488,870,1097,1254,643,347
2176000,501,868,1099,1253,495,331
2176017,506,871,1098,1257,432,334
2176049,480,865,1087,1245,756,307
2176067,495,878,1092,1249,872,317
2176083,500,871,1097,1254,987,310
2176099,486,875,1085,1246,827,302
2176116,499,886,1095,1238,787,326
2176133,481,878,1094,1250,786,315
2176165,463,870,1089,1251,863,312
2176183,498,875,1097,1252,1104,309
2176200,504,878,1108,1252,1103,328
2176216,504,885,1110,1255,1252,314
2176232,508,882,1120,1250,1358,318
2176249,513,882,1115,1257,1402,308
2176282,567,893,1109,1253,1419,309
2176299,582,901,1112,1261,1545,323
2176316,579,901,1118,1271,1606,339
2176333,582,919,1122,1248,1576,328
2176349,542,914,1090,1233,1500,304
2176366,549,930,1083,1229,1470,318
2176399,605,925,1095,1241,1556,333
2176416,590,923,1085,1245,1571,316
2176432,574,924,1076,1235,1496,297
2176449,602,926,1084,1247,1479,303
2176466,574,926,1082,1236,1466,289
2176482,604,933,1096,1248,1416,301
2176514,595,924,1094,1241,1658,286
2176532,581,919,1078,1225,1998,269
2176549,587,916,1071,1221,2024,260
2176565,592,919,1072,1216,2022,250
2176582,601,915,1075,1216,1969,245
2176599,597,906,1061,1212,1979,234
2176631,598,913,1057,1208,1755,216
2176648,613,916,1061,1210,1868,218
2176664,603,916,1052,1213,1944,213
2176681,620,919,1055,1207,1944,214
2176699,622,917,1058,1213,1893,210
2176715,624,919,1044,1191,1992,188
2176747,724,920,1060,1219,2304,215
2176765,783,919,1045,1196,2407,219
2176782,778,910,1022,1186,2319,182
2176798,835,923,1047,1201,2343,209
2176814,828,919,1024,1180,2353,189
2176831,838,922,1021,1183,2302,201
2176864,823,927,1033,1197,2220,226
2176880,781,921,1024,1181,2139,202
2176897,759,919,1021,1164,2116,199
2176914,803,928,1030,1180,2030,206
2176931,968,931,1006,1172,2042,194
2176948,1020,931,1007,1175,2011,195
2176980,1061,926,994,1162,1965,184
2176998,1070,927,998,1163,1914,183
2177013,1065,934,988,1154,1905,175
2177031,1063,919,981,1153,1897,172
2177048,1088,920,988,1164,1933,196
2177064,1100,935,989,1155,1910,182
2177096,1091,922,971,1147,1841,159
2177113,1094,919,971,1144,1815,151
2177130,1104,921,972,1148,1824,166
2177147,1101,913,973,1153,1768,154
2177164,1091,913,963,1123,1685,150
2177180,1092,908,968,1124,1674,140
2177212,1092,907,973,1123,1592,129
2177229,1102,917,991,1122,1613,134
2177246,1101,919,986,1125,1623,138
2177264,1094,921,979,1114,1587,139
2177279,1102,907,950,1099,1549,116
2177297,1182,926,978,1133,1525,146
2177329,1393,929,954,1113,1449,155
2177347,1547,920,949,1098,1474,146
2177362,960,928,941,1102,1485,141
2177380,681,936,962,1102,1453,153
2177397,431,935,947,1095,1367,148
2177414,346,941,955,1115,1393,157
2177446,280,932,949,1114,1355,177
2177463,266,930,951,1107,1351,168
2177480,263,930,951,1110,1381,150
2177496,260,918,947,1113,1321,152
2177513,260,917,946,1120,1274,140
2177530,259,911,940,1114,1301,146
2177562,262,919,937,1099,1341,131
2177579,256,913,931,1104,1330,132
2177596,266,917,938,1122,1289,146
2177613,268,917,943,1123,1299,136
2177630,277,913,945,1133,1258,140
2177646,277,914,926,1121,1222,130
2177678,272,917,924,1106,1147,115
2177696,309,915,942,1120,1158,124
2177712,301,921,946,1113,1188,116
2177729,294,916,928,1099,1156,103
2177746,289,912,930,1094,1079,97
2177763,300,921,930,1104,1065,107
2177794,306,919,948,1100,1010,119
2177811,299,932,941,1098,973,109
2177829,304,927,949,1109,1005,100
2177845,323,930,945,1096,995,122
2177862,309,940,946,1093,999,112
2177879,285,929,933,1071,1035,86
2177911,279,925,925,1077,1039,80
2177929,275,929,925,1082,1034,75
2177944,290,928,946,1099,1062,99
2177962,265,924,926,1071,1035,80
2177979,249,916,908,1058,1076,74
2177995,239,905,888,1033,1064,51
2178027,246,902,904,1059,1072,76
2178045,239,907,898,1057,1083,81
2178062,242,910,883,1058,974,61
2178079,230,902,859,1025,933,61
2178095,208,900,872,1055,933,41
2178111,206,906,860,1041,901,49
2178144,166,895,832,1017,927,17
2178162,177,902,822,1021,905,17
2178178,159,908,811,1023,863,19
2178195,162,907,821,1034,929,48
2178212,153,922,824,1044,952,45
2178228,160,925,814,1031,935,45
2178260,128,919,791,1025,967,50
2178278,148,933,821,1031,953,82
2178295,132,932,787,1000,917,46
2178311,146,958,812,1034,963,86
2178328,108,935,787,1011,953,50
2178345,105,937,792,1015,891,39
2178376,98,922,779,1016,791,51
2178393,95,915,789,1018,805,50
2178410,66,901,754,995,720,15
2178428,66,910,771,1005,747,26
2178444,57,898,766,993,764,17
2178461,44,898,761,978,810,9
2178494,38,893,784,1007,782,4
2178510,57,897,795,1022,897,32
2178527,49,897,791,1007,977,22
2178544,51,897,791,1013,1004,43
2178561,47,895,779,1003,988,21
2178577,53,892,791,1013,989,26
2178609,39,893,764,992,941,14
2178627,55,891,785,1012,937,30
2178643,55,891,774,998,931,8
2178660,72,896,805,1031,973,38
2178677,47,885,782,1016,953,23
2178694,40,878,773,1005,1026,18
2178726,35,880,764,1002,1065,12
2178744,38,880,778,1008,1044,10
2178760,57,876,780,1012,1026,38
2178777,29,878,761,987,964,-10
2178793,34,881,774,1005,974,14
2178810,29,873,764,998,842,8
2178842,42,870,778,1018,881,27
2178860,33,871,756,993,844,4
2178876,39,882,795,1032,867,20
2178892,25,870,766,1003,837,13
2178910,24,869,760,997,822,-15
2178926,26,872,762,994,793,-14
2178975,28,868,748,994,759,-18
2178992,27,870,743,986,768,-26
2179009,9,876,735,968,746,-49
2179026,29,879,738,978,770,-31
2179043,18,875,737,983,746,-15
2179059,-11,886,735,989,801,-19
2179091,-42,881,732,982,735,-4
2179109,-35,875,727,977,721,-11
2179125,-30,879,728,982,717,3
2179143,-41,866,713,968,722,-21
2179159,-28,879,730,981,718,0
2179176,-14,879,726,981,689,-2
2179208,-25,875,711,961,644,-22
2179225,-35,856,703,955,620,-20
2179241,-20,870,715,972,655,-11
2179259,-31,866,710,942,610,-32
2179275,-24,869,704,941,588,-27
2179292,-21,885,733,942,667,-39
2179324,28,910,759,974,672,-1
2179342,1,902,751,949,652,-13
2179359,20,918,768,975,699,-8
2179375,-9,899,755,940,616,-29
2179392,-12,906,765,930,593,-49
2179409,-9,904,789,930,597,-45
2179440,-32,897,799,902,561,-52
2179457,-57,889,775,882,512,-76
2179474,-54,893,780,895,526,-65
2179492,-67,882,755,882,521,-84
2179508,-66,876,753,886,544,-82
2179524,-79,877,745,881,503,-83
2179558,-64,887,741,873,468,-85
2179575,-9,907,777,897,517,-52
2179591,10,913,777,895,559,-34
2179608,13,924,776,882,522,-42
2179625,-7,903,753,876,533,-56
2179642,-46,895,724,844,449,-116
2179675,-87,867,685,815,382,-160
2179691,-97,859,688,831,358,-172
2179708,-111,855,681,821,358,-178
2179725,-117,849,682,822,343,-193
2179741,-126,841,667,814,350,-204
2179758,-128,844,664,793,353,-218
2179790,-104,844,667,800,334,-216
2179808,-117,838,652,773,315,-236
2179824,-117,849,649,781,333,-247
2179841,-148,848,638,766,315,-275
2179858,-154,853,631,755,277,-275
2179874,-156,853,636,753,272,-268
2179906,-174,846,639,746,301,-254
2179923,-156,848,636,736,306,-252
2179944,-167,837,633,734,314,-247
2179957,-191,834,626,702,276,-275
2179974,-186,829,614,708,285,-274
2179991,-188,828,628,697,270,-269
2180023,-210,795,610,668,259,-289
2180039,-220,793,595,660,271,-304
2180056,-213,785,604,643,294,-301
2180074,-190,782,630,650,276,-292
2180091,-212,764,596,589,238,-321
2180107,-171,762,621,610,284,-296
2180139,-152,749,613,603,308,-300
2180157,-144,741,619,627,326,-289
2180173,-146,732,623,627,282,-286
2180190,-142,725,623,635,268,-297
2180207,-124,722,622,630,240,-271
2180223,-119,720,630,642,213,-294
2180255,-104,722,641,663,175,-278
2180272,-99,715,654,670,181,-262
2180289,-112,718,637,659,148,-282
2180307,-97,712,635,656,168,-260
2180323,-98,710,631,656,172,-258
2180340,-93,715,639,669,164,-258
2180371,-98,704,631,663,114,-267
2180388,-86,707,636,685,139,-247
2180405,-71,698,636,667,132,-260
2180423,-62,698,651,694,170,-234
2180440,-64,697,640,685,188,-261
2180456,-53,692,634,668,183,-277
2180488,-60,689,643,689,187,-284
2180506,-41,691,647,699,184,-278
2180521,-40,687,647,729,187,-273
2180539,-61,686,632,685,139,-302
2180556,-37,688,643,714,152,-284
2180572,-63,682,615,666,105,-315
2180604,-51,680,639,679,75,-320
2180622,-24,678,630,696,136,-309
2180639,1,672,641,714,123,-302
2180655,-33,662,610,677,90,-320
2180672,-17,662,613,693,67,-316
2180689,-5,671,624,696,89,-305
2180721,2,659,616,696,96,-294
2180739,18,663,622,707,115,-271
2180755,15,656,610,689,85,-268
2180772,2,647,598,685,58,-274
2180788,13,645,614,686,68,-249
2180805,18,647,628,700,62,-250
2180822,18,647,628,700,62,-250
2180854,18,647,628,700,62,-250
2180872,18,647,628,700,62,-250
2180888,18,647,628,700,62,-250
2180904,18,647,628,700,62,-250
2180922,18,647,628,700,62,-250
2180938,18,647,628,700,62,-250
2180970,18,647,628,700,62,-250
2180988,18,647,628,700,62,-250
2181004,18,647,628,700,62,-250
2181021,18,647,628,700,62,-250
2181038,18,647,628,700,62,-250
2181055,18,647,628,700,62,-250
2181087,18,647,628,700,62,-250
2181103,18,647,628,700,62,-250
2181121,18,647,628,700,62,-250
2181137,18,647,628,700,62,-250
2181154,18,647,628,700,62,-250
2181171,18,647,628,700,62,-250
2181187,18,647,628,700,62,-250
2181220,18,647,628,700,62,-250
2181237,18,647,628,700,62,-250
2181253,18,647,628,700,62,-250
2181271,18,647,628,700,62,-250
2181287,18,647,628,700,62,-250
2181304,18,647,628,700,62,-250
2181336,18,647,628,700,62,-250
2181353,18,647,628,700,62,-250
2181369,18,647,628,700,62,-250
2181387,18,647,628,700,62,-250
2181403,18,647,628,700,62,-250
2181420,18,647,628,700,62,-250
2181452,18,647,628,700,62,-250
2181470,20,643,636,704,62,-256
2181486,42,633,678,731,70,-236
2181503,120,624,725,791,134,-168
2181520,111,595,722,742,119,-218
2181537,78,572,737,730,15,-253
2181570,31,481,757,681,170,-447
2181587,-9,443,735,638,134,-364
2181603,-11,441,739,640,101,-321
2181620,7,442,747,658,95,-285
2181637,9,448,753,657,173,-262
2181654,1,435,745,628,105,-251
2181685,37,434,732,628,88,-219
2181703,47,428,723,596,53,-223
2181720,77,436,743,608,36,-190
2181736,76,420,749,610,19,-201
2181752,65,423,740,611,-38,-207
2181770,45,426,745,614,-67,-217
2181801,31,436,768,664,-159,-163
2181819,14,428,757,645,-197,-166
2181835,25,434,769,662,-161,-167
2181853,77,433,806,690,-115,-122
2181869,73,431,805,680,-129,-145
2181886,129,442,846,720,-104,-116
2181918,139,435,877,726,-92,-154
2181935,158,436,883,724,-109,-165
2181952,199,427,909,744,-101,-141
2181969,217,427,938,769,-93,-111
2181986,211,421,933,760,-111,-118
2182002,189,437,934,771,-142,-138
2182034,188,445,952,789,-179,-125
2182052,191,428,944,764,-247,-142
2182068,239,433,949,758,-244,-115
2182086,280,450,963,787,-234,-107
2182102,307,450,950,775,-306,-129
2182119,313,464,940,769,-337,-147
2182151,362,449,929,771,-409,-161
2182169,393,456,942,780,-406,-164
2182184,396,457,928,780,-468,-207
2182202,446,461,936,792,-501,-182
2182218,474,462,936,817,-509,-141
2182235,503,469,907,809,-548,-143
2182267,550,462,914,832,-602,-146
2182285,564,452,912,852,-618,-143
2182302,571,437,923,888,-663,-159
2182318,596,441,921,869,-663,-157
2182334,625,440,919,880,-655,-161
2182351,637,445,919,894,-656,-153
2182383,674,450,908,679,-749,-147
2182401,664,450,906,589,-778,-161
2182417,676,447,894,596,-808,-188
2182434,698,448,887,633,-824,-199
2182451,707,443,857,609,-884,-229
2182468,690,444,844,623,-887,-243
2182500,708,442,826,629,-928,-256
2182518,716,443,811,644,-941,-257
2182534,688,443,776,619,-984,-277
2182551,685,446,773,632,-987,-261
2182567,663,444,772,644,-984,-285
2182584,640,442,775,646,-962,-271
2182616,607,446,800,673,-948,-264
2182634,593,439,788,667,-953,-304
2182651,593,443,771,671,-977,-369
2182667,591,432,762,670,-974,-400
2182684,570,434,746,664,-990,-433
2182701,568,418,716,665,-944,-455
2182732,620,402,665,656,-952,-450
2182749,634,391,640,639,-979,-471
2182767,656,399,635,647,-951,-439
2182784,684,392,621,637,-968,-458
2182800,727,381,612,641,-939,-432
2182817,746,380,580,623,-960,-417
2182849,806,357,512,592,-1006,-430
2182867,902,371,550,632,-951,-375
2182883,988,375,584,658,-936,-334
2182900,1029,377,590,653,-926,-333
2182917,1034,377,586,655,-927,-360
2182933,1035,367,582,657,-965,-364
2182950,1029,370,561,660,-1017,-375
2182983,1014,349,548,672,-1048,-391
2183000,988,337,528,674,-1050,-422
2183017,1034,338,555,714,-1034,-403
2183033,1040,334,518,703,-1023,-425
2183050,1043,324,506,715,-1022,-461
2183066,1048,321,507,723,-1002,-463
2183083,1051,315,505,748,-990,-481
2183132,993,292,426,704,-1095,-581
2183149,961,282,421,699,-1125,-612
2183166,984,269,424,731,-1099,-609
2183183,1000,267,408,732,-1102,-623
2183200,1029,264,428,750,-1116,-620
2183216,1026,256,422,769,-1109,-624
2183249,1036,256,434,797,-1101,-619
2183266,1018,256,433,795,-1086,-626
2183283,1019,248,427,801,-1094,-649
2183299,1006,254,432,795,-1093,-636
2183316,1010,254,416,804,-1098,-631
2183333,994,258,404,813,-1064,-621
2183365,964,259,426,814,-1041,-621
2183381,959,254,424,805,-1015,-648
2183398,919,248,398,801,-1003,-634
2183416,925,246,420,830,-975,-593
2183432,906,240,394,791,-990,-602
2183448,899,231,376,792,-977,-571
2183482,880,241,366,781,-984,-546
2183499,853,233,349,775,-986,-557
2183516,837,247,327,778,-981,-555
2183532,834,239,344,766,-988,-556
2183549,834,256,345,773,-968,-556
2183565,818,252,347,743,-949,-559
2183597,799,281,363,776,-874,-513
2183615,780,302,390,791,-781,-509
2183631,780,292,361,758,-810,-501
2183648,725,290,359,743,-831,-565
2183665,658,271,322,722,-881,-628
2183682,650,266,343,746,-874,-598
2183699,603,254,318,734,-907,-628
2183731,572,244,317,746,-921,-650
2183748,583,248,343,772,-859,-635
2183764,580,246,346,776,-873,-632
2183781,608,251,369,806,-797,-606
2183798,583,251,369,811,-808,-627
2183815,585,248,370,825,-774,-613
2183847,566,254,378,800,-780,-617
2183864,582,271,395,848,-723,-573
2183882,562,262,396,841,-721,-615
2183898,550,253,407,833,-721,-588
2183914,522,246,394,838,-721,-593
2183931,521,268,424,870,-677,-553
2183963,516,278,459,896,-609,-510
2183981,516,288,466,901,-570,-483
2183997,568,304,511,927,-493,-444
2184014,514,321,515,902,-468,-428
2184031,540,339,550,950,-366,-356
2184047,499,340,548,925,-413,-384
2184080,375,349,567,942,-403,-380
2184098,315,322,572,958,-378,-364
2184114,213,312,564,958,-382,-375
2184131,199,319,555,953,-363,-359
2184148,182,324,566,985,-329,-367
2184164,165,320,559,977,-307,-369
2184196,129,333,560,988,-259,-349
2184214,99,334,549,976,-275,-363
2184230,116,336,562,985,-268,-370
2184246,64,331,520,949,-298,-401
2184263,87,337,549,964,-288,-387
2184280,71,350,547,965,-301,-380
2184312,66,346,557,1004,-238,-356
2184330,40,341,549,982,-243,-373
2184346,32,345,537,981,-259,-386
2184364,22,341,546,991,-240,-368
2184380,-18,332,517,972,-261,-393
2184397,-25,332,505,960,-263,-374
2184430,-61,330,492,965,-235,-395
2184446,-91,344,461,947,-239,-400
2184462,-90,342,455,946,-246,-410
2184480,-113,345,443,933,-251,-408
2184497,-115,346,445,954,-250,-388
2184513,-139,331,419,938,-273,-407
2184545,-166,325,400,985,-265,-414
2184563,-185,335,388,967,-257,-419
2184579,-195,334,392,967,-256,-405
2184596,-172,342,397,974,-242,-382
2184613,-190,342,393,970,-236,-375
2184630,-193,344,398,970,-199,-362
2184662,-93,398,467,1005,-36,-239
2184679,-55,410,473,1027,-3,-202
2184696,-84,412,472,1013,-15,-219
2184712,-127,390,432,982,-88,-261
2184730,-150,388,437,979,-118,-277
2184746,-161,382,427,971,-152,-296
2184778,-162,361,436,982,-145,-285
2184796,-191,359,430,974,-161,-292
2184813,-161,357,421,986,-138,-264
2184829,-170,361,434,989,-132,-280
2184846,-154,372,449,1015,-116,-257
2184862,-158,374,445,1001,-108,-256
2184894,-152,383,457,1023,-77,-228
2184912,-178,376,453,1014,-96,-231
2184928,-177,381,444,1014,-87,-228
2184946,-174,385,445,1021,-77,-232
2184962,-163,383,449,1019,-92,-230
2184979,-163,392,439,1012,-83,-237
2185011,-171,382,413,994,-121,-255
2185029,-138,391,435,1012,-86,-235
2185046,-150,383,418,1020,-96,-252
2185061,-137,383,428,1029,-70,-234
2185078,-165,382,398,1000,-93,-256
2185095,-160,382,397,1001,-90,-270
2185112,-150,387,397,1004,-92,-279
2185144,-157,381,374,990,-119,-279
2185160,-166,393,373,976,-125,-270
2185177,-158,393,373,973,-129,-275
2185195,-159,390,359,965,-125,-275
2185211,-153,396,365,984,-91,-271
2185227,-154,399,365,985,-109,-253
2185245,-180,391,359,984,-101,-260
2185277,-144,406,376,1001,-80,-236
2185295,-141,409,365,983,-89,-246
2185310,-134,414,370,984,-76,-238
2185328,-119,414,369,991,-39,-244
2185345,-125,412,375,995,-28,-241
2185361,-140,411,359,977,-20,-261
2185393,-142,407,358,990,-31,-280
2185411,-154,406,355,973,-36,-299
2185428,-169,395,346,965,-62,-319
2185443,-170,404,356,965,-54,-325
2185461,-194,394,329,939,-106,-367
2185477,-187,395,342,944,-92,-384
2185494,-195,408,359,948,-94,-409
2185526,-210,403,368,936,-111,-435
2185544,-214,413,369,941,-97,-419
2185560,-163,432,396,962,-57,-406
2185576,-111,462,413,964,44,-361
2185594,-95,482,431,961,77,-346
2185610,-124,474,393,943,32,-401
2185642,-161,460,348,906,-93,-456
2185659,-183,445,327,892,-122,-464
2185676,-209,440,315,890,-157,-495
2185694,-240,426,284,866,-185,-515
2185710,-281,407,247,812,-250,-557
2185727,-266,404,246,825,-264,-543
2185760,-274,397,226,811,-286,-603
2185777,-269,402,225,803,-286,-603
2185793,-265,399,206,805,-303,-612
2185810,-266,399,207,787,-320,-616
2185827,-279,389,187,775,-335,-640
2185844,-263,391,189,765,-345,-649
2185875,-266,387,200,766,-335,-650
2185893,-259,389,208,769,-337,-652
2185909,-273,394,195,765,-348,-650
2185927,-252,386,212,773,-321,-634
2185943,-258,390,204,757,-339,-625
2185960,-255,393,208,775,-325,-629
2185992,-236,410,211,765,-341,-603
2186010,-230,394,213,768,-323,-617
2186027,-224,403,219,779,-317,-583
2186044,-227,405,213,754,-332,-607
2186061,-220,409,225,765,-344,-596
2186077,-217,402,222,768,-339,-589
2186108,-235,399,215,751,-355,-597
2186126,-213,398,222,761,-357,-582
2186143,-233,391,221,748,-373,-597
2186159,-219,394,207,745,-379,-584
2186176,-211,396,215,743,-377,-561
2186193,-228,402,189,726,-387,-575
2186225,-211,402,203,743,-382,-557
2186242,-232,394,189,716,-398,-567
2186258,-218,396,196,716,-402,-573
2186275,-222,403,183,718,-397,-558
2186292,-217,393,197,719,-396,-570
2186309,-227,402,180,708,-414,-575
2186341,-224,396,189,739,-388,-547
2186359,-230,394,167,722,-403,-562
2186374,-214,394,185,726,-410,-541
2186392,-238,383,152,704,-441,-568
2186408,-266,389,151,691,-447,-582
2186425,-256,400,144,685,-450,-552
2186457,-242,392,159,711,-414,-542
2186475,-242,392,161,714,-448,-528
2186491,-244,403,144,698,-447,-532
2186509,-236,393,148,707,-447,-529
2186525,-245,389,157,716,-442,-520
2186541,-245,391,163,706,-446,-519
2186574,-256,391,141,695,-458,-539
2186592,-263,387,146,685,-468,-539
2186607,-243,391,146,685,-461,-549
2186625,-255,398,158,685,-482,-530
2186641,-249,399,169,698,-460,-517
2186658,-251,403,166,684,-469,-523
2186690,-217,413,178,695,-452,-508
2186708,-203,415,168,690,-442,-504
2186725,-206,414,160,686,-445,-517
2186741,-196,415,167,696,-428,-479
2186758,-225,406,136,675,-448,-493
2186774,-181,408,144,669,-451,-469
2186806,-153,406,155,686,-423,-460
2186823,-170,392,135,666,-453,-482
2186840,-152,396,148,676,-442,-472
2186858,-144,401,163,686,-451,-460
2186874,-136,405,145,687,-453,-458
2186891,-132,404,151,689,-448,-456
2186923,-126,389,146,673,-470,-474
2186940,-138,379,141,669,-476,-483
2186957,-120,382,143,676,-475,-479
2186974,-118,382,157,694,-478,-469
2186991,-97,382,167,689,-468,-457
2187007,-53,385,175,691,-479,-466
2187039,-34,385,167,686,-502,-461
2187057,-8,406,194,718,-449,-411
2187073,-4,395,202,721,-452,-413
2187090,17,405,210,739,-429,-400
2187107,14,401,222,717,-431,-402
2187124,29,404,227,727,-420,-413
2187156,45,403,228,745,-416,-396
2187173,49,399,208,731,-441,-397
2187190,31,397,211,740,-439,-394
2187206,35,398,209,746,-459,-394
2187223,48,395,220,754,-469,-373
2187240,49,397,201,747,-483,-375
2187272,56,399,216,761,-475,-348
2187289,35,405,204,759,-480,-354
2187307,54,416,233,796,-446,-332
2187324,44,411,214,782,-482,-329
2187340,74,419,241,810,-447,-289
2187356,23,412,220,780,-488,-347
2187388,60,427,243,814,-475,-294
2187406,56,424,243,811,-469,-305
2187422,70,425,247,827,-448,-286
2187439,55,431,263,829,-464,-304
2187456,56,435,264,840,-469,-297
2187473,46,439,258,838,-460,-304
2187505,28,425,242,833,-459,-330
2187523,24,423,234,832,-451,-328
2187539,9,420,223,828,-473,-339
2187556,19,423,237,841,-446,-324
2187573,24,433,234,852,-445,-314
2187589,40,442,216,839,-448,-334
2187621,37,442,216,856,-423,-315
2187638,32,445,211,854,-370,-325
2187655,27,444,211,853,-418,-319
2187671,2,442,192,846,-443,-319
2187689,8,447,190,862,-422,-306
2187705,23,453,199,872,-401,-289
2187738,-11,452,184,853,-393,-291
2187755,-13,463,184,850,-385,-281
2187772,-2,459,181,848,-399,-285
2187789,5,464,178,848,-404,-287
2187804,-10,459,153,839,-421,-297
2187822,7,459,149,847,-388,-264
2187854,-30,458,121,820,-410,-307
2187872,-15,462,131,837,-376,-285
2187888,6,472,142,853,-369,-280
2187905,-27,465,142,839,-362,-282
2187921,-40,464,130,823,-383,-308
2187938,-36,466,142,838,-387,-325
2187970,-32,468,136,829,-388,-339
2187987,-40,463,139,839,-377,-348
2188005,-27,469,148,848,-344,-326
2188020,-41,464,132,842,-362,-354
2188037,-36,468,109,843,-331,-357
2188055,-25,464,109,861,-312,-346
2188087,-33,469,44,851,-345,-366
2188104,-42,470,24,838,-345,-390
2188121,-51,459,29,831,-385,-394
2188138,-42,470,51,849,-455,-388
2188155,-36,465,72,847,-442,-370
2188171,-25,480,77,852,-436,-367
2188203,14,499,98,863,-365,-342
2188221,48,508,151,889,-357,-315
2188238,98,533,183,901,-272,-270
2188254,124,543,205,922,-236,-234
2188271,114,537,197,901,-256,-251
2188288,128,546,223,928,-211,-217
2188320,120,546,206,917,-212,-218
2188336,124,543,197,932,-181,-224
2188354,111,543,197,932,-188,-235
2188370,112,559,218,939,-153,-218
2188387,103,555,217,921,-162,-229
2188404,97,554,203,921,-152,-241
2188436,87,544,202,933,-159,-225
2188454,71,543,187,915,-191,-262
2188470,76,542,195,937,-175,-259
2188486,86,551,205,952,-114,-236
2188503,83,552,204,947,-87,-240
2188520,57,542,200,929,-128,-261
2188553,64,535,215,942,-120,-239
2188570,44,543,206,936,-117,-239
2188587,39,544,216,937,-91,-231
2188604,49,563,245,952,-80,-226
2188620,55,563,250,942,-66,-226
2188637,25,557,228,923,-105,-259
2188670,-7,559,225,924,-161,-292
2188687,-29,548,208,918,-202,-304
2188703,-51,539,186,899,-224,-347
2188720,-53,541,200,917,-238,-332
2188737,-60,540,204,911,-275,-343
2188753,-85,538,193,904,-299,-361
2188786,-127,521,186,895,-387,-405
2188803,-121,528,183,885,-378,-411
2188820,-122,520,167,876,-407,-414
2188836,-129,523,150,855,-417,-437
2188853,-135,523,155,871,-449,-429
2188870,-150,510,161,868,-443,-433
2188902,-164,516,166,870,-442,-427
2188919,-166,505,155,862,-442,-436
2188935,-173,502,162,862,-445,-434
2188953,-166,504,173,876,-424,-431
2188969,-152,504,182,883,-412,-413
2188986,-150,508,195,880,-413,-397
2189018,-158,507,202,882,-405,-389
2189036,-176,502,187,856,-407,-409
2189052,-173,503,190,859,-374,-393
2189069,-163,507,199,874,-339,-376
2189086,-185,502,198,870,-369,-381
2189102,-179,501,186,861,-368,-387
2189135,-162,510,204,880,-361,-369
2189152,-179,501,204,860,-352,-375
2189169,-175,504,206,856,-348,-377
2189184,-174,509,206,857,-350,-377
2189202,-158,519,221,865,-314,-369
2189218,-134,536,236,875,-286,-348
2189251,-103,559,274,902,-209,-309
2189268,-92,566,281,903,-173,-299
2189285,-87,565,297,898,-151,-276
2189302,-86,573,293,886,-114,-272
2189318,-86,577,294,889,-132,-276
2189335,-89,573,311,903,-90,-256
2189367,-92,586,325,898,-100,-265
2189385,-128,572,292,876,-129,-297
2189402,-122,575,296,874,-123,-288
2189418,-135,575,294,877,-119,-302
2189435,-164,573,286,871,-142,-320
2189451,-174,565,291,863,-135,-332
2189484,-207,566,280,853,-172,-367
2189501,-219,568,275,824,-231,-403
2189517,-229,567,290,837,-218,-401
2189535,-253,563,282,808,-262,-435
2189551,-268,558,281,814,-275,-444
2189568,-262,557,295,815,-271,-448
2189600,-452,555,298,797,-249,-459
2189616,-556,557,294,773,-294,-499
2189634,-491,539,274,774,-271,-495
2189650,-486,543,285,771,-315,-525
2189668,-496,529,271,751,-302,-559
2189684,-485,530,275,756,-328,-537
2189716,-501,517,264,731,-316,-560
2189733,-522,517,262,725,-319,-585
2189750,-547,509,233,693,-342,-626
2189767,-519,519,246,714,-318,-625
2189783,-488,506,241,703,-319,-630
2189801,-471,473,225,690,-303,-634
2189832,-475,475,210,660,-334,-672
2189850,-469,460,210,676,-328,-657
2189866,-487,462,194,640,-390,-676
2189884,-473,460,201,645,-350,-676
2189900,-483,460,184,636,-374,-684
2189917,-496,447,182,637,-390,-710
2189950,-456,438,200,663,-381,-691
2189967,-447,444,198,665,-420,-693
2189984,-430,443,206,693,-373,-673
2190000,-456,442,190,676,-423,-707
2190017,-432,441,193,689,-402,-698
2190033,-421,436,205,702,-395,-673
2190066,-407,440,191,684,-402,-693
2190083,-413,440,175,670,-393,-702
2190100,-437,421,156,672,-412,-729
2190116,-418,431,171,683,-407,-696
2190133,-415,429,171,691,-419,-698
2190150,-409,430,169,690,-422,-705
2190182,-412,428,163,723,-446,-702
2190199,-419,422,159,716,-480,-704
2190216,-406,406,167,747,-444,-682
2190233,-387,412,172,765,-428,-667
2190249,-384,416,178,788,-411,-660
2190266,-401,408,153,782,-439,-674
2190298,-386,411,165,794,-449,-669
2190316,-372,412,167,802,-448,-675
2190332,-359,413,176,814,-436,-643
2190349,-376,403,162,809,-420,-650
2190366,-354,400,174,814,-440,-645
2190382,-348,410,166,804,-435,-646
2190415,-336,395,172,814,-433,-629
2190433,-327,391,187,831,-408,-619
2190448,-330,393,167,809,-442,-628
2190466,-291,398,186,830,-384,-603
2190482,-302,396,185,817,-390,-618
2190499,-301,392,177,810,-398,-632
2190531,-298,384,193,827,-432,-637
2190549,-255,384,222,860,-407,-581
2190566,-260,383,216,866,-412,-579
2190582,-246,384,238,874,-416,-587
2190614,-220,376,242,872,-444,-568
2190647,-207,357,257,853,-482,-584
2190665,-202,367,269,872,-456,-565
2190682,-151,362,267,853,-468,-579
2190698,-118,367,284,843,-476,-555
2190715,-78,376,327,870,-439,-524
2190732,-70,376,324,873,-418,-496
2190797,-186,358,342,844,-455,-489
2190815,-196,355,362,863,-445,-454
2190831,-181,358,370,865,-421,-443
2190848,-164,350,380,868,-389,-421
2190865,-155,353,382,879,-362,-378
2190880,-132,349,380,877,-370,-363
2190898,-107,343,384,894,-313,-337
2190930,-63,339,414,897,-299,-331
2190948,-74,327,399,880,-348,-374
2190964,-62,310,394,873,-362,-399
2190980,-53,310,394,881,-360,-394
2190997,-25,305,397,881,-363,-399
2191014,-3,306,401,881,-353,-379
2191046,-13,286,392,889,-356,-389
2191064,-13,286,398,904,-356,-389
2191080,-13,286,398,904,-356,-389
2191097,-13,286,398,904,-356,-389
2191114,-13,286,398,904,-356,-389
2191131,-13,286,398,904,-356,-389
2191163,-13,286,398,904,-356,-389
2191180,-13,286,398,904,-356,-389
2191196,-13,286,398,904,-356,-389
2191214,-13,286,398,904,-356,-389
2191230,-13,286,398,904,-356,-389
2191247,-13,286,398,904,-356,-389
2191279,-13,286,398,904,-356,-389
2191297,-13,286,398,904,-356,-389
2191313,-13,286,398,904,-356,-389
2191330,-13,286,398,904,-356,-389
2191347,-13,286,398,904,-356,-389
2191362,-13,286,398,904,-356,-389
2191395,-13,286,398,904,-356,-389
2191413,-13,286,398,904,-356,-389
2191430,-13,286,398,904,-356,-389
2191446,-13,286,398,904,-356,-389
2191463,-13,286,398,904,-356,-389
2191480,-13,286,398,904,-356,-389
2191513,-13,286,398,904,-356,-389
2191530,-13,286,398,904,-356,-389
2191546,-13,286,398,904,-356,-389
2191563,-13,286,398,904,-356,-389
2191579,-13,286,398,904,-356,-389
2191596,-13,286,398,904,-356,-389
2191628,90,286,435,905,-307,-382
2191646,165,261,428,917,-355,-350
2191663,234,247,407,897,-347,-357
2191679,273,240,401,892,-357,-284
2191695,302,240,459,896,-360,-231
2191712,302,240,459,896,-360,-231
2191761,302,240,459,896,-360,-231
2191779,302,240,459,896,-360,-231
2191795,332,244,489,887,-376,-237
2191812,343,267,517,885,-325,-248
2191829,392,284,562,929,-255,-229
2191845,416,286,558,934,-221,-236
2191878,439,293,556,943,-243,-226
2191895,451,304,575,967,-225,-226
2191912,455,300,574,966,-206,-216
2191929,447,302,558,947,-215,-229
2191945,450,307,564,945,-225,-248
2191962,475,322,587,968,-203,-218
2191994,488,327,590,983,-181,-194
2192012,481,321,567,976,-200,-208
2192027,455,314,542,957,-223,-218
2192045,489,316,562,971,-207,-205
2192062,479,312,546,984,-207,-216
2192077,457,309,538,967,-230,-229
2192095,453,302,527,952,-250,-239
2192127,448,310,549,975,-242,-207
2192145,450,313,551,968,-251,-218
2192162,449,314,555,974,-244,-211
2192178,445,319,566,981,-240,-199
2192195,461,326,548,964,-210,-170
2192211,435,318,521,955,-240,-200
2192243,429,319,539,977,-204,-184
2192260,407,318,513,943,-221,-224
2192278,312,282,418,857,-355,-324
2192293,347,291,468,909,-315,-264
2192311,346,287,478,938,-289,-265
2192328,353,297,504,958,-254,-247
2192360,337,295,502,957,-238,-234
2192378,316,296,502,939,-252,-241
2192394,324,297,520,960,-229,-235
2192411,343,309,530,970,-211,-214
2192428,339,304,511,962,-207,-215
2192444,359,313,521,971,-162,-203
2192477,306,316,507,957,-163,-172
2192494,309,320,525,966,-179,-161
2192511,307,318,519,965,-161,-172
2192527,302,324,523,974,-151,-159
2192544,298,324,515,976,-131,-147
2192561,277,328,477,945,-143,-150
2192592,200,310,446,920,-169,-210
2192609,228,318,467,974,-135,-141
2192626,232,318,461,946,-134,-144
2192644,230,325,466,968,-123,-140
2192661,216,330,457,965,-129,-133
2192677,225,329,469,975,-120,-120
2192709,239,335,469,956,-112,-127
2192727,244,337,467,962,-92,-123
2192743,217,336,439,954,-112,-160
2192760,231,335,452,954,-100,-158
2192777,208,330,449,940,-121,-196
2192793,224,338,462,965,-96,-176
2192825,224,335,457,976,-88,-161
2192843,227,346,465,998,-75,-142
2192859,242,355,459,988,-68,-152
2192876,267,363,484,1016,-22,-120
2192893,252,369,454,990,-36,-108
2192910,254,368,454,1002,-49,-130
2192942,242,366,441,1000,-35,-142
2192959,240,367,444,1010,-29,-142
2192976,269,377,453,1003,-31,-111
2192993,219,365,414,980,-71,-164
2193009,230,382,434,990,-52,-145
2193026,228,373,427,1001,-44,-155
2193058,194,381,416,983,-70,-183
2193076,200,383,411,992,-56,-175
2193091,205,375,425,993,-62,-180
2193109,202,387,422,992,-50,-174
2193125,191,392,418,982,-41,-191
2193142,173,388,404,967,-61,-201
2193174,192,387,421,1001,-22,-151
2193191,169,406,415,1001,-20,-161
2193209,166,397,416,1002,-12,-179
2193226,150,394,406,986,-32,-190
2193241,149,393,426,1003,-32,-190
2193259,142,414,420,998,2,-172
2193291,150,417,396,990,-5,-203
2193309,130,417,372,981,22,-193
2193325,134,431,392,998,19,-181
2193341,131,433,416,1019,71,-156
2193358,106,423,419,1021,68,-162
2193375,71,411,423,1012,34,-167
2193407,26,402,398,983,1,-202
2193425,9,401,389,964,-20,-239
2193441,-3,396,372,965,-41,-233
2193458,-28,399,367,942,-59,-249
2193475,-30,391,362,939,-62,-255
2193492,-22,379,372,937,-87,-240
2193524,-67,379,364,911,-132,-291
2193541,-59,383,385,935,-91,-282
2193558,-71,384,370,924,-96,-292
2193575,-69,376,366,923,-105,-297
2193590,-70,376,353,928,-111,-298
2193609,-69,381,351,929,-128,-312
2193640,-106,386,346,922,-150,-322
2193658,-95,398,337,929,-148,-318
2193675,-110,395,321,909,-178,-336
2193691,-107,403,317,918,-164,-336
2193708,-113,396,303,906,-201,-346
2193724,-87,412,316,919,-175,-330
2193757,-80,416,315,926,-174,-317
2193774,-82,416,304,929,-183,-316
2193790,-80,420,302,930,-183,-324
2193808,-69,421,309,932,-187,-311
2193824,-51,431,325,956,-160,-302
2193841,-36,428,327,959,-157,-290
2193873,-60,427,322,956,-162,-304
2193891,-41,430,316,971,-152,-310
2193907,-61,424,317,949,-171,-329
2193924,-66,436,319,948,-174,-329
2193941,-81,432,302,935,-188,-342
2193957,-93,427,282,937,-184,-342
2193989,-96,433,294,944,-160,-330
2194008,-93,438,309,944,-164,-344
2194024,-97,438,311,944,-161,-332
2194040,-85,453,312,952,-117,-319
2194057,-103,443,308,951,-115,-338
2194074,-115,436,310,947,-102,-336
2194106,-128,436,306,933,-87,-357
2194123,-121,429,314,946,-97,-336
2194140,-106,445,318,952,-89,-337
2194157,-85,457,340,977,-67,-309
2194173,-109,461,344,981,-83,-307
2194190,-106,470,354,998,-65,-292
2194222,-107,468,335,986,-87,-289
2194240,-119,478,348,1001,-84,-285
2194257,-136,483,343,997,-96,-272
2194272,-151,476,322,980,-100,-263
2194290,-174,473,322,975,-98,-253
2194306,-206,472,307,960,-137,-271
2194339,-183,500,321,973,-137,-227
2194357,-200,502,314,968,-155,-242
2194372,-200,494,304,960,-174,-253
2194390,-226,495,300,953,-181,-264
2194406,-223,490,317,961,-165,-257
2194423,-227,480,305,965,-177,-252
2194455,-252,477,285,936,-182,-290
2194472,-235,485,307,948,-163,-281
2194488,-229,481,311,958,-157,-266
2194506,-198,505,334,976,-120,-242
2194522,-223,496,318,958,-147,-272
2194540,-233,491,322,955,-170,-298
2194571,-205,504,355,977,-101,-253
2194588,-186,505,359,993,-90,-254
2194605,-178,504,365,985,-85,-240
2194623,-179,508,367,981,-91,-255
2194639,-159,504,376,992,-56,-239
2194656,-163,513,345,962,-98,-272
2194687,-161,520,353,967,-87,-263
2194705,-131,515,370,994,-73,-243
2194722,-130,523,386,983,-103,-241
2194738,-92,515,402,1007,-1,-223
2194756,-119,504,393,995,22,-231
2194772,-116,507,398,996,8,-232
2194804,-126,506,373,974,-2,-258
2194822,-128,511,377,975,-28,-256
2194839,-112,512,404,1005,11,-212
2194856,-138,511,381,966,-10,-247
2194872,-115,517,401,988,-3,-227
2194889,-133,510,392,971,-13,-245
2194921,-129,508,391,971,-32,-243
2194938,-129,522,406,987,-30,-242
2194958,-132,518,418,990,-35,-234
2194971,-144,526,412,985,-45,-242
2194987,-136,531,422,1000,-38,-235
2195004,-147,531,411,982,-65,-257
2195022,-138,530,424,998,-22,-224
2195054,-168,529,421,993,-41,-251
2195071,-162,518,421,998,-34,-256
2195088,-178,522,408,967,-70,-268
2195105,-147,531,437,997,-28,-247
2195121,-171,530,417,970,-70,-271
2195138,-172,539,414,986,-55,-275
2195170,-173,539,425,983,-30,-261
2195187,-194,540,417,979,-31,-269
2195204,-215,541,410,967,-35,-280
2195220,-233,539,403,961,-35,-278
2195237,-236,546,405,962,-32,-260
2195254,-252,533,396,952,-46,-269
2195286,-249,554,398,950,-62,-264
2195304,-245,554,407,935,-67,-286
2195320,-247,549,403,946,-73,-295
2195337,-246,543,410,965,-59,-275
2195354,-257,551,412,955,-53,-276
2195370,-252,544,419,968,-43,-257
2195402,-260,541,421,947,-56,-265
2195419,-252,538,428,949,-65,-260
2195436,-251,544,428,949,-35,-262
2195454,-253,541,405,944,-50,-262
2195470,-235,544,447,975,-16,-252
2195487,-232,537,431,950,-58,-244
2195519,-248,532,420,937,-67,-256
2195536,-234,534,435,948,-66,-238
2195552,-194,558,457,971,-44,-221
2195569,-223,543,434,948,-91,-233
2195587,-214,546,438,958,-57,-220
2195604,-230,542,432,958,-61,-238
2195635,-215,546,449,955,-34,-225
2195653,-231,538,425,946,-71,-253
2195669,-209,564,451,953,-54,-226
2195687,-222,540,429,931,-67,-261
2195702,-238,543,425,939,-95,-259
2195720,-238,542,427,949,-94,-268
2195752,-227,556,425,949,-94,-249
2195769,-220,564,438,956,-89,-236
2195785,-216,560,434,956,-95,-251
2195802,-211,569,438,965,-88,-243
2195820,-205,562,423,954,-95,-244
2195836,-195,577,445,974,-86,-228
2195870,-201,574,450,961,-90,-234
2195886,-214,581,444,962,-95,-228
2195903,-207,568,435,959,-113,-229
2195920,-207,570,443,961,-89,-202
2195936,-208,575,448,958,-91,-205
2195953,-194,579,448,972,-99,-191
2195985,-196,578,469,995,-25,-162
2196002,-203,573,474,992,7,-152
2196019,-198,579,472,978,-25,-154
2196036,-219,574,463,979,-43,-177
2196052,-220,581,461,970,-58,-179
2196069,-222,593,478,978,-62,-162
2196101,-245,593,449,968,-92,-169
2196118,-242,593,452,972,-87,-181
2196136,-296,587,447,967,-89,-204
2196152,-320,583,432,952,-93,-210
2196169,-355,590,444,955,-70,-194
2196185,-362,581,428,940,-89,-221
2196217,-385,572,429,929,-115,-224
2196235,-389,577,432,938,-119,-201
2196252,-393,590,440,935,-115,-212
2196268,-392,598,448,942,-50,-209
2196285,-396,583,443,955,-28,-199
2196302,-412,567,439,949,-32,-192
2196334,-401,564,456,950,-29,-181
2196352,-401,560,459,937,-42,-202
2196367,-411,560,455,932,-47,-199
2196385,-397,554,457,932,-65,-210
2196402,-395,541,458,939,-61,-206
2196418,-387,556,462,938,-61,-194
2196450,-380,563,475,950,-60,-194
2196467,-365,561,467,949,-62,-171
2196484,-364,565,474,950,-52,-161
2196501,-380,555,459,940,-88,-178
2196518,-358,565,475,945,-73,-153
2196534,-351,563,475,955,-57,-121
2196567,-349,554,469,961,7,-93
2196585,-347,558,458,958,-8,-62
2196601,-327,563,473,971,2,-77
2196618,-340,555,459,954,-32,-76
2196634,-347,544,448,943,-48,-107
2196651,-325,558,467,954,-46,-80
2196683,-311,562,463,952,-31,-59
2196700,-304,561,466,954,-41,-46
2196717,-302,566,467,947,-35,-58
2196734,-311,575,458,949,-66,-72
2196751,-295,566,469,963,-27,-52
2196768,-298,575,476,951,-37,-65
2196800,-288,573,479,949,-37,-78
2196817,-279,574,481,959,-31,-63
2196834,-290,574,476,952,-11,-76
2196851,-289,580,466,960,-25,-67
2196867,-286,584,466,961,13,-68
2196884,-309,568,450,949,-20,-91
2196916,-311,600,410,887,-135,-166
2196932,-306,610,401,893,-171,-172
2196950,-311,604,398,896,-145,-179
2196967,-309,602,398,902,-160,-187
2196983,-303,604,388,907,-141,-178
2197000,-300,601,390,920,-151,-190
2197033,-314,600,378,911,-142,-197
2197050,-292,613,393,922,-124,-181
2197067,-298,612,382,912,-115,-193
2197083,-321,606,363,910,-103,-189
2197100,-327,608,374,914,-93,-196
2197117,-356,603,363,902,-98,-202
2197149,-355,609,363,896,-115,-200
2197165,-349,613,370,893,-90,-182
2197183,-347,602,366,892,-123,-195
2197199,-341,599,368,886,-128,-195
2197216,-345,595,356,900,-108,-189
2197233,-337,608,373,901,-120,-182
2197265,-336,607,363,892,-126,-190
2197283,-316,608,378,908,-110,-194
2197299,-320,611,382,913,-115,-184
2197316,-298,600,388,915,-110,-180
2197332,-288,611,403,918,-96,-176
2197349,-300,617,383,912,-103,-183
2197381,-286,607,377,901,-122,-189
2197399,-263,603,389,915,-107,-183
2197416,-273,599,384,917,-130,-192
2197431,-265,606,384,916,-132,-187
2197449,-242,599,399,939,-74,-188
2197465,-244,583,385,923,-94,-182
2197498,-253,589,378,920,-89,-183
2197516,-246,586,381,925,-90,-175
2197532,-226,588,389,931,-89,-169
2197548,-232,586,380,925,-95,-168
2197566,-205,589,387,926,-87,-158
2197582,-202,596,400,942,-93,-150
2197615,-178,601,414,935,-89,-144
2197632,-165,600,424,946,-54,-133
2197649,-176,603,408,921,-97,-160
2197665,-152,599,421,929,-83,-154
2197682,-164,611,408,927,-88,-157
2197699,-178,595,391,914,-94,-175
2197730,-149,618,443,960,-64,-141
2197747,-126,619,451,950,-59,-124
2197764,-114,615,455,961,-64,-102
2197782,-108,616,455,958,-46,-85
2197798,-102,615,456,951,-54,-99
2197816,-111,617,451,940,-45,-95
2197847,-111,613,449,938,-67,-86
2197864,-107,619,447,940,-68,-104
2197880,-91,622,455,943,-91,-102
2197898,-108,611,438,933,-84,-121
2197915,-84,629,461,968,-19,-88
2197931,-87,604,457,965,0,-88
2197964,-87,616,462,972,-25,-98
2197981,-99,614,445,948,-30,-112
2197997,-98,622,432,938,-32,-119
2198015,-91,620,435,936,-37,-127
2198031,-91,627,428,938,-22,-138
2198048,-98,626,426,945,-14,-136
2198064,-112,627,434,937,-1,-126
2198097,-125,623,438,917,-29,-136
2198114,-132,623,432,917,-36,-140
2198131,-127,631,431,914,-47,-142
2198148,-153,634,438,906,-60,-148
2198164,-154,632,428,899,-86,-153
2198180,-146,632,434,917,-60,-127
2198213,-138,638,455,918,-65,-125
2198230,-125,646,466,926,-58,-127
2198247,-120,647,482,919,-72,-131
2198264,-103,655,478,922,-59,-122
2198280,-74,661,513,945,-53,-104
2198297,-80,658,507,923,-64,-109
2198329,-43,664,532,946,-41,-105
2198347,-28,660,551,956,-14,-92
2198363,-30,663,553,946,-17,-99
2198380,-37,658,570,934,-62,-103
2198397,-22,670,592,935,-64,-101
2198413,-17,674,603,921,-100,-123
2198446,-2,674,643,939,-61,-101
2198462,9,673,652,946,-54,-86
2198479,6,668,640,929,-84,-114
2198496,-5,665,633,908,-114,-128
2198512,-6,664,631,911,-120,-132
2198530,11,665,647,927,-116,-123
2198562,2,661,614,920,-124,-138
2198580,13,670,619,926,-155,-148
2198595,23,682,620,924,-173,-141
2198613,2,691,597,914,-229,-184
2198630,2,691,606,915,-235,-172
2198646,0,691,585,913,-236,-175
2198678,1,696,579,917,-226,-180
2198696,-4,693,576,923,-217,-178
2198713,-1,694,573,915,-236,-182
2198729,10,689,568,931,-214,-181
2198746,2,690,575,928,-228,-170
2198763,7,694,546,922,-222,-175
2198794,-5,695,538,901,-210,-198
2198811,-17,694,522,902,-212,-205
2198828,-36,689,511,881,-250,-222
2198846,-20,695,523,899,-219,-198
2198862,-17,695,515,901,-237,-202
2198879,-7,707,524,911,-203,-170
2198911,-4,710,523,914,-185,-167
2198928,-3,719,515,921,-190,-197
2198946,-2,719,516,906,-183,-202
2198962,-14,728,521,925,-186,-196
2198979,-23,727,522,915,-182,-208
2198996,-35,727,526,908,-193,-201
2199044,-57,719,517,936,-218,-191
2199062,-38,717,527,942,-120,-152
2199079,-54,705,523,932,-120,-154
2199094,-45,716,527,943,-118,-131
2199112,-53,713,516,914,-152,-160
2199129,-44,713,524,936,-152,-142
2199160,-40,714,524,927,-158,-142
2199177,-31,719,517,921,-154,-144
2199194,-25,717,518,918,-153,-143
2199212,-15,724,525,922,-120,-147
2199228,5,722,535,920,-119,-131
2199245,0,722,523,916,-143,-140
2199278,27,723,531,931,-137,-117
2199295,38,722,537,931,-132,-103
2199312,40,727,539,923,-150,-100
2199329,33,719,527,914,-165,-104
2199345,32,720,524,911,-179,-119
2199361,36,715,524,892,-206,-121
2199393,35,713,534,895,-222,-124
2199411,40,712,532,897,-216,-133
2199428,43,714,549,896,-231,-118
2199443,55,716,557,895,-225,-119
2199461,52,717,568,891,-204,-128
2199478,67,712,557,891,-176,-109
2199510,67,706,555,900,-181,-117
2199528,59,706,548,889,-187,-129
2199544,56,703,541,895,-184,-121
2199561,60,712,542,897,-182,-113
2199577,70,715,548,899,-182,-102
2199594,61,718,542,886,-208,-115
2199626,76,719,529,871,-229,-118
2199644,91,724,533,880,-209,-101
2199660,73,722,530,889,-216,-114
2199677,79,724,529,896,-214,-110
2199693,91,734,530,894,-205,-92
2199710,107,730,554,914,-178,-79
2199742,115,753,553,910,-171,-71
2199760,150,769,582,931,-140,-43
2199777,172,794,593,933,-120,-21
2199793,220,810,624,958,-53,23
2199810,198,810,614,936,-86,9
2199827,168,804,582,917,-124,-46
2199858,98,797,551,885,-162,-98
2199875,82,786,549,876,-181,-111
2199892,44,781,527,865,-186,-124
2199909,19,773,512,856,-232,-136
2199927,15,780,519,862,-217,-117
2199943,3,773,522,868,-219,-122
2199975,5,770,535,875,-189,-93
2199992,2,780,528,871,-205,-96
2200009,1,770,526,881,-183,-90
2200026,4,772,538,877,-178,-75
2200043,28,776,543,893,-152,-68
2200060,32,776,540,879,-150,-69
2200091,61,782,541,886,-125,-47
2200109,53,770,546,882,-170,-62
2200125,65,768,537,874,-168,-65
2200143,86,769,550,883,-159,-49
2200159,77,763,522,860,-175,-69
2200176,78,762,527,865,-190,-71
2200209,106,759,534,858,-177,-69
2200226,122,753,547,881,-150,-49
2200243,117,752,527,855,-169,-65
2200259,165,760,552,887,-137,-29
2200276,160,759,555,881,-125,-31
2200292,176,752,565,890,-118,-23
2200325,165,748,541,861,-159,-54
2200342,183,751,552,866,-148,-40
2200359,183,750,542,866,-167,-62
2200375,185,753,543,860,-161,-48
2200392,178,744,526,859,-177,-62
2200409,188,752,552,864,-185,-64
2200440,185,741,541,852,-212,-72
2200458,183,738,544,843,-213,-76
2200475,176,741,524,821,-225,-80
2200492,185,737,526,831,-208,-72
2200508,200,732,555,850,-198,-56
2200525,211,743,553,855,-179,-48
2200557,235,748,576,864,-147,-37
2200575,269,747,630,901,-79,26
2200591,273,743,639,872,-68,4
2200608,367,790,821,1037,182,116
2200625,517,822,876,1063,287,253
2200641,545,850,906,1069,362,293
2200674,568,877,914,1034,391,323
2200691,598,891,931,1058,444,348
2200708,603,901,931,1037,465,342
2200724,607,901,930,1045,469,354
2200741,605,917,951,1079,523,345
2200758,604,927,923,1037,486,319
2200790,618,949,871,1006,468,222
2200808,645,982,903,1037,519,245
2200823,597,987,872,985,461,187
2200841,590,1021,842,972,489,216
2200857,582,1037,862,1001,490,205
2200874,574,1057,853,978,481,220
2200907,549,1098,842,997,506,267
2200924,511,1102,792,961,484,242
2200941,556,1125,796,1015,549,286
2200957,518,1133,753,967,488,226
2200974,547,1137,784,991,544,253
2200991,545,1137,812,1012,556,238
2201022,565,1121,811,987,568,266
2201040,553,1135,794,967,532,259
2201056,565,1140,816,985,554,276
2201074,546,1142,803,959,527,249
2201089,548,1146,822,962,514,241
2201106,561,1136,830,986,545,276
2201139,530,1118,806,935,505,236
2201157,521,1108,810,935,478,214
2201173,531,1105,832,952,504,235
2201190,525,1109,837,954,502,220
2201207,515,1101,840,928,493,206
2201223,503,1092,835,931,477,178
2201255,509,1095,862,952,502,212
2201272,465,1079,859,944,444,156
2201290,483,1081,836,917,467,147
2201305,460,1081,859,929,477,160
2201323,460,1081,859,929,477,160
2201340,460,1081,859,929,477,160
2201356,460,1081,859,929,477,160
2201388,460,1081,859,929,477,160
2201405,460,1081,859,929,477,160
2201423,460,1081,859,929,477,160
2201440,460,1081,859,929,477,160
2201456,460,1081,859,929,477,160
2201473,460,1081,859,929,477,160
2201505,460,1081,859,929,477,160
2201522,460,1081,859,929,477,160
2201538,460,1081,859,929,477,160
2201556,460,1081,859,929,477,160
2201572,460,1081,859,929,477,160
2201589,460,1081,859,929,477,160
2201621,460,1081,859,929,477,160
2201639,460,1081,859,929,477,160
2201655,460,1081,859,929,477,160
2201672,460,1081,859,929,477,160
2201689,460,1081,859,929,477,160
2201705,460,1081,859,929,477,160
2201737,460,1081,859,929,477,160
2201754,460,1081,859,929,477,160
2201772,460,1081,859,929,477,160
2201789,460,1081,859,929,477,160
2201805,460,1081,859,929,477,160
2201822,460,1081,859,929,477,160
2201854,460,1081,859,929,477,160
2201872,460,1081,859,929,477,160
2201887,460,1081,859,929,477,160
2201905,460,1081,859,929,477,160
2201922,460,1081,859,929,477,160
2201938,460,1081,859,929,477,160
2201970,460,1081,859,929,477,160
2201988,460,1081,859,929,477,160
2202005,460,1081,859,929,477,160
2202021,460,1081,859,929,477,160
2202038,460,1081,859,929,477,160
2202054,469,1098,878,949,497,170
2202087,351,1178,748,909,420,183
2202104,240,1237,679,870,325,113
2202121,161,1233,648,803,305,36
2202138,47,1230,658,796,262,-15
2202155,-42,1240,759,808,340,85
2202171,-57,1243,762,809,379,99
2202203,-40,1231,760,824,360,133
2202220,-36,1235,751,830,356,121
2202236,-40,1220,748,818,362,128
2202254,-65,1219,728,795,345,109
2202271,-54,1223,734,796,339,115
2202287,-86,1200,670,772,282,62
2202319,-125,1185,647,768,189,27
2202337,-137,1165,633,775,132,13
2202353,-159,1138,597,750,64,-8
2202371,-176,1124,576,745,15,-41
2202387,-190,1108,559,729,-9,-34
2202404,-216,1093,534,717,-65,-63
2202436,-235,1077,512,633,-93,196
2202454,-255,1072,508,622,-109,185
2202470,-267,1066,484,614,-126,173
2202487,-255,1069,481,628,-135,169
2202503,-226,1065,502,645,-114,200
2202520,-243,1074,489,619,-150,172
2202552,-236,1069,482,625,-150,183
2202569,-230,1073,490,645,-128,208
2202588,-223,1072,497,650,-143,217
2202603,-228,1077,486,648,-149,208
2202620,-206,1083,483,647,-160,212
2202637,-167,1109,518,664,-152,190
2202668,-222,1110,492,636,-214,167
2202685,-246,1102,477,607,-255,158
2202702,-242,1112,483,607,-269,160
2202719,-254,1124,489,613,-281,184
2202736,-248,1129,489,613,-293,188
2202753,-248,1135,490,599,-311,167
2202785,-227,1138,493,621,-307,189
2202802,-206,1142,498,632,-294,216
2202819,-209,1131,491,630,-315,223
2202836,-211,1131,471,637,-317,235
2202853,-182,1127,469,629,-312,255
2202870,-198,1122,449,622,-348,239
2202901,-130,1112,470,635,-342,263
2202919,-124,1111,463,632,-355,266
2202935,-128,1104,457,627,-347,256
2202953,-111,1101,487,636,-356,267
2202969,-108,1107,490,620,-376,265
2202986,-83,1096,486,625,-320,300
2203002,-57,1077,490,629,-295,312
2203034,-16,1076,533,578,-292,320
2203052,-14,1069,526,533,-310,311
2203068,-13,1065,527,454,-315,307
2203086,15,1049,512,386,-291,315
2203101,3,1035,497,312,-313,296
2203118,11,1027,482,365,-331,270
2203151,23,1023,470,412,-342,246
2203167,35,1016,461,424,-354,241
2203185,39,1016,454,422,-362,223
2203202,52,1014,462,453,-366,217
2203217,52,1006,444,422,-393,176
2203235,68,1000,458,448,-393,163
2203268,85,987,451,443,-421,138
2203285,105,985,447,448,-423,133
2203302,136,985,456,474,-401,133
2203318,141,978,461,489,-391,133
2203335,141,961,463,496,-342,145
2203352,124,961,457,491,-347,130
2203384,131,945,468,507,-380,107
2203401,123,937,451,503,-408,82
2203418,140,933,444,504,-413,85
2203435,123,927,434,508,-420,68
2203451,127,918,428,510,-440,65
2203468,118,911,419,516,-449,35
2203500,119,900,421,512,-481,-1
2203518,135,896,414,531,-494,-26
2203534,113,883,388,510,-528,-63
2203551,145,896,408,540,-497,-54
2203568,143,886,409,534,-534,-83
2203584,149,884,387,510,-562,-108
2203616,85,876,373,500,-661,-110
2203634,81,855,354,485,-672,-102
2203651,54,834,349,474,-691,-112
2203667,64,834,367,493,-685,-74
2203684,62,830,372,492,-679,-53
2203701,58,826,372,502,-659,-21
2203733,52,807,373,502,-689,-17
2203749,68,809,384,528,-658,-10
2203767,67,791,380,519,-655,-12
2203784,75,801,440,572,-625,30
2203800,105,796,452,567,-631,22
2203817,97,790,449,570,-651,13
2203849,112,768,449,572,-657,-6
2203867,133,747,440,575,-657,-11
2203884,132,724,433,564,-660,-19
2203900,137,718,444,570,-668,-19
2203916,175,733,458,573,-687,-22
2203933,183,732,446,566,-711,-52
2203965,265,737,475,583,-700,-52
2203983,287,721,452,567,-710,-55
2203999,372,728,476,594,-678,-31
2204017,415,721,502,585,-680,-42
2204033,446,696,512,601,-695,-45
2204050,512,697,530,600,-687,-47
2204082,575,685,539,601,-716,-36
2204100,639,686,547,609,-712,-78
2204116,644,670,529,570,-779,-130
2204133,647,665,541,593,-775,-112
2204150,615,648,529,583,-837,-118
2204166,539,636,503,564,-874,-175
2204198,524,596,445,541,-917,-195
2204215,545,588,433,543,-915,-220
2204232,549,563,387,513,-949,-229
2204250,549,552,358,513,-972,-254
2204265,572,531,346,508,-979,-248
2204283,556,502,341,515,-1006,-277
2204315,569,490,271,502,-1128,-346
2204333,523,471,230,485,-1170,-390
2204349,503,468,227,514,-1198,-392
2204366,514,449,205,492,-1254,-424
2204383,511,436,178,490,-1254,-452
2204399,553,445,203,506,-1255,-452
2204431,527,422,136,466,-1306,-534
2204449,524,412,156,472,-1322,-561
2204465,517,411,154,476,-1289,-551
2204481,487,401,128,472,-1291,-562
2204499,484,381,127,469,-1278,-547
2204516,463,395,127,465,-1287,-549
2204548,474,434,163,485,-1256,-521
2204565,472,441,154,465,-1280,-521
2204581,429,460,167,469,-1256,-479
2204599,416,470,148,441,-1269,-487
2204615,361,475,125,417,-1309,-498
2204632,372,498,165,444,-1252,-501
2204664,380,550,193,472,-1244,-473
2204682,390,605,195,486,-1238,-487
2204699,459,667,255,540,-1180,-415
2204715,499,720,277,531,-1209,-407
2204732,497,739,264,515,-1233,-433
2204748,547,779,318,537,-1188,-399
2204781,583,836,328,542,-1226,-386
2204798,692,881,293,530,-1253,-424
2204815,722,988,267,524,-1283,-399
2204831,730,1164,265,501,-1342,-460
2204848,696,1352,211,466,-1282,-535
2204865,714,1644,228,484,-1165,-549
2204897,746,2587,241,514,-983,-572
2204915,728,2947,227,494,-805,-604
2204931,727,3346,231,413,-565,-609
2204948,732,3857,190,398,-439,-626
2204964,727,4052,186,503,-375,-641
2204981,716,4196,181,558,-219,-642
2205013,683,4097,114,573,-37,-690
2205031,681,4122,97,587,23,-715
2205047,684,4126,72,573,49,-751
2205063,667,4069,54,592,226,-740
2205081,599,3911,-17,568,206,-807
2205098,598,3778,-64,549,203,-827
2205130,571,3517,-73,559,272,-849
2205148,561,3440,-90,554,326,-848
2205164,520,3305,-141,548,361,-862
2205181,507,3254,-152,530,387,-877
2205196,496,3182,-193,532,421,-882
2205214,463,3065,-261,476,394,-906
2205246,639,2962,-283,468,457,-938
2205263,659,2914,-313,453,478,-953
2205279,742,2882,-317,472,518,-922
2205297,826,2834,-334,464,516,-933
2205314,822,2794,-370,434,532,-945
2205329,725,2748,-369,430,537,-944
2205362,746,2665,-410,388,584,-951
2205380,699,2617,-433,385,636,-956
2205396,659,2577,-457,377,596,-960
2205414,622,2538,-486,353,581,-985
2205430,588,2507,-495,346,568,-985
2205447,516,2472,-525,318,517,-1029
2205480,436,2432,-529,298,467,-1045
2205496,385,2414,-540,300,448,-1058
2205513,350,2382,-567,266,385,-1101
2205530,306,2375,-564,253,369,-1105
2205547,257,2349,-600,218,291,-1151
2205563,513,2456,-302,505,633,-832
2205595,624,2499,-154,579,753,-698
2205613,641,2498,-113,581,745,-679
2205629,665,2505,-91,605,760,-641
2205646,692,2509,-55,613,791,-607
2205663,696,2513,-52,622,813,-603
2205679,718,2508,-23,631,847,-578
2205696,746,2503,-20,648,851,-561
2205729,778,2474,-2,656,869,-524
2205746,774,2444,25,662,861,-540
2205762,773,2421,15,661,869,-515
2205779,753,2403,14,669,868,-520
2205795,744,2392,-11,644,864,-551
2205813,797,2399,39,680,916,-502
2205845,922,2439,126,719,1103,-369
2205863,926,2449,136,743,1152,-328
2205878,925,2434,143,734,1162,-330
2205895,905,2417,139,739,1144,-327
2205912,849,2383,96,697,1026,-402
2205929,836,2362,78,688,979,-429
2205961,778,2309,27,668,864,-469
2205979,750,2287,12,672,828,-483
2205995,707,2260,-16,641,725,-520
2206012,707,2224,-7,651,663,-525
2206029,653,2191,-20,632,611,-555
2206045,628,2165,-19,627,568,-581
2206077,627,2128,-27,628,518,-590
2206095,623,2125,-7,645,504,-588
2206111,600,2113,-1,646,479,-583
2206128,601,2114,8,651,486,-566
2206145,590,2094,12,667,485,-556
2206161,549,2082,16,656,470,-553
2206194,513,2055,-4,655,445,-561
2206212,498,2039,-11,642,428,-580
2206228,491,2033,-8,650,412,-579
2206245,496,2041,5,659,413,-539
2206277,466,2008,11,658,392,-538
2206310,433,2001,6,655,355,-544
2206327,405,1985,-8,660,328,-544
2206343,358,1973,-32,648,294,-555
2206361,342,1972,-28,646,292,-568
2206377,327,1952,-25,657,317,-568
2206394,342,1953,-36,652,323,-576
2206427,345,1945,-39,658,344,-554
2206444,403,1951,-6,693,408,-496
2206461,512,2001,96,748,589,-331
2206478,557,2013,129,770,631,-257
2206494,552,2018,137,757,636,-192
2206511,539,2001,129,769,617,-183
2206543,444,1938,74,717,415,-279
2206560,396,1915,49,701,355,-307
2206576,348,1880,18,661,264,-367
2206594,319,1856,10,657,230,-369
2206611,295,1841,-9,655,200,-388
2206627,248,1817,-25,645,162,-409
2206660,227,1791,-24,650,118,-426
2206677,219,1784,-15,658,137,-400
2206694,289,1797,17,674,201,-352
2206710,368,1839,75,714,348,-245
2206727,399,1849,108,716,420,-203
2206744,388,1838,107,731,394,-190
2206776,335,1808,108,741,191,-232
2206793,276,1774,74,663,135,-281
2206810,222,1731,58,654,68,-302
2206826,176,1705,36,636,23,-335
2206843,129,1680,29,626,-10,-363
2206860,114,1668,14,623,-57,-388
2206877,107,1646,10,635,-61,-392
2206909,63,1611,10,639,-108,-410
2206926,35,1591,-10,619,-152,-424
2206943,9,1585,-7,619,-156,-419
2206959,7,1575,11,648,-154,-396
2206976,-17,1564,10,640,-178,-415
2206993,-19,1554,15,644,-188,-411
2207025,-61,1545,-4,641,-217,-404
2207043,-83,1529,-16,644,-242,-419
2207059,-86,1526,-14,657,-241,-402
2207076,-132,1514,-20,639,-277,-417
2207092,-114,1515,2,656,-235,-381
2207109,-126,1511,11,657,-245,-386
2207142,-165,1490,-3,635,-291,-403
2207160,-202,1475,-12,641,-281,-416
2207176,-220,1460,-19,622,-297,-406
2207193,-218,1459,7,660,-277,-380
2207209,-231,1443,10,651,-295,-392
2207226,-237,1437,16,650,-294,-387
2207258,-242,1426,14,651,-280,-403
2207276,-249,1418,5,637,-296,-409
2207291,-243,1417,11,655,-276,-391
2207309,-305,1403,-14,620,-310,-414
2207325,-313,1383,-8,612,-326,-416
2207342,-342,1381,-36,599,-356,-430
2207374,-360,1364,-19,608,-354,-406
2207392,-362,1358,-8,615,-368,-406
2207409,-392,1344,-9,608,-373,-406
2207424,-390,1347,-11,633,-346,-396
2207442,-385,1344,7,635,-336,-369
2207459,-395,1322,5,626,-342,-377
2207490,-396,1308,19,636,-349,-379
2207507,-386,1313,27,639,-333,-371
2207524,-384,1289,45,652,-319,-356
2207542,-383,1301,45,645,-310,-357
2207558,-377,1286,48,658,-293,-351
2207574,-367,1290,58,669,-298,-331
2207607,-374,1284,65,661,-285,-317
2207624,-383,1274,58,669,-279,-314
2207641,-375,1285,71,660,-271,-321
2207658,-352,1288,80,673,-251,-269
2207675,-256,1324,147,710,-141,-199
2207692,-209,1346,192,729,-50,-129
2207724,-179,1346,231,744,27,-74
2207741,-203,1341,223,753,32,-79
2207758,-227,1328,217,746,2,-103
2207775,-254,1323,209,731,-49,-140
2207791,-242,1323,214,742,-11,-122
2207808,-250,1318,227,724,-19,-122
2207841,-208,1338,279,709,30,-47
2207857,-210,1329,260,678,40,-63
2207874,-229,1328,282,717,51,-47
2207892,-292,1295,240,680,-21,-106
2207908,-310,1287,233,685,-77,-143
2207924,-358,1265,203,657,-169,-183
2207956,-391,1243,196,665,-246,-228
2207974,-411,1215,177,651,-286,-253
2207990,-451,1200,172,641,-307,-291
2208007,-473,1187,146,622,-330,-302
2208024,-476,1188,171,653,-313,-287
2208041,-467,1190,172,652,-300,-297
2208073,-433,1193,209,691,-228,-238
2208091,-408,1216,276,698,-167,-206
2208106,-296,1258,341,768,-10,-99
2208123,-248,1281,378,781,146,-34
2208140,-248,1289,378,767,141,-53
2208157,-250,1287,381,780,159,-56
2208189,-329,1254,340,741,63,-145
2208207,-363,1240,324,715,-33,-179
2208223,-409,1212,318,716,-86,-187
2208240,-440,1192,295,710,-134,-212
2208257,-500,1173,265,679,-199,-271
2208273,-510,1162,255,684,-217,-275
2208305,-518,1148,276,713,-213,-244
2208323,-535,1135,272,713,-214,-250
2208339,-549,1132,262,710,-212,-261
2208356,-562,1102,250,693,-220,-275
2208373,-545,1099,244,697,-242,-263
2208389,-549,1094,251,698,-235,-276
2208421,-527,1072,263,702,-245,-274
2208438,-515,1087,262,698,-253,-269
2208455,-512,1070,266,703,-274,-273
2208472,-503,1069,268,697,-275,-274
2208490,-486,1058,260,704,-270,-256
2208506,-488,1056,269,715,-274,-258
2208538,-492,1048,280,690,-302,-268
2208555,-475,1047,283,692,-290,-250
2208571,-482,1041,286,688,-304,-253
2208589,-468,1038,284,676,-313,-263
2208605,-455,1037,299,697,-288,-240
2208623,-477,1026,293,679,-321,-256
2208655,-456,1018,313,724,-290,-231
2208672,-444,1025,320,821,-285,-226
2208689,-437,1012,310,801,-279,-219
2208706,-457,1006,292,780,-313,-249
2208722,-468,998,274,752,-329,-277
2208739,-457,994,287,758,-313,-263
2208772,-452,988,305,784,-288,-261
2208788,-444,996,294,760,-321,-269
2208806,-442,1003,301,755,-323,-257
2208822,-422,1008,306,822,-325,-257
2208839,-427,1005,300,850,-306,-251
2208855,-444,993,301,866,-322,-258
2208887,-431,988,306,854,-307,-246
2208905,-430,983,313,828,-289,-246
2208922,-440,990,319,813,-269,-237
2208939,-346,1021,377,850,-168,-140
2208955,-213,1071,455,888,13,-34
2208972,-183,1092,463,858,30,-19
2208988,-162,1109,493,882,73,14
2209020,-226,1090,449,833,2,-43
2209037,-225,1083,454,843,-2,-33
2209055,-255,1072,424,806,-62,-85
2209071,-238,1068,432,818,-63,-88
2209088,-277,1067,407,787,-126,-115
2209105,-308,1053,387,766,-164,-145
2209137,-351,1038,387,760,-203,-156
2209155,-375,1013,362,756,-232,-182
2209170,-382,1007,357,750,-229,-162
2209188,-425,983,333,724,-277,-203
2209204,-415,984,350,744,-258,-187
2209221,-441,976,337,725,-283,-200
2209253,-421,963,355,746,-261,-192
2209271,-432,954,345,735,-278,-207
2209287,-423,960,356,743,-253,-184
2209304,-427,946,338,720,-272,-198
2209321,-420,939,338,694,-291,-207
2209337,-443,938,314,688,-311,-223
2209370,-435,935,327,695,-308,-231
2209387,-427,927,328,692,-299,-215
2209404,-422,921,328,688,-292,-207
2209421,-426,924,346,699,-276,-207
2209437,-413,919,349,695,-278,-187
2209454,-396,930,354,708,-254,-175
2209486,-386,924,385,719,-225,-154
2209504,-383,913,373,715,-240,-165
2209520,-397,917,363,690,-290,-173
2209537,-404,917,354,667,-328,-194
2209554,-414,913,350,660,-357,-204
2209570,-420,906,327,662,-351,-220
2209603,-410,892,326,661,-350,-211
2209620,-440,885,307,631,-395,-233
2209637,-416,880,318,638,-389,-227
2209653,-419,886,327,645,-382,-212
2209670,-405,885,336,657,-364,-185
2209686,-384,903,362,680,-299,-182
2209719,-120,990,455,728,-75,0
2209736,-93,1001,461,726,-62,-11
2209753,-109,998,462,732,-31,10
2209770,-99,992,473,731,-48,-6
2209787,-138,975,456,718,-84,-39
2209803,-144,966,450,706,-94,-39
2209835,-203,919,392,684,-166,-86
2209853,-238,903,379,677,-203,-129
2209869,-259,886,375,687,-220,-147
2209886,-267,879,369,666,-225,-156
2209903,-273,864,364,669,-241,-163
2209920,-287,859,351,661,-235,-171
2209952,-287,851,349,665,-219,-153
2209969,-277,846,353,673,-194,-135
2209986,-281,839,328,660,-201,-167
2210002,-288,834,339,656,-193,-162
2210019,-288,840,338,644,-183,-157
2210036,-283,838,364,678,-143,-110
2210068,-294,826,372,668,-151,-105
2210086,-271,836,404,700,-117,-74
2210102,-289,833,379,661,-165,-88
2210119,-280,833,387,670,-149,-71
2210135,-289,831,390,670,-142,-70
2210152,-257,836,405,695,-26,-38
2210184,-212,837,423,735,145,38
2210202,-169,844,451,766,220,82
2210219,-151,844,449,758,270,100
2210235,-180,838,426,734,215,53
2210252,-202,816,413,725,156,24
2210269,-209,817,415,721,141,18
2210301,-233,802,397,707,77,-17
2210319,-244,785,398,707,45,-36
2210334,-244,787,386,697,43,-45
2210352,-272,770,364,664,-9,-63
2210368,-267,766,372,681,19,-70
2210385,-251,774,383,680,27,-57
2210417,-76,851,482,751,244,96
2210435,-56,861,474,726,273,107
2210450,13,890,539,772,348,164
2210468,5,870,520,758,348,168
2210484,-20,866,492,737,237,127
2210501,-43,857,504,740,198,92
2210534,-140,815,439,688,16,-9
2210551,-147,804,445,707,-17,-2
2210568,-173,787,430,693,-42,-24
2210585,-177,780,425,687,-66,-44
2210601,-201,774,401,662,-83,-59
2210618,-231,763,405,660,-126,-83
2210650,-236,757,406,664,-132,-105
2210668,-229,758,412,677,-121,-87
2210684,-246,754,399,672,-118,-104
2210701,-242,746,400,666,-128,-113
2210718,-260,746,379,654,-148,-127
2210734,-277,735,362,648,-175,-160
2210799,-277,733,377,660,-186,-177
2210817,-289,725,370,647,-202,-186
2210833,-286,721,362,648,-212,-195
2210850,-276,724,376,658,-188,-168
2210867,-316,711,348,635,-221,-198
2210883,-316,722,364,643,-196,-195
2210916,-309,723,358,641,-177,-212
2210934,-323,711,352,625,-190,-224
2210950,-317,722,375,644,-147,-194
2210967,-328,723,377,640,-169,-199
2210984,-338,712,368,642,-155,-193
2211000,-334,701,363,630,-174,-198
2211032,-361,703,351,618,-187,-206
2211049,-340,704,370,643,-163,-186
2211067,-348,702,357,637,-170,-191
2211083,-350,701,354,629,-187,-192
2211100,-333,703,362,652,-176,-182
2211117,-341,690,366,633,-194,-190
2211148,-345,702,353,624,-281,-214
2211166,-326,696,368,633,-254,-202
2211183,-301,709,382,671,-234,-173
2211199,-305,701,382,656,-228,-186
2211216,-315,702,366,649,-235,-193
2211233,-318,698,359,634,-259,-196
2211265,-290,702,354,652,-239,-164
2211283,-291,689,357,651,-235,-162
2211299,-293,689,346,648,-239,-175
2211316,-307,685,324,629,-243,-176
2211333,-304,680,313,624,-264,-182
2211349,-300,683,322,626,-244,-158
2211382,-309,680,309,624,-256,-163
2211399,-308,673,305,634,-264,-152
2211415,-299,681,317,624,-278,-142
2211432,-310,671,305,621,-296,-158
2211449,-295,665,303,630,-282,-141
2211466,-313,669,289,624,-291,-157
2211498,-297,660,311,629,-282,-146
2211514,-287,657,311,627,-291,-150
2211532,-287,657,300,637,-322,-137
2211549,-291,663,293,623,-353,-166
2211565,-291,663,307,639,-353,-166
2211582,-291,663,307,639,-353,-166
2211614,-291,663,307,639,-353,-166
2211631,-291,663,307,639,-353,-166
2211648,-291,663,307,639,-353,-166
2211665,-291,663,307,639,-353,-166
2211681,-291,663,307,639,-353,-166
2211698,-291,663,307,639,-353,-166
2211730,-291,663,307,639,-353,-166
2211748,-291,663,307,639,-353,-166
2211765,-291,663,307,639,-353,-166
2211782,-291,663,307,639,-353,-166
2211797,-291,663,307,639,-353,-166
2211815,-291,663,307,639,-353,-166
2211847,-291,663,307,639,-353,-166
2211865,-291,663,307,639,-353,-166
2211881,-291,663,307,639,-353,-166
2211898,-291,663,307,639,-353,-166
2211914,-291,663,307,639,-353,-166
2211931,-291,663,307,639,-353,-166
2211963,-291,663,307,639,-353,-166
2211981,-291,663,307,639,-353,-166
2211997,-291,663,307,639,-353,-166
2212015,-291,663,307,639,-353,-166
2212031,-291,663,307,639,-353,-166
2212048,-291,663,307,639,-353,-166
2212096,-291,663,307,639,-353,-166
2212114,-291,663,307,639,-353,-166
2212130,-291,663,307,639,-353,-166
2212147,-291,663,307,639,-353,-166
2212164,-291,663,307,639,-353,-166
2212180,-291,663,307,639,-353,-166
2212213,-291,663,307,639,-353,-166
2212230,-291,663,307,639,-353,-166
2212247,-298,656,304,645,-324,-165
2212264,-129,730,464,731,-125,-5
2212280,-221,683,363,653,-224,-119
2212297,-308,635,330,677,-273,-143
2212329,-98,597,417,694,-181,-83
2212347,-52,588,464,717,-93,-49
2212363,-49,596,477,714,-89,-44
2212380,-70,598,459,704,-119,-59
2212397,-46,606,489,726,-87,-35
2212413,-48,603,488,719,-78,-43
2212445,-47,611,483,715,-93,-64
2212462,-62,614,487,708,-98,-73
2212480,-47,627,502,719,-102,-62
2212496,-42,629,503,717,-109,-61
2212513,-54,629,498,723,-93,-64
2212530,-70,632,496,713,-120,-68
2212562,-73,632,491,719,-127,-71
2212580,-58,641,518,736,-121,-50
2212596,-70,641,520,724,-125,-55
2212612,-85,634,512,723,-137,-64
2212630,-78,643,519,723,-126,-48
2212646,-84,639,514,742,-102,-41
2212678,-22,685,570,753,-14,32
2212695,45,718,600,772,77,81
2212713,73,731,618,775,148,115
2212729,71,737,630,790,199,140
2212746,61,727,619,788,214,144
2212762,35,718,610,778,217,129
2212794,34,719,612,785,227,132
2212812,32,715,615,789,224,126
2212829,42,720,630,796,220,142
2212845,22,708,628,792,219,120
2212862,52,719,652,806,222,158
2212879,30,707,643,799,225,144
2212911,29,707,645,799,221,137
2212929,12,697,631,799,207,116
2212944,15,685,621,802,210,131
2212961,10,681,617,781,171,102
2212979,17,669,624,798,181,128
2212995,8,682,627,800,181,114
2213027,19,684,643,802,155,131
2213045,27,681,645,806,176,137
2213062,25,677,623,797,149,127
2213078,30,676,629,797,159,144
2213095,22,669,617,782,147,140
2213112,14,663,620,778,120,136
2213145,11,669,607,772,94,104
2213161,1,661,610,778,75,117
2213178,11,663,617,784,60,139
2213195,15,668,627,800,88,136
2213211,24,651,610,781,81,137
2213228,26,662,612,782,85,128
2213261,50,659,624,795,109,125
2213278,48,669,627,798,124,140
2213295,56,664,633,790,91,120
2213311,41,676,629,803,109,111
2213328,54,670,638,802,100,110
2213345,42,672,626,794,85,89
2213376,39,673,641,803,93,103
2213394,40,678,632,794,56,80
2213410,35,670,637,807,94,106
2213427,40,677,636,813,74,112
2213444,20,673,628,800,31,81
2213461,34,683,643,811,47,107
2213493,50,694,663,820,64,130
2213511,23,687,646,817,62,106
2213527,4,686,633,799,46,91
2213544,7,684,638,802,30,86
2213561,11,684,649,825,34,103
2213577,8,688,660,819,35,99
2213609,-16,689,661,813,32,90
2213627,-15,690,649,813,32,81
2213644,-26,689,649,796,15,75
2213661,-24,696,641,802,32,58
2213677,5,706,671,819,80,88
2213694,2,712,675,819,98,112
2213726,-34,701,659,803,97,83
2213743,-49,701,647,790,84,71
2213760,-71,697,651,793,73,54
2213777,-62,701,646,803,79,73
2213793,-56,695,646,802,54,66
2213810,-37,712,672,815,72,86
2213842,-42,708,664,803,47,80
2213860,-38,712,662,799,27,60
2213876,-30,723,677,811,40,76
2213892,-34,711,674,803,27,67
2213909,-28,718,683,794,26,75
2213926,-29,712,684,805,27,77
2213959,-23,723,691,809,32,84
2213976,-11,728,680,806,26,101
2213992,-8,722,690,807,33,99
2214010,-6,726,716,811,53,105
2214026,7,725,725,816,65,117
2214042,6,724,735,827,68,104
2214075,9,721,730,826,85,112
2214092,10,722,716,815,88,100
2214109,15,715,736,819,111,118
2214126,6,723,725,804,92,70
2214143,21,711,712,795,107,79
2214160,9,714,714,794,71,53
2214192,35,708,726,805,61,55
2214209,9,718,730,783,43,42
2214226,19,707,732,783,15,22
2214242,2,706,723,770,-5,9
2214259,1,714,729,771,-17,10
2214275,0,712,723,754,-55,-12
2214308,-3,721,707,750,-90,-30
2214325,-4,716,718,747,-93,-41
2214343,-20,716,702,721,-116,-63
2214359,-28,711,703,712,-122,-58
2214376,-17,717,713,716,-124,-56
2214392,1,726,731,733,-112,-53
2214424,22,729,747,736,-72,-37
2214442,9,732,739,726,-77,-65
2214459,2,722,735,719,-87,-79
2214475,3,722,736,719,-94,-86
2214492,-3,718,745,720,-89,-89
2214509,-11,719,746,714,-113,-104
2214541,7,724,758,716,-128,-114
2214557,-13,720,744,693,-186,-148
2214575,-16,718,740,685,-200,-149
2214591,-26,724,741,675,-214,-149
2214608,-37,730,739,674,-219,-174
2214625,-15,738,741,675,-218,-171
2214657,-39,733,729,652,-226,-186
2214674,-59,727,725,634,-244,-176
2214690,-62,728,716,628,-256,-183
2214708,-67,727,723,628,-249,-144
2214724,-76,720,704,623,-264,-139
2214741,-69,728,720,626,-256,-121
2214773,-70,717,711,610,-291,-126
2214790,-60,729,737,633,-280,-106
2214807,-44,730,737,628,-257,-78
2214824,-31,736,747,626,-276,-61
2214841,-50,727,738,610,-303,-79
2214857,-79,726,726,598,-345,-110
2214890,-91,719,706,571,-394,-142
2214908,-92,713,703,569,-418,-148
2214923,-59,719,733,583,-394,-115
2214941,-55,725,733,579,-403,-112
2214957,-63,719,707,558,-423,-125
2214974,-79,712,710,552,-448,-127
2215007,-86,714,703,541,-480,-138
2215024,-86,712,705,547,-500,-146
2215041,-66,710,718,564,-469,-118
2215057,-56,712,713,567,-501,-141
2215074,-58,702,705,558,-502,-131
2215091,-53,701,703,561,-504,-128
2215123,-66,685,685,552,-526,-146
2215140,-30,693,712,583,-505,-124
2215157,-33,690,705,589,-509,-115
2215174,-17,694,722,598,-493,-109
2215191,-10,692,713,609,-498,-97
2215207,-22,681,703,588,-520,-123
2215239,-15,685,708,597,-578,-135
2215256,-32,674,688,581,-612,-158
2215273,-37,670,686,584,-658,-167
2215290,-24,674,700,600,-661,-164
2215307,-46,663,684,591,-696,-181
2215323,-38,669,679,597,-690,-181
2215355,-32,671,679,605,-709,-185
2215373,-42,665,672,609,-719,-195
2215389,-52,663,671,594,-759,-208
2215406,-44,662,678,600,-723,-202
2215423,-66,660,661,588,-780,-236
2215440,-61,659,671,587,-771,-224
2215472,-63,645,680,601,-769,-192
2215489,-73,650,677,604,-776,-172
2215506,-67,650,676,608,-762,-166
2215522,-59,655,685,615,-747,-136
2215539,-69,648,672,611,-751,-131
2215556,-76,654,683,619,-739,-114
2215588,-69,653,688,628,-712,-87
2215606,-78,648,667,601,-719,-86
2215622,-77,651,679,611,-700,-88
2215638,-74,655,687,616,-674,-57
2215655,-93,655,682,606,-670,-46
2215673,-96,655,684,603,-631,-43
2215705,-129,642,664,595,-624,-48
2215722,-168,630,671,600,-640,-51
2215738,-200,639,660,597,-632,-71
2215755,-190,640,667,627,-613,-53
2215772,-200,636,663,626,-614,-47
2215789,-208,631,662,626,-619,-49
2215821,-200,636,673,650,-572,-12
2215839,-195,640,668,656,-561,7
2215854,-186,634,659,658,-562,11
2215872,-176,629,670,667,-536,18
2215888,-168,631,672,662,-555,13
2215906,-173,623,657,663,-568,-10
2215937,-160,618,644,664,-535,-23
2215955,-145,624,650,676,-528,-8
2215972,-143,619,650,675,-530,-17
2215987,-137,624,651,684,-507,-10
2216005,-140,624,648,673,-507,-21
2216022,-120,625,652,684,-504,-16
2216054,-94,624,672,696,-488,-5
2216071,-103,628,661,691,-486,-26
2216088,-92,625,670,714,-452,-27
2216104,-95,622,664,702,-460,-47
2216122,-69,623,669,719,-436,-23
2216138,-98,605,644,700,-445,-49
2216170,-87,606,634,695,-431,-67
2216187,-87,597,646,706,-410,-68
2216203,-90,600,645,705,-419,-80
2216221,-44,607,670,739,-370,-29
2216238,-63,597,661,727,-387,-48
2216255,-54,598,663,735,-382,-47
2216287,-53,614,672,734,-354,-48
2216304,-34,603,673,753,-339,-17
2216321,-45,608,672,742,-386,-44
2216337,-53,606,663,737,-373,-43
2216354,-61,607,666,750,-361,-50
2216371,-44,605,679,758,-350,-50
2216404,-47,604,677,759,-315,-56
2216420,-40,612,695,772,-306,-55
2216437,-37,609,699,786,-287,-66
2216454,-59,599,687,769,-291,-83
2216471,-47,604,710,783,-269,-75
2216487,-41,603,698,767,-263,-90
2216519,-12,621,717,789,-218,-58
2216537,-28,616,705,785,-214,-48
2216553,-32,608,698,783,-189,-78
2216570,-51,602,696,769,-187,-87
2216587,-58,600,690,779,-192,-112
2216604,-42,619,698,785,-174,-94
2216636,-74,606,686,772,-212,-114
2216653,-111,600,679,770,-266,-150
2216670,-100,607,670,769,-248,-125
2216686,-118,608,673,781,-255,-119
2216703,-149,598,650,759,-282,-142
2216719,-154,608,668,773,-267,-126
2216752,-155,607,680,801,-243,-108
2216769,-133,608,676,801,-235,-101
2216787,-138,603,673,752,-211,-97
2216802,-148,602,698,642,-219,-94
2216819,-144,613,697,656,-176,-75
2216836,-152,602,695,660,-182,-86
2216868,-167,599,678,678,-189,-108
2216886,-150,601,698,686,-181,-79
2216902,-158,601,698,701,-187,-85
2216920,-156,605,700,707,-185,-86
2216936,-152,592,694,710,-186,-80
2216952,-176,597,684,699,-191,-102
2216985,-168,611,710,732,-162,-91
2217003,-190,580,682,710,-200,-104
2217019,-165,604,706,755,-179,-80
2217036,-158,596,704,757,-150,-79
2217052,-159,588,721,766,-116,-80
2217069,-141,600,714,778,-125,-82
2217101,-131,586,720,792,-96,-63
2217119,-119,588,726,802,-90,-61
2217136,-119,582,727,804,-89,-65
2217152,-105,585,730,798,-111,-69
2217168,-109,588,724,796,-125,-83
2217185,-92,584,728,794,-107,-71
2217217,-71,602,766,847,-53,-34
2217234,-81,590,767,838,-65,-39
2217252,-89,599,769,831,-73,-45
2217269,-69,589,777,852,-56,-27
2217285,-61,604,780,856,-29,-13
2217302,-52,611,789,865,-30,-12
2217334,-39,610,784,850,-35,-6
2217352,-34,611,793,873,-19,-5
2217368,-28,612,794,878,12,4
2217385,-22,613,805,890,31,12
2217402,3,614,804,892,33,32
2217418,12,615,824,916,63,45
2217450,39,633,842,928,137,56
2217468,34,616,803,893,91,9
2217484,49,618,797,896,83,-5
2217501,81,637,814,906,89,21
2217518,72,630,793,888,62,-16
2217535,117,647,825,912,115,16
2217567,97,642,803,891,124,-6
2217585,146,653,822,942,178,35
2217601,147,644,789,897,140,16
2217617,147,640,801,921,185,20
2217634,151,642,796,921,173,20
2217651,177,645,832,941,193,52
2217683,211,646,814,946,244,53
2217700,204,652,811,938,238,39
2217717,218,644,814,934,245,34
2217733,269,663,857,982,332,64
2217751,267,642,823,948,356,39
2217767,309,674,833,963,404,46
2217799,374,662,841,965,668,37
2217817,413,668,877,988,748,64
2217833,410,655,858,972,678,28
2217850,426,667,832,951,694,38
2217867,448,679,868,994,706,44
2217884,472,664,832,942,676,-18
2217916,522,694,864,972,678,15
2217934,544,685,880,996,690,32
2217949,572,699,894,997,702,46
2217966,616,689,903,1002,680,55
2217983,638,695,905,975,628,44
2218000,643,694,887,951,596,18
2218032,685,670,877,914,540,-26
2218050,734,681,886,928,586,13
2218067,757,670,871,931,641,22
2218083,761,682,896,941,745,11
2218099,816,687,919,948,925,73
2218116,798,691,911,936,1132,44
2218148,928,755,999,1012,1435,152
2218165,978,785,1051,1064,1571,217
2218182,1023,807,1111,1093,1705,269
2218200,1053,842,1150,1119,1853,305
2218217,1058,852,1130,1071,1890,294
2218233,1100,883,1160,1103,2010,334
2218265,1146,917,1170,1078,2139,407
2218282,1160,933,1238,1141,2320,422
2218299,1073,930,1160,1049,2319,324
2218315,1147,958,1234,1119,2487,394
2218333,1114,976,1216,1068,2531,367
2218350,1138,986,1210,1025,2622,390
2218382,1106,999,1216,1043,2716,394
2218399,1088,1004,1204,1020,2684,361
2218415,1058,1002,1172,976,2620,283
2218432,1044,1030,1159,953,2644,257
2218449,1052,1054,1160,949,2738,247
2218466,1029,1064,1173,953,2830,254
2218498,993,1073,1165,928,2986,268
2218516,973,1087,1140,907,3094,292
2218531,964,1101,1176,954,3177,329
2218548,900,1072,1127,888,3100,273
2218566,911,1087,1160,908,3099,307
2218582,832,1070,1105,864,3029,255
2218614,808,1063,1112,842,3002,263
2218632,810,1054,1111,851,2996,266
2218649,840,1056,1107,837,3044,273
2218665,842,1048,1102,842,3050,278
2218682,842,1049,1104,840,3088,287
2218699,810,1040,1070,793,3068,248
2218731,814,1035,1073,786,3098,262
2218747,819,1041,1095,787,3111,266
2218764,796,1027,1073,774,3038,246
2218781,801,1024,1075,773,3031,271
2218798,811,1014,1073,756,2987,247
2218814,865,1039,1127,786,3029,287
2218847,930,1062,1162,798,3061,353
2218864,936,1077,1148,764,3029,355
2218881,972,1085,1199,816,3084,416
2218898,936,1070,1162,779,2986,374
2218914,962,1088,1184,798,2986,413
2218931,920,1079,1156,755,2935,372
2218980,938,1077,1155,767,2869,358
2218997,909,1066,1138,737,2836,339
2219014,904,1063,1123,735,2769,322
2219031,877,1054,1087,694,2664,292
2219047,859,1066,1101,696,2617,270
2219064,831,1047,1072,667,2515,222
2219082,851,1046,1096,702,2527,262
2219113,804,1041,1055,650,2340,193
2219131,791,1038,1050,641,2257,165
2219147,761,1036,1049,641,2183,138
2219164,782,1049,1019,638,2189,162
2219181,735,1041,1007,657,2103,123
2219197,732,1045,1026,657,2085,120
2219229,706,1045,1023,641,2013,79
2219247,714,1053,1026,680,2032,109
2219263,707,1053,1005,677,1966,84
2219281,685,1036,1015,705,1933,71
2219297,668,1040,962,642,1898,42
