TIME,AF3,F7,F3,F4,F8,AF4
2404035,-2047,-1257,-99,777,-627,-938
2404050,-2025,-1253,-93,777,-636,-934
2404067,-2010,-1225,-96,777,-648,-917
2404085,-2004,-1227,-107,777,-659,-935
2404117,-2027,-1197,-127,777,-665,-919
2404134,-2011,-1169,-125,777,-660,-873
2404151,-1981,-1171,-127,779,-651,-876
2404168,-1981,-1164,-127,780,-657,-877
2404185,-1974,-1138,-127,780,-658,-888
2404201,-1943,-1134,-127,779,-652,-870
2404235,-1914,-1108,-125,781,-680,-880
2404252,-1910,-1106,-121,781,-691,-910
2404269,-1898,-1103,-127,781,-686,-898
2404285,-1879,-1071,-124,781,-687,-867
2404302,-1866,-1074,-128,777,-702,-890
2404319,-1854,-1065,-100,776,-722,-866
2404350,-1833,-1039,-118,779,-703,-888
2404367,-1821,-1038,-124,779,-699,-872
2404384,-1793,-1009,-125,776,-704,-877
2404401,-1806,-1013,-124,780,-719,-869
2404417,-1790,-1002,-125,777,-716,-870
2404434,-1759,-995,-126,781,-718,-878
2404467,-1719,-973,-99,780,-747,-882
2404485,-1727,-966,-94,777,-747,-884
2404501,-1694,-947,-97,781,-744,-871
2404517,-1691,-944,-107,774,-749,-874
2404533,-1694,-934,-125,779,-756,-878
2404551,-1668,-929,-130,779,-751,-873
2404567,-1664,-907,-129,776,-749,-888
2404600,-1620,-898,-122,779,-750,-880
2404617,-1623,-901,-127,780,-778,-891
2404633,-1623,-871,-129,779,-775,-902
2404650,-1620,-873,-129,779,-771,-902
2404666,-1601,-868,-130,777,-778,-908
2404684,-1611,-871,-127,777,-808,-910
2404717,-1583,-843,-121,777,-789,-903
2404733,-1559,-840,-119,777,-778,-903
2404749,-1538,-828,-119,777,-784,-900
2404767,-1536,-814,-128,777,-782,-903
2404782,-1531,-812,-140,778,-803,-903
2404799,-1533,-809,-138,774,-800,-903
2404831,-1477,-780,-138,776,-786,-833
2404848,-1460,-774,-125,776,-815,-801
2404866,-1400,-748,-127,776,-810,-766
2404882,-1427,-753,-125,777,-790,-773
2404899,-1430,-746,-125,767,-781,-789
2404916,-1459,-734,-90,748,-753,-823
2404949,-1461,-729,-94,744,-775,-843
2404966,-1454,-726,-94,742,-786,-847
2404982,-1457,-717,-94,750,-776,-854
2404999,-1472,-722,-109,752,-785,-876
2405017,-1454,-720,-113,766,-806,-867
2405032,-1465,-715,-131,777,-815,-888
2405049,-1456,-712,-130,777,-840,-891
2405081,-1409,-693,-125,776,-813,-865
2405099,-1379,-690,-126,776,-817,-850
2405116,-1384,-687,-127,779,-812,-857
2405132,-1385,-690,-127,767,-842,-865
2405150,-1411,-684,-127,775,-836,-869
2405165,-1382,-662,-127,778,-805,-870
2405198,-1397,-658,-127,776,-845,-897
2405216,-1376,-662,-130,776,-846,-910
2405232,-1361,-661,-128,776,-850,-883
2405249,-1376,-647,-127,778,-842,-911
2405265,-1362,-633,-126,778,-851,-904
2405282,-1343,-637,-127,780,-867,-892
2405299,-1299,-628,-127,776,-855,-816
2405331,-1228,-630,-131,786,-904,-780
2405348,-1218,-601,-128,776,-902,-810
2405365,-1235,-604,-142,786,-899,-828
2405382,-1261,-627,-132,779,-876,-842
2405398,-1258,-628,-124,776,-916,-857
2405415,-1286,-636,-122,776,-918,-875
2405447,-1289,-614,-126,776,-902,-903
2405463,-1256,-601,-123,776,-862,-900
2405480,-1265,-602,-117,775,-869,-865
2405498,-1257,-594,-124,782,-846,-846
2405514,-1265,-598,-131,784,-885,-895
2405531,-1265,-597,-162,800,-910,-910
2405548,-1260,-570,-159,798,-899,-906
2405580,-1277,-573,-172,803,-907,-874
2405597,-1292,-564,-168,808,-868,-857
2405613,-1263,-564,-171,797,-886,-847
2405631,-1263,-549,-158,781,-869,-852
2405648,-1223,-537,-123,760,-837,-836
2405664,-1220,-528,-97,741,-842,-802
2405697,-1195,-509,-65,747,-834,-815
2405714,-1195,-529,-101,742,-845,-805
2405732,-1198,-501,-96,747,-804,-771
2405748,-1198,-514,-69,748,-853,-783
2405765,-1168,-506,-67,756,-884,-801
2405781,-1169,-500,-61,758,-906,-807
2405797,-1127,-471,-62,779,-898,-776
2405830,-1159,-481,-68,773,-896,-775
2405847,-1143,-466,-62,767,-864,-781
2405863,-1171,-470,-64,753,-898,-799
2405881,-1161,-470,-65,752,-870,-796
2405898,-1165,-464,-67,752,-873,-810
2405914,-1145,-444,-67,750,-871,-802
2405962,-1136,-461,-37,755,-892,-802
2405979,-1096,-414,-29,773,-857,-777
2405997,-1103,-412,-25,776,-843,-783
2406014,-1063,-393,4,773,-853,-775
2406030,-1070,-399,-24,778,-843,-777
2406047,-1070,-394,-27,777,-864,-777
2406079,-1099,-398,-70,787,-873,-792
2406095,-1072,-386,-59,777,-859,-805
2406113,-1033,-390,-31,776,-874,-779
2406129,-1054,-399,-32,776,-872,-778
2406146,-1035,-398,-22,775,-853,-799
2406163,-1042,-384,-32,776,-875,-797
2406180,-1035,-370,-33,776,-871,-818
2406212,-1006,-370,-4,773,-862,-807
2406229,-1037,-378,-23,779,-885,-809
2406246,-1040,-361,-14,780,-874,-814
2406263,-1037,-366,-34,780,-871,-785
2406279,-1043,-364,-35,780,-866,-778
2406296,-1037,-365,-9,780,-856,-774
2406313,-1072,-364,-36,780,-870,-777
2406345,-1039,-352,4,777,-850,-773
2406362,-1035,-350,-15,778,-844,-776
2406379,-1038,-350,-33,777,-863,-777
2406396,-1033,-350,-31,781,-837,-742
2406412,-1040,-348,-36,779,-866,-768
2406428,-1040,-358,-40,782,-871,-779
2406445,-1076,-350,-47,780,-906,-820
2406479,-1025,-325,-32,779,-874,-788
2406496,-1014,-323,-30,777,-876,-776
2406512,-1006,-310,2,779,-872,-773
2406529,-983,-304,-1,780,-841,-752
2406546,-978,-311,-2,778,-848,-743
2406562,-954,-299,29,775,-841,-749
2406579,-954,-302,29,776,-840,-740
2406611,-964,-303,26,776,-839,-725
2406627,-955,-303,32,776,-849,-725
2406645,-924,-290,67,776,-837,-720
2406661,-942,-302,62,776,-840,-757
2406679,-956,-304,63,776,-846,-781
2406695,-938,-301,65,778,-852,-775
2406712,-937,-284,61,775,-847,-782
2406744,-935,-302,62,756,-840,-774
2406761,-933,-335,67,747,-811,-773
2406778,-951,-334,67,746,-830,-777
2406794,-933,-327,85,746,-842,-779
2406811,-939,-322,64,749,-840,-781
2406827,-934,-314,61,749,-850,-782
2406845,-933,-301,62,761,-835,-772
2406877,-955,-302,62,778,-871,-791
2406893,-937,-301,54,766,-858,-798
2406910,-952,-301,30,782,-865,-811
2406928,-979,-315,32,781,-878,-819
2406945,-977,-325,23,791,-920,-848
2406961,-949,-304,28,782,-954,-810
2406994,-887,-297,30,786,-941,-751
2407011,-866,-292,28,778,-907,-695
2407027,-839,-275,58,753,-882,-652
2407044,-834,-295,61,756,-871,-659
2407061,-863,-290,66,753,-865,-696
2407077,-870,-291,63,750,-860,-688
2407110,-896,-290,66,745,-804,-713
2407129,-910,-298,26,755,-806,-723
2407144,-943,-292,23,754,-845,-720
2407161,-898,-258,37,751,-819,-702
2407177,-900,-265,30,749,-848,-719
2407194,-900,-267,29,748,-809,-733
2407226,-921,-275,129,750,-822,-784
2407243,-923,-260,123,752,-839,-780
2407260,-902,-259,131,752,-831,-776
2407277,-1047,-492,-180,750,-1138,-903
2407294,-1059,-341,-31,722,-939,-893
2407310,750,453,1769,1007,919,892
2407327,5030,3694,7467,1091,5176,5082
2407359,7115,7184,7080,1254,7111,7111
2407377,6953,6960,6961,1264,6954,6952
2407393,6958,6959,6960,1245,6955,6955
2407410,6960,6957,6958,1268,6958,6957
2407427,6966,6964,6957,1226,6957,6961
2407444,7022,7010,6992,1275,7000,7006
2407475,6863,6851,7253,1225,7268,7234
2407493,4492,5135,5824,988,5543,5401
2407510,522,2486,-1009,591,1921,1867
2407526,-2785,648,-1009,591,-1957,-1825
2407542,-7104,-7172,-7107,-62,-7133,-7115
2407560,-7025,-7188,-7084,-128,-7046,-7058
2407592,-6934,-6938,-6934,-157,-6933,-6933
2407609,-6937,-6938,-6937,-50,-6936,-6937
2407626,-7146,-7023,-7083,-98,-7074,-7074
2407643,-7110,-7420,-7250,-97,-7270,-7267
2407660,-7948,-7618,-5404,139,-7903,-7899
2407676,8046,6542,7715,1247,7640,7628
2407708,7205,7464,7315,1299,7329,7330
2407725,6952,6960,6958,1261,6954,6953
2407742,6950,6958,6957,1291,6956,6956
2407759,6954,6957,6958,1280,6956,6957
2407776,6953,6957,6957,1285,6955,6956
2407793,6953,6957,6957,1288,6955,6957
2407825,6953,6957,6957,1325,6955,6957
2407842,6953,6957,6957,1334,6955,6957
2407859,6953,6957,6957,1356,6955,6957
2407875,6953,6957,6957,1347,6955,6957
2407893,6953,6957,6957,1385,6955,6957
2407910,6953,6957,6957,1397,6955,6957
2407942,6953,6957,6957,1399,6955,6957
2407959,6953,6957,6957,1409,6955,6957
2407976,6953,6957,6957,1430,6955,6957
2407992,6953,6957,6957,1435,6955,6957
2408008,6953,6957,6957,1436,6955,6957
2408025,6953,6957,6957,1435,6955,6957
2408058,6953,6957,6957,1439,6955,6957
2408075,6953,6957,6957,1438,6955,6957
2408092,6953,6957,6957,1435,6955,6957
2408109,6953,6957,6957,1433,6955,6957
2408125,6953,6957,6957,1452,6955,6957
2408142,6953,6957,6957,1438,6955,6957
2408174,6953,6957,6957,1424,6955,6957
2408192,6953,6957,6957,1441,6955,6957
2408208,6953,6957,6957,1439,6955,6957
2408225,6953,6957,6957,1427,6955,6957
2408242,6953,6957,6957,1410,6955,6957
2408258,6953,6957,6957,1402,6955,6957
2408290,6953,6957,6957,1391,6955,6957
2408324,6953,6957,6957,1373,6955,6957
2408341,6957,6957,6974,1368,6983,6974
2408357,7184,6957,7372,1372,7472,7390
2408374,7258,6966,7178,1245,7187,7169
2408406,-3061,7325,-6240,506,-7443,-6481
2408424,-7427,6171,-7104,608,-7043,-7083
2408441,-7449,-1579,-7040,371,-7269,-7380
2408458,-6932,-7372,-6935,199,-6936,-6948
2408474,-6936,-7236,-6932,38,-6934,-6946
2408491,-6938,-6958,-6937,43,-6937,-6947
2408523,-6936,-6949,-6937,29,-6936,-6949
2408540,-6936,-6947,-6936,35,-6936,-6949
2408557,-6936,-6948,-6936,34,-6936,-6949
2408574,-6936,-6948,-6936,-12,-6936,-6949
2408590,-6936,-6948,-6936,-34,-6936,-6949
2408607,-6936,-6948,-6936,-70,-6936,-6949
2408639,-6936,-6948,-6936,-89,-6936,-6949
2408657,-6936,-6948,-6936,-124,-6936,-6949
2408674,-6936,-6948,-6936,-128,-6936,-6949
2408690,-6936,-6948,-6936,-196,-6936,-6949
2408706,-6936,-6948,-6936,-209,-6936,-6949
2408723,-6936,-6948,-6936,-251,-6936,-6949
2408755,-6936,-6948,-6936,-344,-6936,-6949
2408772,-6936,-6948,-6936,-404,-6936,-6949
2408789,-6936,-6948,-6936,-241,-6936,-6949
2408807,-6936,-6948,-6936,-281,-6936,-6949
2408823,-6936,-6948,-6936,-433,-6936,-6949
2408841,-6936,-6948,-6936,-462,-6936,-6949
2408872,-6936,-6948,-6936,-375,-6936,-6949
2408889,-6936,-6948,-6936,-347,-6936,-6949
2408906,-6936,-6948,-6936,-365,-6936,-6949
2408923,-6936,-6948,-6936,-397,-6936,-6949
2408940,-6936,-6948,-6936,-429,-6936,-6949
2408957,-6936,-6948,-6936,-421,-6936,-6949
2408989,-6936,-6948,-6936,-313,-6936,-6949
2409006,-6936,-6948,-6936,-369,-6936,-6949
2409022,-6936,-6948,-6936,-366,-6936,-6949
2409040,-6936,-6948,-6936,-359,-6936,-6949
2409056,-6936,-6948,-6936,-383,-6936,-6949
2409073,-6936,-6948,-6936,-382,-6936,-6949
2409105,-6936,-6948,-6936,-594,-6936,-6949
2409123,-6936,-6948,-6936,-551,-6936,-6949
2409138,-6936,-6948,-6936,-585,-6936,-6949
2409156,-6936,-6948,-6936,-545,-6936,-6949
2409172,-6936,-6948,-6936,-554,-6936,-6949
2409188,-6936,-6948,-6936,-476,-6936,-6949
2409221,-6936,-6948,-6936,-302,-6936,-6949
2409239,-6936,-6948,-6936,-399,-6936,-6949
2409256,-6936,-6948,-6936,-332,-6936,-6949
2409272,-6936,-6948,-6936,-461,-6936,-6949
2409289,-6936,-6948,-6936,-436,-6936,-6949
2409306,-6936,-6948,-6936,-371,-6936,-6949
2409337,-6936,-6948,-6936,-289,-6936,-6949
2409354,-6936,-6948,-6936,-315,-6936,-6949
2409371,-6936,-6948,-6936,-332,-6936,-6949
2409389,-6936,-6948,-6936,-326,-6936,-6949
2409405,-6936,-6948,-6936,-324,-6936,-6949
2409422,-6936,-6948,-6936,-323,-6936,-6949
2409454,-6936,-6948,-6936,-319,-6936,-6949
2409471,-6936,-6948,-6936,-267,-6936,-6949
2409489,-6936,-6948,-6936,-294,-6936,-6949
2409505,-6936,-6948,-6936,-283,-6936,-6949
2409522,-6936,-6948,-6936,-282,-6936,-6949
2409538,-6936,-6948,-6936,-249,-6936,-6949
2409570,-6936,-6948,-6936,-273,-6936,-6949
2409588,-6936,-6948,-6936,-262,-6936,-6949
2409604,-6936,-6948,-6936,-227,-6936,-6949
2409622,-6936,-6948,-6936,-265,-6936,-6949
2409638,-6936,-6948,-6936,-272,-6936,-6949
2409655,-6936,-6948,-6936,-271,-6936,-6949
2409687,-6936,-6948,-6936,-258,-6936,-6949
2409705,-6936,-6948,-6936,-311,-6936,-6949
2409721,-6936,-6948,-6936,-290,-6936,-6949
2409738,-6936,-6948,-6936,-283,-6936,-6949
2409755,-6936,-6948,-6936,-227,-6936,-6949
2409771,-6936,-6948,-6936,-293,-6936,-6949
2409804,-6936,-6948,-6936,-273,-6936,-6949
2409821,-6936,-6948,-6936,-295,-6936,-6949
2409838,-6936,-6948,-6936,-267,-6936,-6949
2409854,-6936,-6948,-6936,-257,-6936,-6949
2409871,-6936,-6948,-6936,-217,-6936,-6949
2409888,-6936,-6948,-6936,-204,-6936,-6949
2409920,-6936,-6948,-6936,-209,-6936,-6949
2409937,-6936,-6948,-6936,-286,-6936,-6949
2409954,-6936,-6948,-6936,-208,-6936,-6949
2409971,-6936,-6948,-6936,-236,-6939,-6949
2409988,-6936,-6948,-6936,-289,-6927,-6949
2410004,-6936,-6948,-6949,-243,-6956,-6966
2410036,-6936,-6948,-6792,-275,-6372,-6999
2410054,-6936,-6948,-6790,-210,-5692,-6697
2410071,-6936,-6948,-6216,-248,-3959,-6032
2410087,-6936,-6948,-5213,-173,-712,-4944
2410104,-6936,-6948,-2197,-197,2670,-1888
2410120,-6936,-6948,792,-137,5660,1008
2410186,-6749,-6948,6995,257,6957,6986
2410204,-5407,-6948,6955,316,6956,6955
2410220,-5079,-6948,6956,373,6958,6956
2410237,-4437,-6948,6956,283,6957,6957
2410254,-4080,-6948,6955,280,6957,6957
2410270,-4216,-6948,6955,273,6957,6957
2410302,-3254,-6948,6955,282,6957,6957
2410320,-2278,-6948,6955,290,6957,6957
2410337,-1247,-6948,6955,291,6957,6957
2410353,900,-6948,6955,309,6957,6957
2410370,3490,-6948,6955,360,6957,6957
2410387,5768,-6948,6955,352,6957,6957
2410419,7048,-6948,6955,383,6957,6957
2410437,6964,-6948,6955,403,6957,6957
2410454,6957,-6948,6955,418,6957,6957
2410470,6958,-6948,6955,424,6957,6957
2410486,6957,-6949,6955,412,6957,6957
2410503,6957,-6951,6955,418,6957,6957
2410535,6957,-6888,6955,419,6957,6957
2410553,6957,-6773,6955,422,6957,6957
2410569,6957,-6729,6955,416,6957,6957
2410587,6957,-6846,6955,408,6957,6957
2410604,6957,-6936,6955,413,6957,6957
2410620,6957,-6941,6955,378,6957,6957
2410652,6957,-6946,6955,385,6957,6957
2410670,6957,-6968,6955,386,6957,6957
2410685,6957,-6981,6955,384,6957,6957
2410703,6957,-6364,6955,385,6957,6957
2410719,6957,-4615,6955,417,6957,6957
2410735,6957,-2474,6955,434,6957,6957
2410769,6957,1249,6955,427,6957,6957
2410786,6957,2872,6955,448,6957,6957
2410802,6957,5142,6955,467,6957,6957
2410819,6957,6299,6955,469,6957,6957
2410836,6957,6784,6955,515,6957,6957
2410852,6957,7006,6955,562,6957,6957
2410884,6957,6969,6955,679,6957,6957
2410902,6957,6958,6955,726,6957,6957
2410918,6957,6960,6955,766,6957,6957
2410936,6957,6956,6955,824,6957,6957
2410952,6957,6957,6955,854,6957,6957
2410968,6957,6957,6955,847,6957,6957
2411000,6957,6957,6955,877,6957,6957
2411017,6957,6957,6955,903,6957,6957
2411035,6957,6957,6955,933,6957,6957
2411051,6957,6958,6955,930,6957,6957
2411068,6957,6957,6955,952,6957,6957
2411085,6957,6957,6955,944,6957,6957
2411117,6957,6958,6955,926,6957,6957
2411135,6957,6957,6955,899,6957,6957
2411151,6957,6957,6955,896,6957,6957
2411168,6957,6957,6955,874,6957,6957
2411185,6957,6957,6955,875,6957,6957
2411202,6957,6957,6955,868,6957,6957
2411233,6957,6957,6955,870,6957,6957
2411251,6957,6957,6955,865,6957,6957
2411267,6957,6958,6955,874,6957,6957
2411284,6957,6958,6955,873,6957,6957
2411301,6957,6957,6955,911,6957,6957
2411318,6957,6957,6955,952,6957,6957
2411350,6957,6957,6955,1012,6957,6957
2411367,6957,6957,6955,1055,6957,6957
2411383,6957,6957,6955,1074,6957,6957
2411401,6957,6957,6955,1072,6957,6957
2411417,6957,6957,6955,1068,6957,6957
2411434,6957,6958,6955,1071,6957,6957
2411466,6957,6957,6955,1071,6957,6957
2411484,6957,6958,6955,1103,6957,6957
2411501,6957,6958,6955,1097,6957,6957
2411518,6957,6957,6955,1103,6957,6957
2411534,6957,6957,6955,1101,6957,6957
2411550,6957,6957,6955,1100,6957,6957
2411584,6957,6957,6955,1103,6957,6957
2411600,6957,6958,6955,1101,6957,6957
2411617,6957,6957,6955,1100,6957,6957
2411634,6957,6957,6955,1103,6957,6957
2411650,6957,6958,6955,1108,6957,6957
2411668,6957,6958,6955,1100,6957,6957
2411699,6957,6957,6955,1099,6957,6957
2411716,6957,6957,6955,1098,6957,6957
2411733,6957,6957,6955,1102,6957,6957
2411750,6957,6957,6955,1101,6957,6957
2411766,6957,6957,6955,1105,6957,6957
2411783,6957,6957,6955,1102,6957,6957
2411815,6957,6958,6955,1124,6957,6957
2411832,6957,6958,6955,1101,6957,6957
2411849,6957,6957,6955,1122,6957,6957
2411866,6957,6957,6955,1114,6957,6957
2411883,6957,6958,6955,1138,6957,6957
2411899,6957,6957,6955,1123,6957,6957
2411932,6957,6957,6955,1126,6957,6957
2411949,6957,6957,6955,1133,6957,6957
2411966,6957,6957,6955,1130,6957,6957
2411983,6957,6958,6955,1135,6957,6957
2411999,6957,6958,6955,1100,6957,6957
2412016,6957,6957,6955,1116,6957,6957
2412048,6957,6958,6955,1107,6957,6957
2412066,6957,6957,6955,1117,6957,6957
2412082,6957,6957,6955,1130,6957,6957
2412099,6957,6957,6955,1107,6957,6957
2412116,6957,6957,6955,1127,6957,6957
2412132,6957,6957,6955,1134,6957,6957
2412164,6957,6957,6955,1136,6957,6957
2412182,6957,6957,6955,1120,6957,6957
2412199,6957,6958,6955,1139,6957,6957
2412215,6957,6958,6955,1140,6957,6957
2412232,6957,6957,6955,1162,6957,6957
2412249,6957,6957,6955,1163,6957,6957
2412280,6957,6957,6955,1191,6957,6957
2412298,6957,6957,6955,1208,6957,6957
2412314,6957,6957,6955,1195,6957,6957
2412332,6957,6957,6955,1232,6957,6957
2412349,6957,6957,6955,1229,6957,6957
2412365,6957,6958,6955,1242,6957,6957
2412397,6957,6957,6955,1284,6957,6957
2412415,6957,6958,6955,1320,6957,6957
2412431,6957,6958,6955,1326,6957,6957
2412448,6957,6957,6955,1325,6957,6957
2412465,6957,6957,6955,1362,6957,6957
2412481,6957,6957,6955,1367,6957,6957
2412514,6957,6957,6955,1413,6957,6957
2412531,6957,6958,6955,1407,6957,6957
2412548,6957,6957,6955,1446,6957,6957
2412564,6957,6957,6955,1484,6957,6957
2412581,6957,6958,6955,1490,6957,6957
2412598,6957,6958,6955,1504,6957,6957
2412630,6957,6957,6955,1528,6957,6957
2412648,6957,6957,6955,1526,6957,6957
2412664,6957,6957,6955,1558,6957,6957
2412681,6957,6957,6955,1524,6957,6957
2412697,6957,6957,6955,1531,6957,6957
2412714,6957,6957,6955,1530,6957,6957
2412746,6957,6958,6955,1566,6957,6957
2412763,6957,6958,6955,1563,6957,6957
2412781,6957,6957,6955,1560,6957,6957
2412798,6957,6957,6955,1558,6957,6957
2412814,6957,6958,6955,1567,6957,6957
2412831,6957,6957,6955,1575,6957,6957
2412863,6957,6957,6955,1587,6957,6957
2412881,6957,6957,6955,1603,6957,6957
2412896,6957,6957,6955,1602,6957,6957
2412914,6957,6958,6955,1631,6957,6957
2412930,6957,6957,6955,1639,6957,6957
2412947,6957,6957,6955,1654,6957,6957
2412979,6957,6958,6955,1677,6957,6957
2412997,6957,6957,6955,1684,6957,6957
2413014,6957,6957,6955,1704,6957,6957
2413030,6957,6957,6955,1705,6957,6957
2413047,6957,6957,6955,1738,6957,6957
2413063,6957,6957,6955,1744,6957,6957
2413096,6957,6957,6955,1758,6957,6957
2413113,6957,6957,6955,1758,6957,6957
2413130,6957,6958,6955,1789,6957,6957
2413147,6957,6958,6955,1790,6957,6957
2413163,6957,6957,6955,1788,6957,6957
2413180,6957,6957,6955,1824,6957,6957
2413212,6957,6957,6955,1857,6957,6957
2413229,6957,6957,6955,1883,6957,6957
2413246,6957,6957,6955,1877,6957,6957
2413263,6957,6957,6955,1887,6957,6957
2413280,6957,6957,6955,1895,6957,6957
2413296,6957,6958,6955,1886,6957,6957
2413329,6957,6957,6955,1904,6957,6957
2413346,6957,6958,6955,1912,6957,6957
2413362,6957,6958,6955,1916,6957,6957
2413379,6957,6957,6955,1910,6957,6957
2413396,6957,6957,6955,1948,6957,6957
2413413,6957,6957,6955,1939,6957,6957
2413444,6957,6957,6955,1948,6957,6957
2413462,6957,6957,6955,1975,6957,6957
2413479,6957,6957,6955,1976,6957,6957
2413495,6957,6957,6955,1971,6957,6957
2413513,6957,6958,6955,1975,6957,6957
2413529,6957,6958,6955,1991,6957,6957
2413561,6957,6957,6955,1982,6957,6957
2413579,6957,6958,6955,2004,6957,6957
2413595,6957,6957,6955,1989,6957,6957
2413612,6957,6957,6955,1996,6957,6957
2413628,6957,6957,6955,1989,6957,6957
2413645,6957,6957,6955,1990,6957,6957
2413677,6957,6958,6955,1983,6957,6957
2413695,6957,6958,6955,1974,6957,6957
2413711,6957,6957,6955,1961,6957,6957
2413728,6957,6957,6955,1945,6957,6957
2413744,6957,6958,6955,1940,6957,6957
2413761,6957,6957,6955,1941,6957,6957
2413794,6957,6957,6955,1942,6957,6957
2413812,6957,6957,6955,1935,6957,6957
2413827,6957,6957,6955,1942,6957,6957
2413844,6957,6957,6955,1939,6957,6957
2413861,6957,6957,6955,1947,6957,6957
2413878,6957,6957,6955,1960,6957,6957
2413910,6957,6958,6955,1976,6957,6957
2413928,6957,6957,6955,1988,6957,6957
2413944,6957,6957,6955,2010,6957,6957
2413961,6957,6957,6955,2010,6957,6957
2413978,6957,6957,6955,2042,6957,6957
2413994,6957,6957,6955,2034,6957,6957
2414027,6957,6957,6955,2069,6957,6957
2414045,6957,6957,6955,2088,6957,6957
2414061,6957,6958,6955,2091,6957,6957
2414078,6957,6958,6955,2098,6957,6957
2414094,6957,6957,6955,2095,6957,6957
2414111,6957,6958,6955,2088,6957,6957
2414143,6957,6957,6955,2075,6957,6957
2414161,6957,6957,6955,2070,6957,6957
2414177,6957,6957,6955,2077,6957,6957
2414194,6957,6957,6955,2034,6957,6957
2414210,6957,6957,6955,2038,6957,6957
2414227,6957,6958,6955,2012,6957,6957
2414244,6957,6957,6955,2008,6957,6957
2414276,6957,6958,6955,1976,6957,6957
2414294,6957,6958,6955,1946,6957,6957
2414311,6957,6957,6955,1949,6957,6957
2414327,6957,6957,6955,1907,6957,6957
2414344,6957,6957,6955,1896,6957,6957
2414361,6957,6957,6955,1878,6957,6957
2414392,6957,6958,6981,1847,7096,7565
2414410,7278,6957,7493,1812,3342,7519
2414427,7050,6957,-5511,1435,-7919,-5407
2414443,7352,6958,-6997,913,-7105,-7016
2414460,-5070,6958,-7552,965,-7171,-7551
2414477,-7073,6957,-6938,967,-6944,-6940
2414508,-6940,6959,-6936,925,-6948,-6938
2414526,-6939,7481,-6936,912,-6947,-6936
2414543,-6936,7256,-6936,893,-6948,-6936
2414559,-6936,3292,-6936,875,-6948,-6936
2414577,-6936,-7632,-6936,867,-6948,-6936
2414593,-6936,-7095,-6936,870,-6948,-6936
2414610,-6936,-7207,-6936,707,-6948,-6936
2414643,-6936,-6936,-6936,254,-6948,-6936
2414659,-6936,-6937,-6936,230,-6948,-6936
2414676,-6936,-6935,-6936,214,-6948,-6936
2414693,-6936,-6936,-6936,261,-6948,-6936
2414709,-6936,-6936,-6936,187,-6948,-6936
2414726,-6936,-6936,-6936,194,-6948,-6936
2414758,-6936,-6936,-6936,152,-6948,-6936
2414776,-6936,-6936,-6936,164,-6948,-6936
2414792,-6936,-6936,-6936,105,-6948,-6936
2414808,-6936,-6936,-6936,108,-6948,-6936
2414826,-6936,-6936,-6936,155,-6948,-6936
2414843,-6936,-6936,-6936,66,-6948,-6936
2414875,-6936,-6936,-6936,46,-6948,-6936
2414892,-6936,-6936,-6936,17,-6948,-6936
2414909,-6936,-6936,-6936,-21,-6948,-6936
2414925,-6936,-6936,-6936,5,-6948,-6936
2414942,-6936,-6936,-6936,-43,-6948,-6936
2414959,-6936,-6936,-6936,-26,-6948,-6936
2414991,-6936,-6936,-6936,-60,-6948,-6936
2415008,-6936,-6936,-6936,-64,-6948,-6936
2415025,-6936,-6936,-6936,-73,-6948,-6936
2415043,-6936,-6936,-6936,-99,-6948,-6936
2415058,-6936,-6936,-6936,-129,-6948,-6936
2415075,-6936,-6936,-6936,-159,-6948,-6936
2415107,-6936,-6936,-6936,-196,-6948,-6936
2415125,-6936,-6936,-6936,-225,-6948,-6936
2415141,-6936,-6936,-6936,-232,-6948,-6936
2415157,-6936,-6936,-6936,-256,-6948,-6936
2415174,-6936,-6936,-6936,-282,-6948,-6936
2415192,-6936,-6936,-6936,-301,-6948,-6936
2415223,-6936,-6936,-6936,-245,-6948,-6936
2415240,-6936,-6936,-6936,-304,-6948,-6936
2415258,-6936,-6936,-6936,-359,-6948,-6936
2415275,-6936,-6936,-6936,-365,-6948,-6936
2415292,-6936,-6936,-6936,-395,-6948,-6936
2415308,-6936,-6936,-6936,-240,-6948,-6936
2415340,-6936,-6936,-6936,-364,-6948,-6936
2415357,-6936,-6936,-6936,-416,-6948,-6936
2415375,-6936,-6936,-6936,-420,-6948,-6936
2415391,-6936,-6936,-6936,-429,-6948,-6936
2415408,-6936,-6936,-6936,-416,-6948,-6936
2415423,-6936,-6936,-6936,-433,-6948,-6936
2415457,-6936,-6936,-6936,-453,-6948,-6936
2415475,-6936,-6936,-6936,-426,-6948,-6936
2415492,-6936,-6936,-6936,-451,-6948,-6936
2415509,-6936,-6936,-6936,-434,-6948,-6936
2415525,-6936,-6936,-6936,-429,-6948,-6936
2415542,-6936,-6936,-6936,-430,-6948,-6936
2415573,-6936,-6936,-6936,-405,-6948,-6936
2415589,-6936,-6936,-6936,-472,-6948,-6936
2415606,-6936,-6936,-6936,-471,-6948,-6936
2415624,-6936,-6936,-6936,-481,-6948,-6936
2415641,-6936,-6936,-6936,-475,-6948,-6936
2415657,-6936,-6936,-6936,-477,-6948,-6936
2415691,-6936,-6936,-6936,-474,-6948,-6936
2415707,-6936,-6936,-6936,-476,-6948,-6936
2415724,-6936,-6936,-6936,-469,-6948,-6936
2415741,-6936,-6936,-6936,-476,-6948,-6936
2415757,-6936,-6936,-6936,-475,-6948,-6936
2415774,-6936,-6936,-6936,-477,-6948,-6936
2415806,-6936,-6936,-6936,-378,-6948,-6936
2415824,-6936,-6936,-6936,-355,-6948,-6936
2415839,-6936,-6936,-6936,-372,-6948,-6936
2415856,-6936,-6936,-6936,-404,-6948,-6936
2415873,-6936,-6936,-6936,-385,-6948,-6936
2415890,-6936,-6936,-6936,-415,-6948,-6936
2415922,-6936,-6936,-6936,-409,-6948,-6936
2415940,-6936,-6936,-6936,-435,-6948,-6936
2415957,-6936,-6936,-6936,-380,-6948,-6936
2415973,-6936,-6936,-6936,-412,-6948,-6936
2415990,-6936,-6936,-6936,-465,-6948,-6936
2416007,-6936,-6936,-6936,-464,-6948,-6936
2416038,-6936,-6936,-6936,-476,-6948,-6936
2416055,-6936,-6936,-6936,-443,-6948,-6936
2416072,-6936,-6936,-6936,-471,-6948,-6936
2416090,-6936,-6936,-6936,-458,-6948,-6936
2416106,-6936,-6936,-6936,-461,-6948,-6936
2416122,-6936,-6936,-6936,-479,-6948,-6936
2416155,-6936,-6936,-6936,-473,-6948,-6936
2416173,-6936,-6936,-6936,-484,-6948,-6936
2416189,-6936,-6936,-6936,-425,-6948,-6936
2416206,-6936,-6936,-6936,-465,-6948,-6936
2416222,-6936,-6936,-6936,-454,-6948,-6936
2416239,-6936,-6936,-6936,-463,-6948,-6936
2416271,-6936,-6936,-6936,-455,-6948,-6936
2416289,-6936,-6936,-6936,-480,-6948,-6936
2416306,-6936,-6936,-6936,-434,-6948,-6936
2416323,-6936,-6936,-6936,-407,-6948,-6936
2416338,-6936,-6936,-6936,-402,-6948,-6936
2416355,-6936,-6936,-6936,-442,-6948,-6936
2416387,-6936,-6936,-6936,-456,-6948,-6936
2416404,-6936,-6936,-6936,-403,-6948,-6936
2416421,-6936,-6936,-6936,-463,-6948,-6936
2416439,-6936,-6936,-6936,-396,-6948,-6936
2416455,-6936,-6936,-6936,-461,-6948,-6936
2416472,-6936,-6936,-6936,-453,-6948,-6936
2416504,-6936,-6936,-6936,-461,-6948,-6936
2416522,-6936,-6936,-6936,-424,-6948,-6936
2416538,-6936,-6936,-6936,-443,-6948,-6936
2416555,-6936,-6936,-6936,-428,-6948,-6936
2416572,-6936,-6936,-6936,-439,-6948,-6936
2416589,-6936,-6936,-6936,-413,-6948,-6936
2416620,-6936,-6936,-6936,-445,-6948,-6936
2416637,-6936,-6936,-6936,-407,-6948,-6936
2416655,-6936,-6936,-6936,-410,-6948,-6936
2416670,-6936,-6936,-6936,-405,-6948,-6936
2416688,-6936,-6936,-6936,-403,-6948,-6936
2416705,-6936,-6936,-6936,-382,-6948,-6936
2416736,-6936,-6936,-6936,-408,-6948,-6936
2416753,-6936,-6936,-6936,-379,-6948,-6936
2416770,-6936,-6936,-6936,-408,-6948,-6936
2416788,-6936,-6936,-6936,-407,-6948,-6936
2416805,-6936,-6936,-6936,-447,-6948,-6936
2416821,-6936,-6936,-6936,-359,-6948,-6936
2416854,-6936,-6936,-6936,-377,-6948,-6936
2416871,-6936,-6936,-6936,-393,-6948,-6936
2416887,-6936,-6936,-6936,-382,-6948,-6936
2416904,-6936,-6936,-6936,-382,-6948,-6936
2416921,-6936,-6936,-6936,-383,-6948,-6936
2416938,-6936,-6936,-6936,-386,-6948,-6936
2416969,-6936,-6936,-6937,-376,-6960,-6938
2416987,-6936,-6936,-6932,-379,-6933,-6929
2417003,-6936,-6936,-6909,-425,-6926,-6941
2417020,-6936,-6936,-6941,-363,-6646,-6931
2417037,-6936,-6936,-6929,-388,-6857,-6928
2417054,-6936,-6936,-6942,-239,-6936,-6943
2417071,-6936,-6936,-6938,-366,-6961,-6935
2417103,-6936,-6936,-6936,-473,-6934,-6933
2417120,-6936,-6936,-6936,-344,-6934,-6939
2417137,-6936,-6936,-6936,-320,-6935,-6935
2417153,-6936,-6936,-6936,-334,-6936,-6936
2417170,-6936,-6936,-6936,-322,-6936,-6936
2417187,-6936,-6936,-6936,-317,-6936,-6936
2417219,-6936,-6936,-6936,-266,-6936,-6936
2417237,-6936,-6936,-6936,-396,-6936,-6936
2417252,-6936,-6936,-6936,-341,-6942,-6936
2417270,-6936,-6936,-6937,-241,-6976,-6936
2417287,-6936,-6936,-6943,-355,-6951,-6947
2417303,-6936,-6936,-6943,-358,-6301,-6937
2417335,-6936,-6936,-6742,-325,-3641,-6703
2417352,-6936,-6936,-6271,-320,-1259,-6194
2417370,-6936,-6936,-5570,-303,907,-5511
2417387,-6936,-6936,-3360,-308,2898,-4525
2417403,-6936,-6936,-1269,-281,5087,-2373
2417419,-6936,-6936,779,-278,6309,867
2417451,-6936,-6936,4972,-320,6995,5240
2417469,-6936,-6936,5944,-287,6906,6131
2417486,-6936,-6936,6664,-269,6966,6794
2417502,-6936,-6936,6903,-210,6961,6976
2417520,-6936,-6936,6935,-133,6953,6971
2417536,-6936,-6936,6937,-76,6956,6967
2417568,-6936,-6936,6949,-45,6955,6958
2417585,-6936,-6936,6951,117,6955,6957
2417602,-6936,-6936,6950,120,6955,6957
2417619,-6941,-6936,6950,150,6955,6957
2417636,-6975,-6936,6950,184,6955,6957
2417653,-7010,-6936,6950,285,6955,6957
2417685,-5815,-6936,6950,296,6955,6955
2417702,-3464,-6936,6950,287,6955,6955
2417720,-1567,-6936,6950,266,6955,6955
2417735,275,-6936,6950,293,6955,6955
2417752,2438,-6936,6950,281,6955,6955
2417768,4137,-6936,6950,276,6955,6955
2417802,6275,-6936,6950,265,6955,6955
2417818,6854,-6936,6950,302,6955,6955
2417835,6999,-6936,6950,264,6955,6955
2417852,6955,-6936,6950,302,6955,6955
2417869,6956,-6936,6950,282,6955,6955
2417885,6958,-6936,6950,289,6955,6955
2417917,6958,-6936,6950,287,6955,6955
2417935,6955,-6936,6950,285,6955,6955
2417953,6955,-6936,6950,311,6955,6955
2417968,6955,-6936,6950,306,6955,6955
2417986,6955,-6936,6950,301,6955,6955
2418002,6955,-6936,6950,307,6955,6955
2418034,6955,-6936,6950,314,6955,6955
2418052,6955,-6936,6950,311,6955,6955
2418068,6955,-6936,6950,323,6955,6955
2418084,6955,-6936,6950,320,6955,6955
2418101,6955,-6936,6950,323,6955,6955
2418118,6955,-6936,6950,324,6955,6955
2418150,6955,-6945,6950,329,6955,6955
2418167,6955,-6948,6950,323,6955,6955
2418184,6955,-6942,6950,325,6955,6955
2418201,6955,-6557,6950,337,6955,6955
2418218,6955,-6119,6950,341,6955,6955
2418234,6955,-5535,6950,347,6955,6955
2418266,6955,-3667,6950,350,6955,6955
2418283,6955,-2728,6950,344,6955,6955
2418301,6955,-1885,6950,346,6955,6955
2418317,6955,-1168,6950,351,6955,6955
2418334,6955,-93,6950,352,6955,6955
2418351,6955,660,6950,355,6955,6955
2418383,6955,2060,6950,366,6955,6955
2418401,6955,2811,6950,349,6955,6955
2418416,6955,3289,6950,360,6955,6955
2418433,6955,3815,6950,350,6955,6955
2418450,6955,4363,6950,352,6955,6955
2418467,6955,5272,6950,354,6955,6955
2418500,6955,6299,6950,371,6955,6955
2418517,6955,6609,6950,363,6955,6955
2418534,6955,6728,6950,363,6955,6955
2418550,6955,6806,6950,380,6955,6955
2418567,6955,6882,6950,362,6955,6955
2418584,6955,6913,6950,366,6955,6955
2418615,6955,6959,6950,365,6955,6955
2418633,6955,6957,6950,379,6955,6955
2418649,6955,6955,6950,379,6955,6955
2418667,6955,6957,6950,387,6955,6955
2418683,6955,6957,6950,385,6955,6955
2418700,6955,6957,6950,384,6955,6955
2418732,6955,6957,6950,396,6955,6955
2418750,6955,6957,6950,417,6955,6955
2418766,6955,6957,6950,458,6955,6955
2418783,6955,6957,6950,497,6955,6955
2418799,6955,6957,6950,563,6955,6955
2418816,6955,6957,6950,615,6955,6955
2418848,6955,6957,6950,690,6955,6955
2418866,6955,6957,6950,716,6955,6955
2418882,6955,6957,6950,734,6955,6955
2418899,6955,6957,6950,751,6955,6955
2418916,6955,6957,6950,784,6955,6955
2418933,6955,6957,6950,774,6955,6955
2418965,6955,6957,6950,798,6955,6955
2418982,6955,6957,6950,800,6955,6955
2418999,6955,6957,6950,806,6955,6955
2419016,6955,6957,6950,803,6955,6955
2419032,6955,6957,6950,813,6955,6955
2419049,6955,6957,6950,816,6955,6955
2419081,6955,6957,6950,837,6955,6955
2419098,6955,6957,6950,871,6955,6955
2419116,6955,6957,6950,897,6955,6955
2419132,6955,6957,6950,898,6955,6955
2419149,6955,6957,6950,936,6955,6955
2419166,6955,6957,6950,946,6955,6955
2419198,6955,6957,6950,989,6955,6955
2419215,6955,6957,6950,1002,6955,6955
2419232,6955,6957,6950,1013,6955,6955
2419249,6955,6957,6950,1011,6955,6955
2419265,6955,6957,6950,1007,6955,6955
2419282,6955,6957,6950,1035,6955,6955
2419314,6955,6957,6950,1012,6955,6955
2419331,6955,6957,6950,1035,6955,6955
2419347,6955,6957,6950,1025,6955,6955
2419364,6955,6957,6950,1042,6955,6955
2419382,6955,6957,6950,1037,6955,6955
2419398,6955,6957,6950,1035,6955,6955
2419431,6955,6957,6950,1036,6955,6955
2419448,6955,6957,6950,1037,6955,6955
2419465,6955,6957,6950,1038,6955,6955
2419482,6955,6957,6950,1041,6955,6955
2419498,6955,6957,6950,1036,6955,6955
2419515,6955,6957,6950,1041,6955,6955
2419548,6955,6957,6950,1037,6955,6955
2419565,6955,6957,6950,1039,6955,6955
2419581,6955,6957,6950,1036,6955,6955
2419598,6955,6957,6950,1042,6955,6955
2419615,6955,6957,6950,1043,6955,6955
2419631,6955,6957,6950,1040,6955,6955
2419663,6955,6957,6950,1044,6955,6955
2419681,6955,6957,6950,1041,6955,6955
2419698,6955,6957,6950,1043,6955,6955
2419714,6955,6957,6950,1039,6955,6955
2419731,6955,6957,6950,1042,6955,6955
2419747,6955,6957,6950,1043,6955,6955
2419780,6955,6957,6950,1041,6955,6955
2419797,6955,6957,6950,1043,6955,6955
2419814,6955,6957,6950,1047,6955,6955
2419831,6955,6957,6950,1041,6955,6955
2419847,6955,6957,6950,1049,6955,6955
2419864,6955,6957,6950,1057,6955,6955
2419896,6955,6957,6950,1053,6955,6955
2419913,6955,6957,6950,1069,6955,6955
2419932,6955,6957,6950,1033,6955,6955
2419948,6955,6957,6950,1081,6955,6955
2419966,6955,6957,6950,1047,6955,6955
2419983,6955,6957,6950,1042,6955,6955
2420013,6955,6957,6950,1062,6955,6955
2420030,6955,6957,6950,1065,6955,6955
2420047,6955,6957,6950,1064,6955,6955
2420064,6955,6957,6950,1046,6955,6955
2420081,6955,6957,6950,1057,6955,6955
2420097,6955,6957,6950,1063,6955,6955
2420129,6955,6957,6950,1074,6955,6955
2420146,6955,6957,6950,1057,6955,6955
2420163,6955,6957,6950,1029,6955,6955
2420180,6955,6957,6950,1060,6955,6955
2420196,6955,6957,6950,1060,6955,6955
2420213,6955,6957,6950,1062,6955,6955
2420246,6955,6957,6950,1051,6955,6955
2420264,6955,6957,6950,1063,6955,6955
2420280,6955,6957,6950,1067,6955,6955
2420296,6955,6957,6950,1074,6955,6955
2420313,6955,6957,6950,1069,6955,6955
2420329,6955,6957,6950,1069,6955,6955
2420361,6955,6957,6950,1074,6955,6955
2420379,6955,6957,6950,1067,6955,6955
2420395,6955,6957,6950,1080,6955,6955
2420413,6955,6957,6950,1088,6955,6955
2420429,6955,6957,6950,1069,6955,6955
2420446,6955,6957,6950,1077,6955,6955
2420478,6955,6957,6950,1044,6955,6955
2420495,6955,6957,6950,1064,6955,6955
2420513,6955,6957,6950,1044,6955,6955
2420529,6955,6957,6950,1077,6955,6955
2420546,6955,6957,6950,1069,6955,6955
2420562,6955,6957,6950,1069,6955,6955
2420594,6955,6957,6950,1086,6955,6955
2420611,6955,6957,6950,1099,6955,6955
2420628,6955,6957,6950,1092,6955,6955
2420645,6955,6957,6950,1076,6955,6955
2420662,6955,6957,6951,1107,6956,6955
2420679,6955,6957,6988,1041,6965,6959
2420711,7308,7074,7224,875,7039,7224
2420728,6431,7179,4630,769,3552,4517
2420746,-1738,6074,-5725,233,-7199,-6107
2420762,-6738,2606,-7238,100,-7099,-7189
2420779,-7383,241,-7313,-29,-7243,-7311
2420795,-6958,303,-6946,-4,-6937,-6935
2420828,-6461,1159,-7013,42,-6946,-6972
2420845,-5952,2364,-7105,78,-7040,-7084
2420862,-1516,4315,-6346,241,-6961,-6416
2420878,2935,6314,-3979,460,-5342,-4341
2420895,5583,6890,-520,590,-3166,-1241
2420912,6547,7058,1927,662,-412,1244
2420944,7003,6963,6155,868,5204,5879
2420961,6947,6955,7075,969,7013,6282
2420977,6948,6959,6920,1049,6832,6877
2420994,6960,6955,6989,1038,7030,7005
2421011,6958,6958,6967,1079,6981,6972
2421028,6955,6955,6959,1069,6957,6961
2421060,6955,6955,6955,1073,6957,6959
2421078,6955,6955,6955,1083,6955,6959
2421094,6955,6955,6955,1101,6955,6959
2421111,6955,6955,6955,1083,6955,6959
2421127,6955,6955,6955,1109,6955,6959
2421144,6955,6955,6955,1085,6955,6959
2421176,6955,6955,6955,1097,6955,6959
2421194,6955,6955,6955,1135,6955,6959
2421211,6955,6955,6955,1139,6955,6959
2421227,6955,6955,6955,1123,6955,6959
2421244,6955,6955,6955,1142,6955,6959
2421260,6955,6955,6955,1125,6955,6959
2421292,6955,6955,6955,1141,6955,6959
2421309,6955,6955,6955,1165,6955,6959
2421327,6955,6955,6955,1166,6955,6959
2421344,6955,6955,6955,1142,6955,6959
2421360,6955,6955,6955,1167,6955,6959
2421377,6955,6955,6955,1141,6955,6959
2421409,6955,6955,6955,1162,6955,6959
2421426,6955,6955,6955,1167,6955,6959
2421444,6955,6955,6955,1177,6955,6959
2421460,6955,6955,6955,1172,6955,6959
2421476,6955,6955,6955,1189,6955,6959
2421493,6955,6955,6955,1197,6955,6959
2421525,6955,6955,6955,1175,6955,6959
2421543,6955,6955,6955,1127,6955,6959
2421560,6955,6955,6955,1298,6955,6959
2421577,6955,6955,6955,1269,6955,6959
2421593,6955,6955,6955,1264,6955,6959
2421610,6955,6955,6955,1259,6955,6959
2421642,6955,6955,6955,1258,6955,6959
2421660,6955,6955,6955,1251,6955,6959
2421676,6955,6955,6955,1252,6955,6959
2421693,6955,6955,6955,1252,6955,6959
2421710,6955,6955,6955,1260,6955,6959
2421726,6955,6955,6955,1250,6955,6959
2421759,6955,6955,6955,1261,6955,6959
2421776,6955,6955,6955,1232,6955,6959
2421793,6955,6955,6955,1257,6955,6959
2421810,6955,6955,6955,1243,6955,6959
2421826,6955,6955,6955,1238,6955,6959
2421843,6955,6955,6955,1231,6955,6959
2421875,6955,6955,6955,1231,6955,6959
2421892,6955,6955,6955,1258,6955,6959
2421909,6955,6955,6955,1239,6955,6959
2421925,6955,6955,6955,1241,6955,6959
2421943,6955,6955,6955,1228,6955,6959
2421959,6955,6955,6955,1221,6955,6959
2422008,6955,6955,6955,1242,6955,6959
2422026,6955,6955,6955,1227,6955,6959
2422042,6955,6955,6955,1230,6955,6959
2422059,6955,6955,6955,1225,6955,6959
2422076,6955,6955,6955,1226,6955,6959
2422092,6955,6955,6955,1230,6955,6959
2422109,6955,6955,6955,1227,6955,6959
2422142,6955,6955,6955,1221,6955,6959
2422158,6955,6955,6955,1229,6955,6959
2422175,6955,6955,6955,1223,6955,6959
2422192,6955,6955,6955,1229,6955,6959
2422208,6955,6955,6955,1219,6955,6959
2422225,6955,6955,6955,1230,6955,6959
2422257,6955,6955,6955,1225,6955,6959
2422275,6955,6955,6955,1237,6955,6959
2422292,6955,6955,6955,1202,6955,6959
2422308,6955,6955,6955,1229,6955,6959
2422325,6955,6955,6955,1233,6955,6959
2422341,6955,6955,6955,1222,6955,6959
2422374,6955,6955,6955,1203,6955,6959
2422391,6955,6955,6955,1195,6955,6959
2422408,6955,6955,6955,1203,6955,6959
2422424,6955,6955,6955,1193,6955,6959
2422442,6955,6955,6955,1209,6955,6959
2422458,6955,6955,6955,1195,6955,6959
2422490,6955,6955,6955,1197,6955,6959
2422507,6955,6955,6955,1198,6955,6959
2422524,6955,6955,6955,1197,6955,6959
2422542,6955,6955,6955,1199,6955,6959
2422557,6955,6955,6955,1195,6955,6959
2422574,6955,6955,6956,1198,6956,6960
2422606,6957,6955,6963,1214,6967,6968
2422623,6948,6955,6905,1211,6884,6904
2422641,6961,6955,6965,1229,6972,6971
2422656,6959,6955,6958,1173,6956,6953
2422674,6978,6955,6670,1150,6610,7082
2422690,6976,6955,7120,1216,7177,7134
2422723,7073,6955,7554,1191,7656,7567
2422740,7066,6955,7205,1224,7109,7172
2422757,7050,6955,7250,1228,7245,7203
2422775,5058,6955,-7003,914,-7214,-1556
2422790,3114,6955,-6639,822,-8192,-8192
2422807,5643,6955,6721,1110,6729,6696
2422840,7063,6955,7442,1227,7461,7453
2422857,6954,6955,6955,1191,6959,6956
2422873,6959,6955,6954,1199,6957,6954
2422890,6959,6955,6954,1197,6957,6955
2422907,6958,6955,6954,1204,6957,6958
2422923,6958,6955,6954,1200,6957,6957
2422955,6958,6955,6954,1201,6957,6957
2422972,6958,6955,6954,1200,6957,6957
2422989,6957,6955,6954,1206,6957,6957
2423006,6957,6955,6954,1199,6957,6957
2423023,6957,6955,6954,1198,6957,6957
2423040,6957,6955,6954,1197,6957,6957
2423072,6958,6955,6954,1199,6957,6957
2423089,6957,6955,6954,1209,6957,6957
2423106,6957,6955,6954,1194,6957,6957
2423123,6958,6955,6954,1200,6957,6957
2423139,6958,6955,6954,1199,6957,6957
2423156,6957,6955,6954,1193,6957,6957
2423188,6957,6955,6953,1191,6957,6957
2423205,6957,6955,6964,1190,6964,6962
2423222,7013,6955,7222,1214,7272,7230
2423239,6906,6955,6813,1158,6767,6825
2423255,6722,6955,5004,1332,3948,4681
2423272,6269,6955,3289,996,1955,2989
2423304,6981,6955,6497,1197,5932,6302
2423321,6954,6955,6467,1175,5849,6280
2423338,6956,6955,6668,1180,5856,6325
2423355,6956,6955,6770,1210,6308,6611
2423372,6956,6955,6883,1195,6668,6794
2423389,6956,6955,6922,1179,6823,6875
2423421,6956,6955,6957,1198,6948,6952
2423438,6956,6955,6953,1204,6954,6954
2423455,6956,6955,6958,1196,6954,6957
2423471,6956,6955,6955,1201,6957,6959
2423488,6956,6955,6956,1199,6950,6958
2423505,6956,6955,6959,1187,6962,6963
2423537,6956,6955,6960,1190,6963,6964
2423554,6956,6955,6957,1226,6954,6955
2423571,6956,6955,6960,1222,6955,6961
2423589,6956,6955,6959,1231,6957,6957
2423605,6956,6955,6959,1250,6957,6957
2423621,6956,6955,6959,1221,6957,6958
2423654,6956,6955,6959,1257,6957,6957
2423671,6956,6955,6959,1249,6957,6957
2423689,6956,6955,6959,1233,6957,6957
2423705,6956,6955,6959,1249,6957,6957
2423721,6956,6955,6959,1250,6957,6958
2423738,6956,6955,6959,1249,6957,6957
2423770,6956,6955,6959,1258,6957,6958
2423787,6956,6955,6959,1248,6957,6958
2423805,6956,6955,6959,1258,6957,6957
2423820,6956,6955,6959,1255,6957,6957
2423837,6956,6955,6959,1261,6957,6957
2423855,6956,6955,6959,1272,6957,6957
2423886,6956,6955,6959,1277,6957,6957
2423903,6956,6955,6959,1249,6957,6957
2423920,6956,6955,6959,1275,6957,6957
2423938,6956,6955,6959,1248,6957,6958
2423955,6956,6955,6959,1250,6957,6958
2423971,6956,6955,6959,1253,6957,6957
2424003,6956,6955,6959,1284,6957,6958
2424020,6956,6955,6959,1268,6957,6957
2424036,6956,6955,6959,1260,6957,6957
2424053,6956,6955,6959,1267,6957,6957
2424071,6956,6955,6959,1270,6957,6957
2424087,6956,6955,6959,1272,6957,6957
2424104,6956,6955,6959,1284,6957,6958
2424135,6956,6955,6959,1279,6957,6957
2424152,6956,6955,6959,1323,6957,6958
2424170,6956,6955,6959,1267,6957,6958
2424187,6956,6955,6959,1264,6957,6957
2424204,6956,6955,6959,1287,6957,6957
2424220,6956,6955,6959,1274,6957,6957
2424252,6956,6955,6959,1273,6957,6957
2424270,6956,6955,6959,1253,6957,6957
2424286,6956,6955,6959,1263,6957,6957
2424303,6956,6955,6959,1250,6957,6957
2424320,6956,6955,6959,1255,6957,6958
2424337,6956,6955,6959,1255,6957,6958
2424369,6956,6955,6959,1222,6957,6957
2424386,6956,6955,6959,1257,6957,6957
2424403,6956,6955,6959,1233,6957,6957
2424419,6956,6955,6959,1241,6957,6957
2424437,6956,6955,6959,1248,6957,6957
2424454,6956,6955,6959,1248,6957,6957
2424485,6956,6955,6959,1278,6957,6958
2424503,6956,6955,6959,1266,6957,6958
2424519,6956,6955,6959,1267,6957,6957
2424535,6956,6955,6959,1265,6957,6958
2424552,6956,6955,6959,1257,6957,6958
2424569,6956,6955,6959,1284,6957,6957
2424601,6956,6955,6959,1261,6957,6957
2424618,6956,6955,6959,1259,6957,6957
2424635,6956,6955,6959,1257,6958,6957
2424652,6956,6955,6959,1250,6959,6959
2424669,6956,6955,6959,1232,6947,6958
2424686,6956,6955,6959,1251,6895,6955
2424718,6956,6955,6956,1254,6775,6906
2424735,6956,6955,6974,1253,6773,6964
2424753,6956,6955,6903,1272,6499,6723
2424769,6956,6955,6962,1247,6712,6927
2424785,6956,6955,6955,1244,6732,6896
2424802,6956,6955,6957,1251,6759,6911
2424834,6960,6955,6976,1250,6458,6757
2424852,6971,6955,6389,1252,5290,5920
2424868,7016,6955,5349,1241,2980,4363
2424886,6760,6955,1266,1218,-176,1571
2424901,6258,6955,-508,1169,-3519,-767
2424918,5189,6955,-2456,1164,-5453,-3440
2424950,2539,6955,-5405,1121,-6524,-6090
2424967,275,6955,-7174,1030,-7020,-7082
2424985,169,6955,-7097,1015,-7003,-7079
2425001,1187,6955,-6422,909,-6801,-6571
2425019,-64,6962,-6931,909,-6975,-7010
2425035,-1239,6922,-6974,1010,-6949,-6964
2425067,-5886,6963,-6937,729,-6932,-6934
2425085,-6258,6958,-6938,690,-6934,-6932
2425102,-6612,6938,-6937,649,-6936,-6932
2425118,-6703,6852,-6937,637,-6936,-6932
2425135,-6810,6696,-6937,623,-6936,-6932
2425151,-6836,6542,-6937,626,-6936,-6932
2425183,-6894,6085,-6937,618,-6936,-6932
2425201,-6912,5931,-6937,625,-6936,-6932
2425217,-6900,5826,-6937,620,-6936,-6932
2425234,-6930,5586,-6937,607,-6936,-6932
2425252,-6930,5370,-6937,593,-6936,-6932
2425269,-6940,4911,-6937,564,-6936,-6932
2425300,-6936,3904,-6937,566,-6936,-6932
2425318,-6935,3571,-6937,568,-6936,-6932
2425334,-6935,3462,-6937,565,-6936,-6932
2425351,-6934,3259,-6937,563,-6936,-6932
2425367,-6934,2992,-6937,559,-6936,-6932
2425384,-6934,2554,-6937,543,-6936,-6932
2425401,-6935,2109,-6937,537,-6936,-6932
2425433,-6934,1744,-6937,532,-6936,-6932
2425451,-6934,1689,-6937,544,-6936,-6932
2425467,-6934,1399,-6937,548,-6936,-6932
2425484,-6934,885,-6937,507,-6936,-6932
2425500,-6935,173,-6937,511,-6936,-6932
2425517,-6934,-630,-6937,494,-6936,-6932
2425549,-6934,-1501,-6937,462,-6936,-6932
2425566,-6935,-1746,-6937,441,-6936,-6932
2425583,-6934,-1609,-6937,427,-6936,-6932
2425600,-6935,-1959,-6937,453,-6936,-6932
2425617,-6934,-2175,-6937,425,-6936,-6932
2425634,-6934,-2348,-6937,426,-6936,-6932
2425666,-6935,-2542,-6937,409,-6936,-6932
2425682,-6934,-2708,-6937,409,-6936,-6932
2425700,-6934,-3220,-6937,395,-6936,-6932
2425717,-6934,-3401,-6937,388,-6936,-6932
2425734,-6934,-3630,-6937,385,-6936,-6932
2425751,-6935,-3793,-6937,386,-6936,-6932
2425783,-6934,-3885,-6937,371,-6936,-6932
2425800,-6934,-3967,-6937,376,-6936,-6932
2425817,-6934,-4263,-6937,345,-6936,-6932
2425834,-6934,-4536,-6937,358,-6936,-6932
2425849,-6935,-4690,-6937,335,-6936,-6932
2425867,-6935,-5188,-6937,339,-6936,-6932
2425898,-6934,-6231,-6937,323,-6936,-6932
2425916,-6935,-6362,-6937,321,-6936,-6932
2425933,-6935,-6379,-6937,321,-6936,-6932
2425950,-6934,-6326,-6937,320,-6936,-6932
2425966,-6935,-6284,-6937,307,-6936,-6932
2425982,-6934,-6436,-6937,308,-6936,-6932
2426015,-6935,-6832,-6937,324,-6936,-6932
2426033,-6935,-6873,-6937,300,-6936,-6932
2426050,-6934,-6905,-6937,305,-6936,-6932
2426066,-6934,-6870,-6937,297,-6936,-6932
2426083,-6935,-6891,-6937,289,-6936,-6932
2426099,-6935,-6930,-6937,290,-6936,-6932
2426131,-6935,-6932,-6937,276,-6936,-6932
2426148,-6934,-6929,-6937,269,-6936,-6932
2426166,-6934,-6930,-6937,268,-6936,-6932
2426181,-6935,-6930,-6937,256,-6936,-6932
2426198,-6935,-6930,-6937,262,-6936,-6932
2426215,-6934,-6930,-6937,257,-6936,-6932
2426248,-6935,-6930,-6937,239,-6936,-6932
2426265,-6934,-6930,-6937,241,-6936,-6932
2426281,-6935,-6930,-6937,226,-6936,-6932
2426298,-6935,-6930,-6937,233,-6936,-6932
2426316,-6934,-6930,-6937,227,-6936,-6932
2426332,-6934,-6930,-6937,233,-6936,-6932
2426364,-6935,-6930,-6937,215,-6936,-6932
2426381,-6935,-6930,-6937,185,-6936,-6932
2426398,-6934,-6930,-6937,154,-6936,-6932
2426415,-6934,-6930,-6937,155,-6936,-6932
2426432,-6934,-6930,-6937,120,-6936,-6932
2426449,-6935,-6930,-6937,126,-6936,-6932
2426480,-6934,-6930,-6937,78,-6936,-6932
2426498,-6934,-6930,-6937,64,-6936,-6932
2426514,-6934,-6930,-6937,60,-6936,-6932
2426531,-6934,-6930,-6937,25,-6936,-6932
2426547,-6935,-6930,-6937,30,-6936,-6932
2426565,-6934,-6930,-6937,17,-6936,-6932
2426597,-6934,-6930,-6937,14,-6936,-6932
2426615,-6935,-6930,-6937,29,-6936,-6932
2426631,-6934,-6930,-6937,33,-6936,-6932
2426649,-6935,-6930,-6937,27,-6936,-6932
2426664,-6934,-6930,-6937,24,-6936,-6932
2426681,-6934,-6930,-6937,31,-6936,-6932
2426713,-6935,-6930,-6937,56,-6936,-6932
2426731,-6934,-6930,-6937,57,-6936,-6932
2426747,-6934,-6930,-6937,56,-6936,-6932
2426764,-6934,-6930,-6937,60,-6936,-6932
2426782,-6934,-6930,-6937,87,-6936,-6932
2426797,-6934,-6930,-6937,115,-6936,-6932
2426829,-6934,-6930,-6937,128,-6936,-6932
2426847,-6934,-6930,-6937,118,-6936,-6932
2426863,-6934,-6930,-6937,128,-6936,-6932
2426880,-6935,-6930,-6937,90,-6936,-6932
2426897,-6934,-6930,-6937,59,-6936,-6932
2426914,-6935,-6930,-6937,51,-6936,-6932
2426946,-6934,-6930,-6937,35,-6936,-6932
2426964,-6934,-6930,-6937,39,-6936,-6932
2426979,-6935,-6930,-6937,32,-6936,-6932
2426997,-6934,-6930,-6937,32,-6936,-6932
2427014,-6934,-6930,-6937,31,-6936,-6932
2427029,-6934,-6930,-6937,31,-6936,-6932
2427047,-6934,-6930,-6937,26,-6936,-6932
2427064,-6935,-6930,-6937,34,-6936,-6932
2427080,-6935,-6930,-6937,31,-6936,-6932
2427098,-6934,-6930,-6937,32,-6936,-6932
2427115,-6934,-6930,-6937,31,-6936,-6932
2427131,-6934,-6930,-6937,23,-6936,-6932
2427148,-6934,-6930,-6937,26,-6936,-6932
2427179,-6935,-6930,-6937,-1,-6936,-6932
2427196,-6934,-6930,-6937,1,-6936,-6932
2427213,-6934,-6930,-6937,3,-6936,-6932
2427230,-6935,-6930,-6937,0,-6936,-6932
2427246,-6935,-6930,-6937,1,-6936,-6932
2427263,-6934,-6930,-6937,0,-6936,-6932
2427295,-6934,-6930,-6937,-6,-6936,-6932
2427311,-6934,-6930,-6937,-22,-6936,-6932
2427329,-6935,-6930,-6937,-18,-6936,-6932
2427346,-6935,-6930,-6937,1,-6936,-6932
2427363,-6934,-6930,-6937,-7,-6936,-6932
2427379,-6934,-6930,-6937,-5,-6936,-6932
2427411,-6935,-6930,-6937,-16,-6936,-6932
2427429,-6935,-6930,-6937,-18,-6936,-6932
2427446,-6935,-6930,-6937,-11,-6936,-6932
2427462,-6934,-6930,-6937,-29,-6936,-6932
2427479,-6934,-6930,-6937,-20,-6936,-6932
2427496,-6935,-6930,-6937,-30,-6936,-6932
2427528,-6934,-6930,-6937,-23,-6936,-6932
2427545,-6934,-6930,-6937,-22,-6936,-6932
2427562,-6934,-6930,-6937,-28,-6936,-6932
2427579,-6934,-6930,-6937,-26,-6936,-6932
2427595,-6935,-6930,-6937,-18,-6936,-6932
2427612,-6935,-6930,-6937,-22,-6936,-6932
2427644,-6934,-6930,-6937,-27,-6936,-6932
2427662,-6935,-6930,-6937,-15,-6936,-6932
2427679,-6935,-6930,-6937,-32,-6936,-6932
2427695,-6935,-6930,-6937,-31,-6936,-6932
2427713,-6934,-6930,-6937,-14,-6936,-6932
2427728,-6934,-6930,-6937,-34,-6936,-6932
2427760,-6935,-6930,-6937,-27,-6936,-6932
2427778,-6935,-6930,-6937,-29,-6936,-6932
2427795,-6934,-6930,-6937,-30,-6936,-6932
2427810,-6934,-6930,-6937,-29,-6936,-6932
2427828,-6934,-6930,-6937,-21,-6936,-6932
2427845,-6934,-6930,-6937,-33,-6936,-6932
2427877,-6934,-6930,-6937,-32,-6936,-6932
2427895,-6934,-6930,-6937,-30,-6936,-6932
2427911,-6934,-6930,-6937,-28,-6936,-6932
2427928,-6935,-6930,-6937,-27,-6936,-6932
2427944,-6934,-6930,-6937,-33,-6936,-6932
2427961,-6935,-6930,-6937,-29,-6936,-6932
2427994,-6934,-6930,-6937,-29,-6936,-6932
2428011,-6934,-6930,-6937,-28,-6936,-6932
2428027,-6935,-6930,-6937,-31,-6936,-6932
2428044,-6934,-6930,-6937,-32,-6936,-6932
2428061,-6934,-6930,-6937,-30,-6936,-6932
2428077,-6934,-6930,-6937,-32,-6936,-6932
2428109,-6934,-6930,-6937,-33,-6936,-6932
2428126,-6935,-6930,-6937,-34,-6936,-6932
2428144,-6934,-6930,-6937,-28,-6936,-6932
2428160,-6934,-6930,-6937,-33,-6936,-6932
2428178,-6934,-6930,-6937,-33,-6936,-6932
2428194,-6935,-6930,-6937,-33,-6936,-6932
2428226,-6935,-6930,-6937,-32,-6936,-6932
2428242,-6934,-6930,-6937,-33,-6936,-6932
2428260,-6934,-6930,-6937,-30,-6936,-6932
2428277,-6934,-6930,-6937,-35,-6936,-6932
2428293,-6935,-6930,-6937,-31,-6936,-6932
2428310,-6934,-6930,-6937,-31,-6936,-6932
2428343,-6934,-6930,-6937,-32,-6936,-6932
2428360,-6934,-6930,-6937,-33,-6936,-6932
2428376,-6935,-6930,-6937,-29,-6936,-6932
2428394,-6935,-6930,-6937,-32,-6936,-6932
2428410,-6934,-6930,-6937,-32,-6936,-6932
2428427,-6934,-6930,-6937,-32,-6936,-6932
2428459,-6935,-6930,-6937,-36,-6936,-6932
2428476,-6935,-6930,-6937,-33,-6936,-6932
2428492,-6935,-6930,-6937,-35,-6936,-6932
2428510,-6934,-6930,-6937,-28,-6936,-6932
2428526,-6934,-6930,-6937,-52,-6936,-6932
2428542,-6935,-6930,-6937,-26,-6936,-6932
2428576,-6934,-6930,-6937,-33,-6936,-6932
2428593,-6934,-6930,-6937,-35,-6936,-6932
2428610,-6934,-6930,-6937,-34,-6936,-6932
2428626,-6934,-6930,-6937,-30,-6936,-6932
2428643,-6935,-6930,-6937,-36,-6936,-6932
2428660,-6935,-6930,-6937,-31,-6936,-6932
2428692,-6934,-6930,-6937,-33,-6936,-6932
2428710,-6935,-6930,-6937,-29,-6936,-6932
2428726,-6935,-6930,-6937,-31,-6936,-6932
2428742,-6935,-6930,-6937,-32,-6936,-6932
2428759,-6935,-6930,-6937,-28,-6936,-6932
2428776,-6934,-6930,-6937,-32,-6936,-6932
2428808,-6935,-6930,-6936,-30,-6936,-6932
2428825,-6935,-6930,-6939,-3,-6936,-6933
2428842,-6934,-6930,-6926,-3,-6935,-6932
2428859,-6934,-6930,-6899,0,-6928,-6926
2428875,-6934,-6930,-6926,7,-6935,-6933
2428892,-6934,-6930,-6930,-26,-6930,-6936
2428924,-6935,-6930,-6938,-31,-6937,-6936
2428941,-6934,-6930,-6937,-32,-6938,-6936
2428959,-6934,-6930,-6936,-31,-6937,-6936
2428976,-6935,-6930,-6936,-25,-6938,-6936
2428992,-6935,-6930,-6936,-22,-6938,-6936
2429008,-6935,-6930,-6936,-30,-6938,-6936
2429040,-6934,-6930,-6936,-30,-6938,-6936
2429057,-6934,-6930,-6936,-33,-6938,-6936
2429074,-6935,-6930,-6935,-29,-6938,-6936
2429092,-6935,-6930,-6936,-28,-6938,-6936
2429107,-6934,-6930,-6931,-17,-6938,-6936
2429124,-6934,-6930,-6936,-27,-6938,-6936
2429157,-6935,-6930,-6938,-32,-6938,-6936
2429174,-6935,-6930,-6934,-34,-6938,-6936
2429191,-6934,-6930,-6934,-30,-6938,-6936
2429208,-6934,-6930,-6935,-33,-6938,-6936
2429225,-6934,-6930,-6935,-32,-6938,-6936
2429242,-6935,-6930,-6935,-33,-6938,-6936
2429290,-6935,-6930,-6935,-38,-6938,-6936
2429308,-6934,-6930,-6935,-43,-6938,-6936
2429324,-6934,-6930,-6934,-32,-6938,-6936
2429341,-6935,-6930,-6934,-38,-6938,-6936
2429358,-6934,-6930,-6934,-39,-6938,-6936
2429374,-6934,-6930,-6934,-29,-6938,-6936
2429391,-6934,-6930,-6934,-31,-6938,-6936
2429424,-6934,-6930,-6934,-28,-6938,-6936
2429441,-6935,-6930,-6934,-46,-6938,-6936
2429458,-6934,-6930,-6934,-39,-6938,-6936
2429474,-6934,-6930,-6935,-36,-6938,-6936
2429491,-6934,-6930,-6935,-34,-6938,-6936
2429508,-6935,-6930,-6935,-37,-6938,-6936
2429540,-6934,-6930,-6934,-36,-6938,-6936
2429557,-6934,-6930,-6934,-35,-6938,-6936
2429574,-6934,-6930,-6935,-38,-6938,-6936
2429591,-6934,-6930,-6934,-35,-6938,-6936
2429607,-6935,-6930,-6934,-38,-6938,-6936
2429624,-6934,-6930,-6934,-32,-6938,-6936
2429656,-6934,-6930,-6935,-35,-6938,-6936
2429674,-6934,-6930,-6935,-32,-6938,-6936
2429690,-6935,-6930,-6934,-51,-6938,-6936
2429707,-6935,-6930,-6934,-29,-6938,-6936
2429724,-6934,-6930,-6934,-40,-6938,-6936
2429741,-6934,-6930,-6935,-32,-6938,-6936
2429772,-6935,-6930,-6935,-38,-6938,-6936
2429790,-6934,-6930,-6934,-30,-6938,-6936
2429807,-6935,-6930,-6935,-39,-6938,-6936
2429822,-6934,-6930,-6934,-32,-6937,-6935
2429840,-6934,-6930,-6936,-37,-6939,-6938
2429857,-6935,-6930,-6928,-29,-6933,-6923
2429891,-6934,-6930,-6869,-1,-6909,-6878
2429907,-6934,-6930,-6833,3,-6867,-6834
2429923,-6935,-6930,-6837,-26,-6904,-6854
2429941,-6942,-6930,-6821,7,-6893,-6840
2429957,-6924,-6930,-6661,-4,-6746,-6685
2429974,-6930,-6930,-6584,2,-6678,-6599
2430005,-6881,-6930,-6447,32,-6539,-6442
2430023,-6879,-6930,-6452,27,-6554,-6446
2430040,-6868,-6930,-6315,31,-6427,-6398
2430055,-6825,-6930,-6228,36,-6339,-6239
2430073,-6635,-6930,-5990,67,-6109,-5997
2430089,-6517,-6930,-5837,65,-5949,-5851
2430121,-6342,-6930,-5626,76,-5740,-5661
2430138,-6414,-6930,-5639,91,-5757,-5672
2430155,-6441,-6930,-5648,90,-5771,-5693
2430172,-6417,-6930,-5570,90,-5725,-5656
2430189,-6315,-6931,-5436,96,-5561,-5482
2430206,-6256,-6938,-5295,109,-5425,-5354
2430238,-6005,-6886,-4892,122,-5024,-4980
2430256,-5854,-6804,-4807,138,-4930,-4905
2430272,-6092,-6908,-5119,119,-5236,-5193
2430289,-6194,-6935,-5279,98,-5416,-5370
2430306,-6091,-6899,-5131,105,-5278,-5242
2430323,-6086,-6904,-5063,129,-5216,-5182
2430355,-5744,-6744,-4580,164,-4753,-4724
2430372,-5621,-6691,-4456,159,-4628,-4600
2430389,-5609,-6683,-4487,157,-4643,-4616
2430406,-5985,-6824,-4955,134,-5122,-5068
2430422,-6147,-6892,-5338,102,-5321,-5289
2430439,-6348,-6944,-5485,91,-5656,-5565
2430472,-6120,-6875,-5258,90,-5440,-5399
2430489,-5845,-6750,-4936,134,-5097,-5076
2430505,-5934,-6771,-5050,125,-5207,-5178
2430522,-6134,-6862,-5293,106,-5444,-5406
2430540,-6300,-6914,-5702,73,-5718,-5655
2430555,-6566,-6944,-6006,58,-6063,-5980
2430587,-6589,-6938,-5850,65,-6009,-5949
2430605,-6224,-6890,-5565,63,-5721,-5663
2430621,-6053,-6814,-5288,103,-5451,-5394
2430638,-5969,-6775,-5169,121,-5326,-5276
2430655,-6089,-6814,-5283,111,-5460,-5396
2430672,-6302,-6897,-5724,72,-5736,-5662
2430705,-6404,-6949,-5609,74,-5932,-5846
2430721,-6181,-6837,-5491,94,-5679,-5602
2430738,-6057,-6793,-5300,92,-5508,-5435
2430755,-5873,-6728,-5064,127,-5281,-5206
2430772,-5809,-6677,-4935,125,-5153,-5091
2430788,-5952,-6753,-5098,122,-5315,-5235
2430820,-6181,-6829,-5365,89,-5586,-5486
2430837,-6163,-6800,-5309,92,-5614,-5533
2430854,-5871,-6686,-4996,132,-5222,-5154
2430871,-5555,-6541,-4606,160,-4840,-4787
2430887,-5470,-6499,-4434,167,-4684,-4634
2430904,-5499,-6497,-4469,187,-4725,-4672
2430937,-5880,-6667,-4925,127,-5197,-5123
2430954,-5892,-6651,-4904,136,-5194,-5129
2430970,-5854,-6657,-5027,145,-5210,-5114
2430987,-5625,-6525,-4712,141,-4953,-4895
2431004,-5529,-6481,-4578,168,-4833,-4773
2431021,-5352,-6379,-4456,168,-4696,-4652
2431053,-5318,-6362,-4263,191,-4537,-4487
2431071,-5287,-6355,-3737,234,-4297,-4307
2431087,-5318,-6326,-3590,246,-4167,-4013
2431104,-5032,-6136,-3150,270,-3730,-3608
2431121,-5022,-6136,-3217,260,-3779,-3619
2431137,-4796,-6000,-2987,281,-3570,-3466
2431169,-4658,-5903,-2696,297,-3238,-3170
2431187,-4779,-5938,-2673,293,-3201,-3138
2431203,-4788,-5883,-2483,316,-2970,-2909
2431220,-4570,-5760,-2265,329,-2803,-2756
2431237,-4471,-5596,-2102,345,-2640,-2695
2431253,-4440,-5644,-2179,330,-2703,-2675
2431285,-4378,-5581,-2239,322,-2790,-2754
2431303,-4476,-5594,-2300,332,-2870,-2803
2431319,-4545,-5589,-2375,331,-2950,-2881
2431337,-4626,-5564,-2387,328,-2967,-2928
2431353,-4353,-5442,-1984,358,-2754,-2689
2431369,-4023,-5190,-1790,370,-2318,-2373
2431403,-3595,-4945,-1401,397,-1923,-1938
2431420,-3835,-5047,-1666,387,-2213,-2186
2431436,-4081,-5155,-1902,367,-2476,-2426
2431453,-4490,-5362,-2385,354,-2972,-2885
2431470,-4796,-5532,-2982,302,-3364,-3252
2431487,-5044,-5778,-3361,266,-3999,-3709
2431518,-4800,-5689,-3299,275,-3950,-3777
2431536,-4743,-5663,-3223,274,-3870,-3684
2431552,-4990,-5792,-3601,256,-4261,-4057
2431569,-5260,-5946,-3981,226,-4597,-4412
2431587,-5380,-6047,-4267,213,-4784,-4608
2431603,-5435,-6078,-4375,191,-4899,-4755
2431635,-5076,-5831,-3955,228,-4447,-4386
2431652,-4804,-5664,-3522,261,-4130,-3964
2431669,-4822,-5628,-3434,285,-4056,-3838
2431686,-4836,-5581,-3373,290,-4014,-3799
2431702,-4852,-5515,-3263,294,-3924,-3718
2431719,-5067,-5627,-3650,276,-4210,-3982
2431751,-5005,-5658,-3684,275,-4360,-4131
2431769,-4831,-5500,-3410,291,-4093,-3845
2431785,-4554,-5364,-3194,297,-3887,-3674
2431801,-4476,-5214,-2955,323,-3655,-3463
2431818,-4224,-4967,-2496,365,-3155,-3000
2431836,-4260,-4960,-2522,370,-3134,-2953
2431868,-4397,-5001,-2702,365,-3334,-3148
2431887,-4569,-5074,-3034,327,-3436,-3260
2431902,-4754,-5318,-3416,301,-4047,-3814
2431918,-4836,-5439,-3680,280,-4273,-4082
2431935,-4927,-5467,-3765,274,-4386,-4174
2431952,-5187,-5635,-4114,255,-4694,-4508
2431985,-5085,-5484,-3876,271,-4550,-4278
2432002,-4894,-5296,-3504,303,-4232,-3993
2432019,-4758,-5238,-3469,313,-4129,-3939
2432035,-4561,-5148,-3333,313,-4017,-3792
2432051,-4463,-5013,-3116,330,-3764,-3561
2432069,-4627,-5052,-3185,333,-3818,-3616
2432100,-4691,-5017,-3189,347,-3851,-3639
2432118,-4308,-4779,-2626,388,-3414,-3233
2432134,-4064,-4603,-2496,397,-3128,-2987
2432151,-3794,-4444,-2332,409,-2965,-2825
2432167,-4046,-4521,-2496,384,-3104,-2937
2432184,-4437,-4752,-2976,367,-3649,-3468
2432216,-4707,-4894,-3270,348,-3957,-3703
2432235,-4536,-4767,-3051,358,-3727,-3480
2432251,-4258,-4601,-2735,382,-3382,-3170
2432268,-3797,-4353,-2031,431,-2883,-2722
2432285,-3386,-4098,-1814,449,-2420,-2293
2432301,-3500,-4109,-1889,444,-2480,-2365
2432333,-3543,-4080,-1947,444,-2537,-2413
2432350,-3427,-4006,-1817,460,-2387,-2275
2432367,-3181,-3865,-1580,475,-2170,-2079
2432384,-3179,-3845,-1684,474,-2144,-2062
2432401,-3357,-3954,-1801,456,-2334,-2207
2432417,-3490,-4031,-2000,438,-2625,-2486
2432449,-4147,-4319,-2671,408,-3342,-3125
2432466,-4042,-4266,-2529,410,-3195,-2973
2432484,-4000,-4235,-2543,415,-3217,-3010
2432500,-4045,-4250,-2572,416,-3221,-3001
2432517,-3839,-4132,-2431,426,-3060,-2870
2432534,-3953,-4190,-2513,420,-3156,-2971
2432566,-3839,-4097,-2446,420,-3103,-2882
2432583,-3565,-3948,-2116,455,-2739,-2557
2432599,-3319,-3800,-1864,471,-2468,-2296
2432617,-3187,-3713,-1731,483,-2342,-2200
2432633,-3202,-3688,-1745,483,-2364,-2208
2432650,-3176,-3660,-1839,473,-2376,-2227
2432682,-3513,-3829,-2217,448,-2749,-2563
2432699,-3623,-3837,-2186,462,-2872,-2697
2432716,-3631,-3856,-2267,452,-2950,-2730
2432732,-3473,-3766,-2088,465,-2752,-2537
2432750,-3337,-3689,-1924,479,-2591,-2400
2432767,-3390,-3679,-2002,473,-2650,-2444
2432798,-3816,-3891,-2492,443,-3143,-2886
2432815,-3770,-3831,-2413,444,-3062,-2847
2432833,-3649,-3787,-2334,446,-2972,-2749
2432850,-3743,-3833,-2442,457,-3078,-2848
2432866,-3678,-3783,-2375,464,-3028,-2797
2432883,-3611,-3730,-2273,478,-2933,-2704
2432915,-3120,-3444,-1749,476,-2410,-2208
2432932,-3026,-3363,-1639,501,-2281,-2080
2432949,-2904,-3297,-1483,508,-2124,-1922
2432966,-2863,-3256,-1460,517,-2107,-1921
2432983,-2725,-3175,-1297,535,-1942,-1744
2432999,-2797,-3193,-1371,524,-2054,-1861
2433031,-2090,-2753,-544,539,-1195,-1040
2433049,-1783,-2579,-289,568,-928,-781
2433065,-1983,-2607,-330,560,-958,-976
2433082,-2159,-2734,-646,572,-1293,-1162
2433099,-2211,-2748,-717,559,-1356,-1248
2433116,-2522,-2907,-1040,538,-1675,-1538
2433148,-2604,-2935,-1161,540,-1795,-1625
2433165,-2272,-2762,-845,528,-1481,-1312
2433181,-2221,-2715,-744,555,-1398,-1263
2433198,-2351,-2739,-1061,559,-1517,-1351
2433215,-2412,-2699,-822,555,-1515,-1383
2433231,-2345,-2717,-926,564,-1610,-1461
2433264,-2003,-2523,-625,564,-1300,-1162
2433282,-1930,-2444,-547,554,-1216,-1083
2433298,-2006,-2486,-559,571,-1211,-1085
2433315,-2015,-2479,-576,561,-1246,-1109
2433332,-1965,-2363,-422,582,-1102,-1158
2433348,-1816,-2335,-393,580,-1022,-900
2433381,-1325,-2016,183,592,-456,-523
2433398,-1129,-1896,383,622,-290,-209
2433415,-1093,-1830,440,624,-178,-130
2433431,-1217,-1903,314,606,-323,-235
2433448,-1360,-1975,104,631,-600,-594
2433465,-1530,-2103,-181,593,-817,-760
2433497,-1163,-1843,291,623,-402,-323
2433513,-1017,-1745,450,627,-202,-137
2433531,-1237,-1818,238,633,-376,-270
2433548,-1160,-1806,317,604,-360,-277
2433564,-1270,-1798,211,627,-394,-285
2433581,-1194,-1779,199,625,-476,-354
2433613,-784,-1508,735,654,121,168
2433630,-375,-1292,1152,642,440,470
2433646,-476,-1330,1013,659,375,449
2433663,-422,-1279,1077,654,303,341
2433681,-669,-1385,668,651,59,207
2433697,-680,-1361,757,640,87,82
2433729,-564,-1281,1076,653,359,419
2433747,-550,-1277,923,664,246,335
2433764,-723,-1341,690,646,17,26
2433781,-862,-1415,541,634,-120,43
2433797,-215,-1080,1232,627,563,585
2433814,-343,-1108,1102,630,428,483
2433846,-239,-1002,1260,683,555,559
2433864,-137,-905,1403,690,710,740
2433880,-24,-842,1487,693,794,832
2433897,-96,-867,1397,648,691,708
2433914,-143,-869,1334,662,651,687
2433930,-151,-876,1303,662,632,657
2433947,-181,-865,1279,656,606,631
2433979,-252,-878,1182,659,499,536
2433997,-246,-868,1143,659,493,534
2434013,-247,-866,1137,654,482,532
2434029,-354,-911,1019,652,353,426
2434047,-358,-906,1005,651,318,394
2434063,-903,-1189,405,690,-334,-203
2434097,-311,-871,1001,668,321,397
2434114,-238,-833,1050,664,364,468
2434130,-232,-781,1117,689,436,489
2434146,-118,-724,1190,652,480,581
2434163,-645,-988,632,707,-108,5
2434180,-815,-1079,423,625,-291,-151
2434212,-1658,-1535,-554,665,-1257,-1080
2434230,-1718,-1569,-592,620,-1406,-1204
2434247,-1809,-1515,-592,616,-1304,-1246
2434263,-1208,-1284,-62,638,-733,-678
2434280,-919,-1136,137,676,-555,-397
2434296,-851,-1100,257,656,-407,-271
2434328,-934,-1124,187,652,-459,-333
2434344,-889,-1082,223,663,-437,-312
2434362,-494,-865,634,625,-25,63
2434378,-640,-927,315,714,-170,-47
2434396,-544,-712,851,644,196,44
2434412,-632,-884,477,712,-188,-73
2434445,-239,-651,893,643,236,319
2434462,-646,-836,535,686,-139,-42
2434478,-790,-921,354,654,-345,-212
2434496,-1419,-1224,37,655,-904,-709
2434512,-873,-957,53,675,-652,-304
2434529,-1109,-1077,-115,639,-871,-713
2434561,-1394,-1213,-421,652,-1125,-933
2434578,-1244,-1155,-226,644,-938,-777
2434596,-1567,-1298,-612,637,-1323,-1127
2434611,-1622,-1346,-702,646,-1454,-1257
2434629,-1583,-1318,-608,647,-1429,-1217
2434645,-1457,-1304,-657,653,-1400,-1109
2434677,-1566,-1321,-673,630,-1410,-1206
2434694,-1576,-1317,-644,637,-1377,-1170
2434711,-1359,-1198,-485,633,-1248,-1056
2434728,-1459,-1247,-574,653,-1344,-1138
2434745,-1732,-1378,-737,647,-1550,-1319
2434761,-1602,-1314,-743,625,-1493,-1288
2434794,-1866,-1500,-1151,638,-1903,-1589
2434811,-1879,-1461,-1066,619,-1828,-1603
2434828,-2023,-1532,-1205,622,-1961,-1681
2434845,-2033,-1542,-1206,619,-1942,-1678
2434860,-1989,-1530,-1144,627,-1897,-1656
2434878,-2248,-1661,-1437,608,-2188,-1918
2434910,-2397,-1757,-1627,622,-2400,-2086
2434927,-2198,-1661,-1234,623,-2184,-1885
2434944,-1919,-1515,-1099,633,-1835,-1582
2434961,-1628,-1336,-797,624,-1497,-1238
2434978,-1376,-1203,-524,661,-1227,-1021
2434995,-1463,-1215,-601,649,-1304,-1049
2435026,-1330,-1132,-458,649,-1175,-940
2435044,-1291,-858,64,637,-646,-898
2435061,-597,-699,391,671,-278,-96
2435076,-658,-707,373,710,-318,-137
2435094,-331,-521,704,646,2,181
2435111,-829,-773,214,695,-504,-291
2435144,-890,-807,149,669,-598,-347
2435161,-893,-800,-33,675,-640,-379
2435198,-764,-722,203,634,-508,-259
2435209,-645,-642,354,698,-362,-116
2435227,-643,-630,359,683,-348,-103
2435259,-912,-755,76,654,-637,-375
2435276,-1242,-916,-245,692,-956,-661
2435294,-1043,-827,-50,663,-762,-489
2435310,-1118,-848,-153,673,-869,-566
2435327,-805,-676,146,662,-554,-267
2435344,-928,-732,57,700,-632,-363
2435376,-387,-432,603,655,-64,168
2435393,-311,-370,712,702,36,272
2435410,-360,-383,559,705,-8,244
2435426,-538,-456,479,694,-199,55
2435443,-425,-350,681,678,-3,158
2435460,-371,-371,653,704,-49,210
2435492,-103,-201,962,725,242,489
2435510,-43,-148,1012,697,315,529
2435527,-92,-157,970,687,270,485
2435543,-90,-154,970,692,277,482
2435560,-128,-158,894,685,236,435
2435577,-240,-212,771,673,119,335
2435608,-182,-176,848,699,205,414
2435625,-73,-97,976,726,321,532
2435643,11,-53,1058,706,399,598
2435660,-88,-79,967,683,287,484
2435676,-132,-101,881,687,205,389
2435693,-167,-132,839,689,154,345
2435725,-121,-83,892,711,194,340
2435743,-33,-23,983,721,277,433
2435760,-30,-23,984,703,283,416
2435776,-83,-37,932,685,232,353
2435793,-133,-64,872,683,158,278
2435810,-267,-140,657,662,5,130
2435841,-466,-264,493,686,-256,-114
2435859,-719,-391,205,732,-520,-375
2435874,-272,-153,643,679,-74,45
2435891,-144,-55,806,730,96,198
2435908,-51,-4,908,695,191,298
2435926,-90,-8,883,704,136,263
2435941,-35,7,923,709,156,285
2435975,-180,-42,760,682,12,130
2435992,-214,-64,724,695,-2,93
2436009,-140,-2,800,717,79,184
2436025,-87,27,859,713,110,236
2436042,38,93,977,723,208,346
2436058,117,156,1067,716,280,415
2436091,171,204,1126,715,407,520
2436108,190,220,1160,699,434,557
2436125,144,212,1123,702,375,503
2436142,249,279,1229,724,447,577
2436159,249,290,1232,712,441,570
2436175,223,267,1211,704,441,559
2436207,113,213,1083,698,323,459
2436225,210,274,1354,691,412,521
2436241,1101,1065,2602,731,1343,1418
2436258,416,461,1469,767,720,803
2436275,1686,1181,2767,713,2063,2073
2436292,452,521,1540,738,787,851
2436340,2197,1545,3348,755,2675,2671
2436357,2294,1643,3480,786,2840,2810
2436374,2569,1836,3790,745,3148,3106
2436391,2252,1679,3479,790,2819,2809
2436408,2479,1842,3716,781,3077,3036
2436425,2613,1933,3846,772,3221,3151
2436456,3021,2205,4276,796,3707,3579
2436473,2808,2115,4074,776,3479,3385
2436491,2708,2107,4037,785,3421,3277
2436507,2312,1874,3579,793,2902,2848
2436525,1978,1682,3205,752,2502,2490
2436541,1521,1421,2707,743,1999,2005
2436573,1184,1202,2271,710,1549,1585
2436590,967,1086,2038,718,1305,1353
2436607,518,819,1532,728,747,838
2436624,585,802,1490,707,733,821
2436641,294,651,1214,741,431,543
2436657,169,572,1047,700,252,395
2436674,-82,420,764,693,-49,107
2436706,-678,76,66,686,-737,-546
2436723,-282,273,464,662,-330,-173
2436740,-615,91,125,718,-692,-510
2436758,-305,330,569,685,-236,-82
2436773,-146,347,578,727,-207,-64
2436790,-126,360,603,710,-171,-27
2436822,-200,325,518,689,-272,-129
2436840,-255,299,459,688,-319,-192
2436856,-257,279,442,693,-340,-210
2436874,-189,324,582,732,-274,-149
2436890,16,532,898,782,92,47
2436906,422,675,1175,768,408,504
2436923,402,669,1183,715,407,511
2436955,245,610,1032,695,254,379
2436973,195,581,967,702,180,313
2436989,185,589,957,718,166,281
2437007,201,598,961,715,184,290
2437023,171,591,939,713,181,272
2437039,188,602,966,719,220,314
2437072,188,600,978,718,219,339
2437089,175,594,951,701,181,316
2437106,131,563,911,708,148,263
2437123,116,561,880,720,117,253
2437140,143,570,902,709,150,266
2437156,111,554,852,707,90,200
2437172,59,533,816,706,63,182
2437205,35,504,763,703,7,149
2437223,-20,477,695,686,-80,64
2437239,-70,433,633,692,-157,5
2437256,-95,417,587,695,-191,-28
2437272,-102,400,552,691,-245,-35
2437290,-168,381,515,687,-292,-118
2437321,-615,125,5,710,-773,-584
2437339,-963,-76,-385,691,-1174,-942
2437354,-1448,-368,-952,692,-1753,-1485
2437373,-1497,-428,-1025,645,-1821,-1546
2437389,-1570,-490,-1122,680,-1956,-1684
2437405,-1641,-656,-1441,674,-2255,-1761
2437422,-1904,-855,-1764,648,-2602,-2273
2437454,-3188,-1463,-2922,591,-3796,-3359
2437471,-3407,-1610,-3197,560,-4105,-3662
2437487,-4061,-2012,-3900,524,-4738,-4299
2437504,-4591,-2359,-4497,477,-5070,-4810
2437522,-4860,-2642,-5072,421,-5286,-5021
2437538,-5136,-2948,-5216,382,-5588,-5349
2437571,-5062,-3139,-5136,378,-5491,-5292
2437588,-5087,-3271,-5172,364,-5533,-5337
2437605,-5224,-3487,-5321,349,-5678,-5472
2437622,-5521,-3736,-5623,331,-5980,-5769
2437639,-5727,-3939,-5851,302,-6162,-5957
2437656,-5986,-4188,-6160,265,-6365,-6195
2437687,-6003,-4589,-6081,247,-6337,-6209
2437704,-5957,-4781,-6108,246,-6354,-6187
2437720,-6102,-5070,-6258,215,-6490,-6324
2437738,-6450,-5532,-6600,175,-6801,-6637
2437755,-6664,-5852,-6816,121,-6935,-6850
2437771,-6788,-6067,-6893,92,-6943,-6908
2437803,-6814,-6191,-6904,84,-6933,-6930
2437820,-6718,-6210,-6867,78,-6908,-6876
2437838,-6718,-6210,-6867,78,-6908,-6876
2437854,-6703,-6236,-6841,66,-6929,-6892
2437871,-6755,-6227,-6895,62,-6937,-6894
2437888,-6771,-6235,-6869,90,-6932,-6881
2437920,-6588,-6080,-6727,117,-6884,-6775
2437938,-6380,-5791,-6393,158,-6579,-6553
2437954,-6133,-5662,-6238,191,-6447,-6323
2437971,-6166,-5713,-6294,183,-6525,-6361
2437987,-6242,-5715,-6368,180,-6587,-6431
2438004,-6391,-5830,-6511,156,-6719,-6565
2438036,-6451,-5885,-6547,155,-6723,-6591
2438054,-6347,-5801,-6442,154,-6645,-6502
2438070,-6191,-5657,-6169,189,-6377,-6324
2438086,-5944,-5549,-6014,199,-6236,-6091
2438104,-5887,-5419,-5941,230,-6188,-6030
2438121,-6015,-5501,-6060,209,-6300,-6144
2438153,-6136,-5473,-6162,193,-6384,-6241
2438170,-6170,-5461,-6176,202,-6396,-6249
2438187,-6094,-5461,-5984,215,-6328,-6185
2438204,-5922,-5473,-5925,211,-6148,-6013
2438220,-5870,-5375,-5806,226,-6055,-5902
2438237,-5767,-5233,-5738,240,-6004,-5839
2438269,-5674,-4892,-5613,281,-5930,-5739
2438287,-5717,-4792,-5643,280,-5932,-5755
2438303,-5565,-4648,-5451,299,-5752,-5572
2438320,-5306,-4476,-4970,335,-5450,-5277
2438337,-5018,-4108,-4713,378,-5051,-4996
2438353,-4827,-3955,-4580,389,-4927,-4757
2438385,-4369,-3422,-3743,472,-4437,-4120
2438402,-3964,-3176,-3256,506,-4009,-3657
2438420,-3985,-3164,-3217,521,-3963,-3619
2438436,-3833,-3074,-3020,531,-3742,-3426
2438452,-3672,-2962,-2658,541,-3538,-3240
2438469,-3323,-2662,-2249,553,-2938,-2856
2438502,-3144,-2620,-2177,571,-2865,-2618
2438519,-2813,-2426,-1806,586,-2460,-2245
2438536,-2192,-2083,-1140,605,-1765,-1610
2438553,-1648,-1760,-513,646,-1114,-1019
2438569,-1162,-1460,63,665,-524,-474
2438586,-1035,-1358,640,644,-358,-312
2438618,-391,-861,1156,690,605,446
2438636,-376,-876,1089,658,543,516
2438651,-412,-868,1080,663,514,495
2438669,-473,-882,1016,638,449,440
2438686,-1050,-1184,422,699,-171,-150
2438702,-832,-1068,612,645,16,47
2438735,-680,-959,751,667,155,174
2438752,-395,-791,1059,667,467,466
2438769,-445,-782,1042,686,422,434
2438786,-438,-778,1044,672,427,434
2438802,-432,-745,1061,679,426,428
2438819,-505,-765,985,676,352,364
2438851,-451,-698,1029,683,414,415
2438867,-360,-650,1175,692,491,486
2438884,-327,-605,1148,697,521,534
2438901,-210,-528,1247,695,611,644
2438918,-214,-530,1251,685,595,629
2438936,-169,-479,1303,688,668,667
2438968,-87,-405,1392,701,733,736
2438985,-24,-345,1429,693,792,803
2439002,-37,-313,1457,705,799,778
2439018,34,-274,1486,705,827,844
2439035,94,-232,1555,706,887,898
2439052,91,-214,1539,683,887,885
2439083,37,-216,1477,684,792,831
2439101,10,-215,1456,688,767,828
2439118,-29,-227,1431,692,727,782
2439134,4,-175,1476,708,825,827
2439151,100,-134,1538,703,868,914
2439168,94,-121,1521,689,837,884
2439200,89,-117,1487,691,772,842
2439217,83,-112,1472,693,774,858
2439235,76,-97,1456,701,806,863
2439252,88,-71,1471,700,828,869
2439267,104,-64,1482,702,833,881
2439285,279,39,1658,692,1001,1065
2439316,1898,1008,3379,731,2769,2713
2439334,3326,1924,4685,785,4343,4187
2439350,3569,2114,4978,795,4675,4487
2439368,3400,2118,4385,821,4349,4212
2439384,4393,2685,6084,868,5349,5172
2439400,4783,3081,5728,866,5548,5362
2439432,4876,3261,5697,878,5532,5383
2439449,4738,3200,5675,877,5503,5356
2439467,3698,2599,5187,871,4919,4676
2439483,3460,2421,5050,809,4737,4500
2439500,4716,3133,5796,850,5625,5454
2439517,4567,3083,5802,851,5447,5277
2439549,4505,3022,5600,857,5383,5226
2439567,4300,3024,5653,837,5451,5221
2439583,4281,3026,5507,860,5266,5100
2439600,3908,2837,5208,844,4918,4764
2439616,4460,3145,5628,848,5345,5175
2439634,4120,3231,5644,834,5409,4965
2439666,5239,3759,6282,889,6120,5940
2439683,5223,3713,6244,900,6076,5881
2439700,5305,3791,6110,880,5949,5791
2439717,5097,3713,6036,883,5845,5694
2439734,5262,3825,6050,875,5866,5711
2439750,4981,3675,5987,880,5739,5590
2439782,4835,3634,5878,859,5680,5529
2439799,4968,3757,5966,875,5756,5605
2439815,4799,3668,5878,893,5626,5432
2439833,4741,3632,5848,842,5610,5433
2439850,4695,3632,5514,846,5269,5159
2439867,4266,3397,5328,858,5057,4935
2439899,4576,3581,5741,854,5459,5289
2439916,4837,3736,5818,867,5478,5349
2439932,4958,3868,5698,879,5483,5361
2439950,5074,4013,5802,870,5583,5468
2439966,4929,3968,5673,896,5449,5345
2439983,5003,4036,5720,873,5491,5377
2440015,5169,4024,5925,889,5704,5568
2440032,5169,4203,5911,882,5690,5572
2440049,5340,4216,6083,893,5863,5735
2440065,5545,4629,6287,922,6127,6020
2440083,5774,4951,6288,932,6148,6053
2440100,5635,4721,6218,935,6059,5957
2440131,5296,4504,5946,900,5750,5643
2440148,5330,4427,5988,903,5777,5672
2440165,5174,4245,5993,907,5769,5623
2440183,4709,4024,5712,896,5388,5195
2440199,4845,4053,5747,860,5449,5314
2440216,4555,3909,5594,857,5232,5090
2440248,4415,3949,5278,863,4864,4783
2440264,4645,3958,5665,854,5265,5106
2440281,4616,3970,5556,874,5215,5045
2440298,4714,4017,5545,842,5217,5075
2440315,4503,3965,5573,865,5165,4921
2440332,4844,4114,5589,876,5287,5173
2440364,5050,4276,5679,930,5388,5308
2440381,4970,4376,5593,894,5324,5230
2440398,5264,4428,5894,886,5623,5505
2440415,4997,4311,5454,896,5343,5237
2440432,4563,3998,5491,866,5108,4946
2440448,4153,3807,5167,860,4628,4489
2440480,4251,3869,5084,834,4646,4518
2440497,4187,3839,5098,865,4602,4481
2440515,4206,3872,4865,850,4481,4425
2440531,3971,3743,5002,859,4375,4304
2440548,4166,3850,5086,866,4530,4464
2440565,4158,3844,5133,842,4532,4468
2440597,4595,4094,5351,857,4935,4840
2440614,4634,4142,5383,875,5014,4905
2440632,4471,4077,5427,893,4844,4742
2440648,4741,4229,5562,870,5117,4997
2440665,5084,4417,5938,909,5403,5309
2440681,5351,4587,6083,931,5789,5604
2440714,5569,4807,5936,928,5677,5727
2440731,5400,4819,5929,926,5662,5595
2440747,5294,4899,5814,925,5539,5469
2440764,5609,5035,6098,958,5851,5790
2440781,5910,5317,6342,959,6142,6075
2440797,6203,5534,6594,988,6438,6350
2440830,6409,5970,6727,1009,6624,6549
2440848,6414,6105,6558,1000,6420,6545
2440865,6122,6008,6549,1018,6397,6310
2440882,6042,5954,6467,1007,6306,6239
2440898,6081,5980,6509,1006,6347,6260
2440915,6364,6095,6702,1031,6591,6514
2440946,6335,6197,6715,1002,6576,6492
2440963,6392,6268,6679,1042,6615,6525
2440980,6358,6305,6685,1028,6575,6489
2440996,6181,6170,6583,1052,6431,6347
2441013,6332,6278,6661,1025,6542,6459
2441046,6450,6330,6777,1036,6665,6581
2441078,6511,6428,6803,1040,6694,6616
2441097,6443,6382,6714,1042,6599,6547
2441113,6383,6359,6624,1048,6492,6424
2441130,6406,6410,6704,1045,6582,6513
2441148,6306,6346,6620,1039,6495,6418
2441164,6395,6389,6714,1035,6587,6507
2441212,6396,6397,6693,1048,6566,6475
2441229,6293,6372,6588,1037,6446,6384
2441246,6257,6337,6589,1048,6439,6347
2441263,6170,6314,6480,1016,6321,6254
2441280,6169,6285,6510,1035,6340,6254
2441296,6152,6280,6486,1019,6313,6241
2441328,6140,6255,6482,1033,6289,6215
2441346,5992,6175,6359,1006,6138,6066
2441362,6011,6157,6265,1009,6048,6069
2441380,5839,6098,6147,1008,5906,5863
2441396,5995,6204,6324,1017,6092,6044
2441413,6204,6335,6503,1040,6322,6256
2441445,6312,6415,6593,1047,6429,6366
2441462,6220,6358,6520,1044,6338,6269
2441478,5977,6236,6294,1030,6078,6028
2441496,5820,6064,6088,1008,5820,5857
2441512,5636,5960,5909,996,5600,5569
2441529,5621,5934,5955,1009,5656,5623
2441561,5966,6100,6265,1001,6005,5925
2441579,6052,6167,6324,1017,6086,6015
2441595,5940,6137,6237,1007,5984,5908
2441612,5625,6001,5941,997,5653,5594
2441629,5662,5943,5841,971,5534,5487
2441645,5224,5720,5560,990,5200,5173
2441677,5065,5449,5418,985,4978,4940
2441695,5070,5342,5449,931,4937,4858
2441712,4373,4955,4883,934,4094,4091
2441728,4630,5052,5082,908,4300,4281
2441745,5181,5443,5449,947,5032,4898
2441762,5133,5457,5432,952,5017,4991
2441793,5209,5405,5578,986,4963,4888
2441810,5374,5447,5741,963,5086,4975
2441828,5545,5529,5882,981,5298,5144
2441845,5697,5674,5973,983,5546,5447
2441861,5802,5843,6024,995,5708,5626
2441878,5690,5972,6050,1021,5695,5551
2441910,5725,6055,6116,1011,5769,5587
2441927,5976,6155,6272,1020,5960,5874
2441945,6155,6239,6413,1015,6155,6050
2441961,6135,6243,6380,1046,6152,6039
2441978,6090,6298,6332,1025,6099,6019
2441995,5991,6252,6259,1037,5995,5924
2442026,6236,6444,6443,1081,6253,6205
2442044,6455,6583,6664,1070,6520,6442
2442061,6491,6624,6702,1085,6556,6484
2442078,6478,6625,6699,1090,6565,6477
2442095,6490,6652,6742,1091,6605,6493
2442111,6447,6620,6677,1103,6541,6466
2442143,6620,6752,6833,1108,6720,6654
2442160,6696,6857,6912,1128,6849,6718
2442177,6896,6941,6956,1136,6945,6925
2442194,6895,6929,6958,1139,6933,6927
2442211,6903,6935,6952,1151,6951,6932
2442227,6824,6911,6952,1149,6909,6873
2442259,6770,6893,6925,1139,6858,6807
2442277,6806,6919,6931,1133,6888,6848
2442294,6802,6929,6937,1140,6909,6837
2442310,6878,6935,6952,1139,6922,6904
2442327,6875,6934,6955,1167,6938,6915
2442344,6810,6932,6950,1142,6892,6843
2442375,6613,6834,6821,1118,6703,6651
2442393,6741,6889,6870,1125,6808,6764
2442410,6735,6930,6928,1153,6883,6756
2442427,6905,6946,6947,1141,6922,6905
2442443,6922,6962,6962,1148,6949,6927
2442460,6866,6955,6950,1168,6927,6898
2442477,6770,6924,6931,1140,6870,6804
2442509,6664,6872,6825,1130,6727,6680
2442527,6772,6926,6949,1125,6840,6789
2442543,6819,6933,6935,1142,6872,6831
2442559,6867,6957,6957,1141,6931,6889
2442576,6951,6956,6955,1172,6969,6961
2442593,6901,6956,6957,1147,6938,6908
2442625,6721,6925,6895,1127,6781,6721
2442642,6816,6945,6928,1133,6869,6827
2442660,6753,6935,6909,1171,6803,6758
2442677,6896,6961,6958,1153,6940,6910
2442692,6892,6956,6948,1168,6938,6903
2442709,6935,6957,6949,1165,6958,6937
2442741,6834,6955,6946,1175,6890,6851
2442759,6809,6955,6930,1151,6872,6819
2442775,6789,6955,6930,1165,6840,6800
2442792,6855,6955,6931,1145,6890,6854
2442809,6908,6955,6945,1155,6917,6908
2442826,6946,6955,6964,1167,6962,6947
2442857,6750,6942,6874,1169,6796,6741
2442875,6611,6924,6779,1128,6649,6590
2442891,6484,6864,6654,1133,6492,6440
2442909,6296,6787,6487,1115,6276,6230
2442925,6404,6823,6570,1102,6370,6322
2442942,6438,6864,6651,1106,6456,6350
2442974,6295,6777,6452,1114,6213,6179
2442991,5926,6616,6106,1087,5788,5780
2443008,5678,6492,5837,1068,5468,5487
2443025,5658,6480,5798,1058,5406,5416
2443042,5725,6505,5863,1061,5468,5465
2443059,5712,6527,5927,1076,5525,5437
2443090,5546,6400,5661,1075,5159,5187
2443108,5542,6378,5610,1022,5027,5038
2443125,5228,6218,5298,1038,4701,4739
2443141,5125,6158,5171,1003,4500,4555
2443157,5018,6085,5053,1005,4440,4505
2443174,5088,6114,5099,1019,4200,4301
2443207,5401,6238,5391,1010,4518,4597
2443225,5275,6168,5289,1012,4537,4585
2443241,5196,6140,5205,1032,4673,4710
2443258,5408,6251,5451,1027,5014,5030
2443274,5529,6304,5576,1054,5177,5186
2443291,5390,6252,5482,1056,5024,5040
2443324,5671,6393,5754,1075,5340,5330
2443341,5881,6489,5974,1074,5581,5550
2443358,5862,6480,5968,1070,5559,5518
2443375,5662,6375,5751,1065,5349,5326
2443392,5657,6373,5756,1061,5354,5332
2443408,5537,6329,5638,1052,5225,5200
2443440,6113,6609,6213,1101,5909,5866
2443457,6340,6715,6441,1107,6175,6108
2443474,6394,6765,6536,1106,6319,6215
2443490,6330,6736,6466,1144,6231,6171
2443507,6394,6757,6535,1122,6313,6272
2443524,6207,6694,6361,1114,6136,6083
2443556,6450,6804,6594,1133,6397,6343
2443573,6653,6894,6775,1137,6638,6580
2443591,6747,6936,6886,1165,6748,6695
2443607,6752,6932,6873,1161,6758,6702
2443623,6711,6929,6835,1164,6733,6676
2443640,6825,6950,6920,1169,6844,6802
2443673,6864,6957,6938,1182,6891,6853
2443689,6936,6958,6957,1177,6938,6939
2443706,6955,6957,6958,1157,6962,6960
2443723,6956,6955,6959,1187,6956,6955
2443740,6892,6955,6963,1163,6932,6907
2443757,6844,6955,6938,1173,6897,6848
2443789,6798,6955,6940,1197,6867,6823
2443807,6931,6955,6959,1166,6946,6928
2443822,6932,6955,6960,1183,6946,6939
2443841,6968,6955,6957,1164,6960,6963
2443857,6957,6955,6957,1199,6956,6958
2443874,6957,6955,6957,1173,6957,6958
2443905,6942,6955,6958,1173,6957,6957
2443922,6953,6955,6957,1198,6957,6957
2443939,6956,6955,6957,1165,6957,6957
2443957,6955,6955,6958,1161,6957,6957
2443974,6956,6955,6957,1195,6957,6957
2443990,6957,6955,6957,1153,6957,6957
2444021,6953,6955,6957,1157,6957,6955
2444039,6943,6955,6957,1182,6958,6927
2444056,6921,6955,6958,1164,6938,6931
2444073,6927,6955,6958,1193,6932,6922
2444089,6956,6955,6959,1191,6962,6951
2444107,6947,6955,6964,1196,6945,6934
2444138,6837,6955,6944,1151,6857,6804
2444156,6804,6955,6912,1161,6817,6771
2444172,6807,6955,6902,1196,6828,6803
2444188,6907,6955,6940,1162,6900,6885
2444205,6921,6955,6945,1168,6921,6913
2444223,6949,6955,6963,1179,6948,6934
2444255,6844,6955,6922,1160,6818,6795
2444272,6751,6955,6810,1169,6692,6660
2444288,6844,6955,6932,1168,6831,6794
2444306,6816,6955,6885,1172,6801,6771
2444322,6877,6955,6938,1181,6859,6839
2444339,6875,6955,6930,1156,6871,6847
2444371,6702,6955,6800,1164,6654,6614
2444389,6566,6957,6637,1159,6503,6447
2444405,6530,6927,6625,1155,6443,6401
2444422,6596,6954,6686,1157,6490,6444
2444439,6653,6953,6733,1155,6592,6547
2444456,6634,6952,6720,1160,6539,6489
2444488,6287,6901,6395,1126,6106,6079
2444505,6052,6798,6114,1127,5805,5800
2444522,5929,6742,5995,1126,5641,5651
2444538,5702,6655,5757,1114,5381,5398
2444555,6019,6772,6053,1099,5680,5673
2444572,5758,6675,5795,1101,5377,5388
2444603,5631,6627,5609,1075,5088,5118
2444621,5522,6552,5457,1106,4817,4861
2444639,5181,6415,4963,1055,4348,4437
2444654,4985,6302,4785,1029,3980,4108
2444671,4756,6192,4575,1036,3661,3825
2444687,4565,6156,4285,1015,3288,3487
2444720,4031,5898,3655,972,2638,2899
2444738,3879,5788,3487,969,2464,2732
2444755,3804,5721,3286,957,2357,2631
2444771,3570,5577,3035,938,2093,2383
2444788,3473,5485,3028,942,1971,2268
2444804,3392,5411,2912,938,1854,2164
2444837,3079,5218,2578,923,1490,1839
2444854,2855,5077,2334,904,1265,1619
2444871,2758,4995,2199,898,1148,1491
2444887,2862,5014,2297,904,1260,1606
2444905,2982,5065,2392,910,1410,1736
2444920,2766,4874,2131,890,1085,1528
2444953,1889,4415,1292,864,241,615
2444971,1501,4167,824,836,-231,162
2444987,1087,3908,375,805,-694,-280
2445004,767,3692,-13,808,-1096,-667
2445021,690,3612,-82,813,-1206,-766
2445038,777,3609,-181,813,-1119,-703
2445069,1035,3768,424,809,-674,-259
2445086,1366,3842,620,808,-433,-48
2445103,1161,3726,420,815,-603,-227
2445120,1107,3679,380,806,-642,-261
2445138,1212,3714,500,802,-501,-135
2445154,1304,3745,781,808,-371,-9
2445186,1691,3931,1198,841,135,483
2445203,1736,3946,1205,840,264,591
2445219,1659,3904,1170,845,226,561
2445237,1566,3836,1105,842,157,495
2445254,2005,4054,1577,839,619,949
2445270,1770,3926,1375,855,421,753
2445302,1881,3959,1653,839,568,903
2445320,2027,3984,1625,846,656,1068
2445339,1874,3926,1536,841,587,920
2445353,1727,3845,1425,825,455,779
2445370,1703,3818,1387,828,422,736
2445387,1631,3762,1325,835,368,665
2445418,1621,3734,1347,820,417,732
2445436,1619,3707,1344,835,425,742
2445453,1238,3487,971,806,34,400
2445469,819,3227,501,799,-448,-71
2445487,629,3110,293,798,-634,-269
2445503,243,2869,-119,789,-1061,-670
2445535,558,2983,214,798,-735,-355
2445552,639,3009,307,785,-638,-276
2445568,576,2967,156,785,-672,-320
2445586,423,2800,12,776,-923,-572
2445602,269,2726,-64,778,-1031,-660
2445619,191,2676,-143,773,-1115,-743
2445651,298,2699,-33,777,-975,-632
2445668,416,2746,94,767,-804,-468
2445686,382,2710,122,770,-818,-477
2445702,419,2708,-41,767,-792,-464
2445719,-9,2415,-386,774,-1336,-978
2445735,-141,2355,-449,750,-1411,-1050
2445768,-182,2279,-496,768,-1459,-1084
2445784,-129,2282,-420,785,-1396,-1028
2445802,-164,2248,-451,766,-1428,-1067
2445819,-153,2236,-428,749,-1406,-1043
2445835,-110,2237,-381,753,-1339,-986
2445852,-247,2155,-521,736,-1490,-1146
2445884,-201,2151,-479,761,-1421,-1058
2445902,-65,2211,-328,754,-1245,-897
2445917,-73,2203,-293,752,-1212,-866
2445934,-73,2203,-254,754,-1160,-821
2445951,-164,2149,-305,750,-1215,-872
2445969,-187,2084,-357,745,-1281,-895
2446000,-398,1938,-521,735,-1467,-1093
2446018,-371,1942,-495,752,-1438,-1055
2446035,-398,1904,-518,745,-1480,-1094
2446051,-420,1880,-537,749,-1474,-1087
2446068,-413,1854,-535,746,-1455,-1087
2446085,-455,1826,-544,748,-1479,-1104
2446117,-455,1811,-513,750,-1445,-1079
2446134,-433,1797,-500,751,-1402,-1043
2446150,-514,1735,-581,731,-1451,-1098
2446168,-617,1660,-674,726,-1555,-1210
2446185,-658,1627,-702,725,-1609,-1256
2446201,-1216,1197,-1306,788,-2295,-1879
2446218,-885,1509,-806,691,-1935,-1523
2446250,-695,1607,-539,717,-1458,-1294
2446268,-549,1576,-575,762,-1491,-1135
2446284,-491,1614,-496,754,-1429,-1062
2446301,-508,1589,-514,746,-1442,-1095
2446318,-534,1566,-529,739,-1433,-1094
2446334,-597,1508,-598,724,-1465,-1139
2446366,-597,1488,-530,756,-1450,-1117
2446384,-508,1524,-442,754,-1324,-1003
2446400,-496,1526,-407,751,-1289,-965
2446416,-429,1551,-329,751,-1191,-884
2446434,-396,1549,-298,752,-1153,-835
2446451,-381,1555,-279,745,-1138,-838
2446482,-422,1522,-284,751,-1166,-848
2446499,-372,1530,-186,756,-1082,-787
2446517,-344,1536,-170,749,-1001,-718
2446533,-418,1474,-234,736,-1083,-790
2446549,-458,1431,-276,733,-1142,-825
2446566,-427,1441,-248,756,-1111,-811
2446583,-352,1470,-146,754,-1014,-720
2446615,-243,1534,2,750,-829,-553
2446632,-278,1501,-45,725,-854,-569
2446650,-435,1432,-152,725,-1002,-696
2446666,-600,1327,-306,698,-1168,-850
2446684,-711,1247,-437,720,-1283,-953
2446700,-691,1247,-412,741,-1257,-937
2446732,-310,1434,-16,789,-842,-544
2446750,-222,1477,99,761,-732,-442
2446766,-208,1490,109,747,-711,-421
2446783,-280,1455,71,745,-727,-454
2446800,-336,1416,25,724,-798,-523
2446816,-401,1364,-40,730,-886,-607
2446848,-362,1364,5,752,-873,-577
2446866,-271,1406,133,751,-760,-473
2446883,-215,1432,171,755,-635,-403
2446899,-181,1430,188,743,-619,-341
2446916,-207,1419,178,747,-639,-364
2446932,-259,1383,124,729,-712,-429
2446965,-330,1315,54,728,-771,-486
2446982,-317,1322,79,747,-745,-472
2446998,-291,1317,95,745,-715,-441
2447016,-313,1311,116,746,-726,-461
2447032,-273,1321,124,745,-698,-426
2447049,-327,1280,81,737,-743,-450
2447081,-406,1217,1,730,-824,-538
2447099,-405,1206,-7,733,-835,-542
2447116,-395,1203,-3,748,-832,-534
2447133,-386,1195,18,745,-814,-521
2447149,-365,1200,48,749,-789,-504
2447165,-370,1196,46,735,-788,-499
2447198,-350,1197,93,744,-744,-452
2447214,-339,1187,90,744,-766,-448
2447232,-344,1183,116,751,-739,-442
2447249,-343,1163,103,740,-744,-410
2447266,-354,1142,75,722,-763,-420
2447282,-400,1114,14,726,-832,-471
2447315,-764,903,-332,693,-1161,-812
2447332,-887,824,-450,712,-1283,-933
2447349,-919,783,-489,725,-1302,-942
2447365,-895,792,-469,729,-1298,-925
2447381,-754,861,-322,758,-1146,-786
2447399,-688,883,-234,745,-1076,-721
2447430,-701,847,-268,732,-1097,-737
2447447,-705,851,-241,733,-1078,-728
2447464,-729,831,-262,734,-1116,-760
2447482,-715,839,-238,734,-1098,-754
2447498,-640,855,-172,756,-1021,-670
2447515,-620,867,-144,742,-988,-648
2447547,-704,808,-219,712,-1054,-708
2447564,-789,731,-325,714,-1181,-831
2447580,-1237,480,-781,759,-1683,-1309
2447598,-2225,-119,-1843,757,-2779,-2286
2447614,-1946,-46,-1655,687,-2567,-2092
2447631,-2358,-246,-2031,692,-2964,-2514
2447663,-2273,-249,-1906,702,-2769,-2327
2447681,-2253,-318,-2058,714,-3030,-2467
2447697,-2200,-190,-1804,711,-2764,-2441
2447714,-2249,-294,-1988,692,-2822,-2440
2447730,-2141,-253,-1847,712,-2764,-2322
2447747,-2165,-276,-1805,691,-2709,-2249
2447779,-1815,-105,-1450,745,-2362,-1962
2447796,-1472,104,-1119,728,-2007,-1641
2447813,-1852,-91,-1294,742,-2201,-1795
2447830,-1559,53,-1150,736,-2060,-1680
2447847,-1168,241,-807,716,-1689,-1332
2447864,-1021,358,-588,738,-1427,-1121
2447895,-555,649,-10,747,-846,-568
2447913,-372,750,191,768,-633,-377
2447929,-370,755,212,735,-622,-355
2447947,-446,688,92,720,-736,-424
2447964,-673,598,-81,712,-900,-622
2447981,-688,589,-72,717,-905,-610
2448012,-836,488,-216,750,-1058,-745
2448030,-559,636,61,730,-788,-496
2448047,-598,616,50,718,-789,-503
2448064,-657,587,-76,725,-876,-563
2448080,-665,571,-35,743,-881,-560
2448097,-894,434,-319,777,-1170,-811
2448128,-530,629,77,756,-728,-431
2448146,-424,689,210,752,-599,-300
2448162,-327,745,317,762,-493,-206
2448179,-282,761,374,755,-438,-150
2448196,-301,756,353,739,-484,-187
2448213,-367,704,278,726,-551,-261
2448231,-371,716,293,756,-508,-236
2448262,-307,748,377,750,-429,-151
2448280,-281,751,416,749,-424,-130
2448296,-250,777,460,745,-368,-87
2448315,42,940,809,723,-33,231
2448328,251,1064,1018,714,208,463
2448346,-396,725,344,759,-490,-201
2448378,-221,818,521,763,-323,-51
2448394,461,1189,1224,718,415,645
2448412,975,1503,1808,750,1033,1221
2448430,1396,1773,2327,747,1561,1720
2448445,1747,1976,2716,764,1965,2097
2448462,1478,1866,2329,804,1725,1866
2448479,1351,1739,2212,784,1425,1588
2448561,2534,2505,3608,820,2887,2959
2448578,2522,2531,3649,851,2944,2995
2448596,2081,2325,3205,779,2470,2531
2448612,2029,2286,3122,789,2409,2512
2448628,2009,2287,3116,814,2391,2502
2448645,2069,2324,3171,811,2438,2556
2448677,2316,2487,3441,809,2692,2788
2448694,2064,2354,3167,812,2438,2547
2448711,2310,2486,3413,784,2721,2805
2448728,2214,2454,3316,814,2625,2714
2448745,2529,2639,3661,855,3012,3043
2448761,1581,2133,2655,833,1936,2078
2448779,1841,2257,2883,773,2174,2300
2448810,2216,2457,3256,780,2557,2661
2448828,2289,2503,3335,806,2648,2740
2448845,2521,2638,3643,808,2862,2949
2448861,2428,2553,3366,850,2655,2857
2448878,2343,2583,3405,832,2714,2795
2448894,2548,2707,3621,811,2921,2991
2448927,2986,2972,4111,851,3449,3486
2448945,3070,3034,4209,851,3550,3568
2448960,3256,3146,4377,839,3717,3733
2448978,2850,2932,3949,819,3282,3353
2448994,2508,2584,3268,837,2515,2659
2449011,2524,2755,3585,789,2843,2960
2449043,2320,2662,3375,810,2612,2734
2449061,2216,2603,3243,802,2478,2614
2449078,2186,2586,3195,784,2430,2572
2449094,1921,2439,2909,814,2153,2305
2449113,2038,2492,2961,783,2231,2375
2449127,1830,2239,2523,821,1738,2165
2449159,1756,2326,2648,776,1853,2025
2449176,1981,2461,2908,794,2102,2258
2449194,2280,2623,3207,785,2415,2542
2449211,2524,2770,3485,814,2708,2804
2449228,2383,2714,3006,817,2599,2685
2449245,1916,2473,2827,778,2076,2215
2449276,1355,2110,2163,793,1324,1634
2449294,1749,2371,2663,755,1839,2018
2449311,1631,2309,2530,798,1723,1903
2449327,1702,2337,2591,763,1784,1961
2449344,1595,2279,2482,777,1667,1869
2449362,1396,2167,2254,773,1413,1636
2449409,1465,2184,2293,749,1505,1699
2449427,1453,2173,2265,782,1457,1691
2449444,1539,2224,2371,777,1537,1777
2449460,1938,2447,2788,764,1960,2183
2449477,1457,2200,2327,816,1470,1713
2449494,1417,2170,2228,731,1379,1612
2449525,890,1861,1632,758,775,1033
2449542,960,1906,1724,748,895,1106
2449559,1042,1925,1753,781,919,1193
2449577,1612,2238,2384,740,1561,1802
2449593,1436,2156,2211,783,1377,1628
2449610,1840,2390,2667,747,1858,2060
2449641,1328,2113,2125,774,1318,1543
2449659,1274,2104,2081,747,1254,1442
2449676,1073,1975,1803,785,951,1229
2449693,1313,2092,2064,742,1238,1483
2449710,1395,2133,2129,754,1349,1571
2449726,1120,1991,1879,778,1106,1322
2449743,1029,1925,1750,733,957,1190
2449775,170,1425,780,760,-76,236
2449795,-101,1181,329,745,-550,-87
2449809,-304,1085,181,752,-691,-342
2449825,-314,1060,137,745,-721,-381
2449843,-265,1067,169,744,-678,-350
2449859,-328,1014,92,724,-754,-425
2449891,-339,998,76,749,-787,-454
2449908,-339,987,45,722,-786,-460
2449925,-411,942,-54,747,-835,-515
2449942,-375,956,52,742,-737,-436
2449959,-393,946,42,743,-756,-458
2449975,-442,916,-19,731,-793,-500
2449993,-812,689,-417,738,-1230,-895
2450024,-1033,502,-622,682,-1435,-1070
2450042,-858,588,-240,720,-1364,-978
2450058,-435,879,20,751,-753,-490
2450076,-61,1050,361,749,-402,-81
2450092,89,1152,570,748,-192,98
2450109,-19,1085,480,750,-279,21
2450125,-266,954,235,747,-551,-234
2450158,-649,712,-207,725,-1016,-662
2450175,-842,630,-345,724,-1164,-883
2450191,-753,486,-603,755,-1418,-803
2450208,-628,667,-252,725,-1057,-704
2450225,-964,495,-477,769,-1258,-917
2450242,-467,760,-67,707,-830,-519
2450273,-481,739,-46,713,-829,-509
2450290,-537,695,-103,728,-878,-552
2450309,-544,689,-87,749,-846,-548
2450325,-507,710,-44,746,-808,-447
2450343,-375,797,103,777,-658,-317
2450359,-284,866,229,775,-560,-243
2450375,-208,905,330,765,-447,-141
2450407,-174,913,393,752,-357,-73
2450425,-71,1020,590,750,-161,33
2450442,96,1241,993,726,229,210
2450458,824,1678,1819,753,1072,1300
2450474,1528,1936,2306,740,1563,1758
2450491,1525,1971,2371,802,1661,1837
2450508,1572,2004,2422,759,1693,1883
2450540,778,1575,1580,745,773,1046
2450557,584,1468,1363,747,547,838
2450574,364,1321,1070,745,281,570
2450591,269,1274,984,716,204,488
2450607,97,1165,783,746,17,295
2450624,8,1110,700,712,-80,206
2450641,-256,955,388,761,-401,-89
2450672,-443,830,163,743,-631,-308
2450689,-491,779,111,743,-666,-349
2450707,-414,817,219,755,-580,-277
2450724,-375,829,230,735,-557,-240
2450740,-464,762,134,730,-663,-338
2450757,-578,708,25,716,-789,-455
2450789,-626,653,-43,741,-830,-507
2450806,-569,679,13,753,-760,-445
2450823,-415,762,186,755,-554,-270
2450840,-374,808,273,750,-470,-218
2450856,-250,863,367,744,-393,-106
2450873,-248,863,360,742,-390,-103
2450905,-465,744,159,708,-553,-293
2450922,-640,640,-28,721,-744,-474
2450939,-683,609,-87,722,-842,-552
2450957,-625,634,21,754,-803,-513
2450973,-505,708,171,755,-656,-391
2450990,-435,738,185,749,-506,-265
2451023,-507,694,109,712,-592,-348
2451040,-626,623,0,723,-751,-489
2451057,-856,486,-262,713,-1032,-653
2451073,-1378,187,-784,719,-1601,-1258
2451089,-1374,161,-1069,721,-1637,-1270
2451106,-1749,-76,-1231,705,-2051,-1659
2451138,-1541,10,-1028,720,-1867,-1479
2451156,-1201,199,-718,711,-1519,-1179
2451173,-1577,-24,-1000,718,-1774,-1399
2451190,-1594,-45,-1127,709,-1876,-1512
2451206,-1650,-91,-1212,713,-2040,-1663
2451223,-1920,-255,-1201,708,-2324,-1925
2451254,-1049,324,-319,720,-1120,-1001
2451272,-743,386,-206,731,-978,-645
2451288,-760,376,-197,729,-989,-661
2451306,-969,258,-425,722,-1227,-871
2451323,-1072,196,-547,728,-1335,-995
2451339,-1261,95,-692,714,-1553,-1220
2451372,-925,378,-193,730,-944,-674
2451389,-397,587,202,749,-562,-298
2451405,-342,633,283,746,-481,-236
2451422,-253,681,399,744,-357,-103
2451439,-130,753,534,747,-202,51
2451456,-351,644,312,744,-427,-167
2451488,-838,355,-213,728,-941,-631
2451505,-773,388,-69,737,-874,-565
2451522,-731,413,-94,733,-837,-545
2451538,-489,542,163,737,-599,-335
2451555,-287,662,398,747,-377,-133
2451572,-558,515,127,742,-656,-393
2451604,-584,492,104,745,-676,-396
2451622,-488,545,307,745,-579,-302
2451638,-105,775,621,747,-142,109
2451655,166,929,924,751,173,394
2451672,502,1146,1325,753,579,787
2451688,480,1144,1344,762,603,801
2451720,941,1429,1878,779,1163,1315
2451737,1288,1647,2277,781,1572,1696
2451755,1525,1797,2721,812,1866,1950
2451771,1719,1995,2896,804,2226,2282
2451788,2195,2238,3323,821,2669,2701
2451805,2175,2256,3331,811,2685,2699
2451837,2102,2251,3275,810,2623,2624
2451854,2011,2216,3191,811,2513,2533
2451872,1845,2132,3064,808,2313,2341
2451888,1984,2219,3220,812,2458,2484
2451903,2251,2462,3578,825,2930,2929
2451921,2595,2589,3772,840,3129,3124
2451953,2928,2814,4152,842,3542,3503
2451971,3073,2913,4324,858,3725,3660
2451988,3057,2930,4326,865,3734,3673
2452003,3037,2944,4295,869,3725,3647
2452021,3193,3110,4474,871,3987,3787
2452037,3524,3246,4618,870,4227,4130
2452069,4464,3815,5394,912,5095,5008
2452086,4810,4050,5583,938,5320,5220
2452103,4990,4229,5711,948,5464,5375
2452119,4960,4350,5657,949,5416,5344
2452136,4967,4428,5656,953,5411,5340
2452154,4926,4510,5725,957,5398,5315
2452186,5311,4777,6032,983,5817,5705
2452204,5365,4805,6069,977,5854,5754
2452221,5422,4872,6128,989,5921,5812
2452237,4745,4672,5486,1012,5227,5168
2452254,4901,4717,5954,967,5462,5341
2452270,4992,4553,5610,972,5499,5412
2452302,4733,4326,5717,943,5440,5338
2452320,4770,4366,5815,947,5493,5349
2452337,5133,4586,5886,942,5631,5549
2452353,5302,4729,6056,988,5807,5702
2452370,5469,4835,6133,989,5915,5824
2452387,5136,4928,5859,992,5560,5495
2452419,5442,5067,6282,994,6051,5949
2452436,5844,5300,6449,996,6268,6168
2452453,6028,5404,6584,1038,6419,6337
2452470,6323,5769,6751,1036,6636,6553
2452486,6208,5896,6680,1051,6565,6470
2452503,5938,5918,6428,1034,6284,6211
2452535,5856,5696,6439,1047,6273,6201
2452552,5955,5832,6417,1011,6233,6141
2452569,5871,5623,6425,1047,6265,6182
2452586,5892,5746,6497,1025,6317,6213
2452603,6128,5767,6607,1060,6473,6382
2452619,6038,5906,6564,1037,6416,6320
2452651,6184,6060,6655,1048,6520,6433
2452669,6031,6104,6653,1073,6364,6290
2452685,6164,6037,6583,1085,6431,6411
2452702,6054,6074,6529,1009,6375,6304
2452718,6027,6054,6545,1087,6370,6290
2452736,6294,6210,6709,1059,6593,6510
2452753,5966,6100,6492,1055,6307,6232
2452785,5849,6046,6366,1068,6200,6128
2452802,6194,6145,6526,1045,6355,6417
2452818,6050,6160,6611,1081,6452,6316
2452835,6299,6261,6714,1056,6586,6503
2452852,5935,6103,6464,1064,6260,6184
2452869,6036,6119,6512,1044,6318,6250
2452900,5918,6066,6388,1043,6179,6119
2452918,5951,6114,6451,1044,6244,6173
2452934,5907,6043,6376,1061,6180,6119
2452952,5773,5994,6283,1043,6033,5971
2452968,5947,6214,6673,1030,6492,6408
2452985,5875,6140,6376,1075,6151,6081
2453017,5782,6109,6265,1051,6042,5980
2453034,6128,6232,6533,1083,6351,6291
2453051,6051,6218,6480,1041,6290,6218
2453068,6158,6225,6449,1055,6264,6316
2453085,5987,6129,6367,1053,6153,6095
2453101,5583,5863,6112,1059,5825,5781
2453133,5529,5679,6035,1014,5740,5686
2453151,5509,5817,5976,1005,5683,5653
2453168,5526,5760,6005,1019,5704,5665
2453185,5339,5653,5741,1007,5507,5476
2453201,5239,5339,5849,1005,5338,5389
2453217,4984,5294,5672,973,5276,5198
2453250,4966,5230,5574,977,5141,5098
2453268,5177,5390,5611,983,5254,5247
2453284,5173,5429,5609,1008,5242,5235
2453301,5113,5458,5546,999,5190,5181
2453318,5359,5455,5739,1015,5496,5441
2453334,4818,5188,5574,959,4999,4934
2453366,4355,4932,5091,943,4406,4425
2453382,4156,4806,4887,955,4116,4178
2453399,4301,4865,5009,947,4246,4285
2453416,4460,4950,5077,963,4408,4446
2453433,4612,5038,5285,974,4610,4603
2453451,4428,4932,5096,943,4439,4444
2453482,3795,4515,4310,913,3491,3806
2453499,3691,4462,4218,899,3387,3520
2453516,3378,4355,3978,876,3129,3286
2453534,3120,4196,3699,895,2846,3001
2453549,3173,4207,3720,869,2864,3022
2453567,3066,4137,3603,870,2748,2911
2453599,2605,3872,2766,843,2184,2400
2453616,2162,3619,2599,801,1662,1942
2453633,2068,3527,2443,823,1502,1774
2453650,1837,3386,2174,812,1235,1523
2453667,1986,3441,2304,811,1368,1637
2453682,1979,3418,2300,815,1378,1649
2453715,1770,3289,2088,818,1143,1436
2453733,1687,3223,1989,764,1010,1341
2453749,1463,2926,1423,813,439,782
2453767,1366,3006,1595,736,645,967
2453784,993,2783,1212,805,277,599
2453799,910,2712,1092,771,142,483
2453832,392,2380,483,795,-478,-106
2453850,831,2610,1032,749,-22,317
2453866,674,2464,693,756,-217,184
2453883,573,2441,690,751,-209,119
2453899,287,2264,369,753,-545,-188
2453916,13,2097,99,765,-832,-464
2453948,-201,1926,-166,756,-1112,-728
2453965,-35,1994,0,782,-948,-564
2453983,177,2100,325,745,-690,-341
2454000,311,2204,447,734,-449,-124
2454015,401,2156,405,748,-499,-167
2454033,93,2029,197,746,-733,-384
2454064,-27,1930,80,765,-872,-521
2454082,3,1923,112,767,-825,-496
2454098,140,1996,266,749,-663,-361
2454116,82,1958,200,746,-717,-407
2454132,22,1883,125,734,-814,-471
2454148,-211,1765,-63,737,-1005,-697
2454180,-469,1573,-340,755,-1268,-945
2454198,-425,1586,-297,747,-1218,-901
2454214,-399,1585,-280,753,-1181,-870
2454231,-365,1600,-233,754,-1130,-831
2454249,-406,1569,-302,733,-1159,-853
2454265,-482,1476,-383,722,-1292,-931
2454297,-970,1189,-837,753,-1771,-1428
2454315,-1529,813,-1431,722,-2394,-1957
2454331,-1778,643,-1733,716,-2707,-2263
2454348,-1882,536,-1872,713,-2850,-2388
2454365,-1802,556,-1795,717,-2784,-2319
2454382,-2118,345,-2275,707,-3125,-2644
2454430,-2316,173,-2324,692,-3337,-2822
2454448,-2222,167,-2292,691,-3289,-2798
2454465,-2094,222,-2139,717,-3145,-2663
2454481,-2004,256,-1995,715,-2977,-2522
2454504,-2129,181,-2199,714,-3131,-2671
2454531,-2143,127,-2145,723,-3158,-2668
2454563,-2065,167,-2073,683,-3054,-2593
2454581,-2062,167,-2140,709,-3054,-2593
2454598,-2168,136,-2055,708,-3015,-2642
2454614,-2168,136,-2055,708,-3015,-2642
2454631,-2068,167,-1972,712,-2930,-2559
2454648,-2399,-176,-2436,693,-3408,-2834
2454679,-2719,-339,-2645,677,-3650,-3135
2454697,-2793,-414,-2730,676,-3721,-3198
2454714,-2834,-462,-2776,673,-3777,-3252
2454731,-2630,-370,-2561,689,-3538,-3032
2454747,-2483,-291,-2390,699,-3356,-2874
2454764,-2442,-288,-2154,679,-3307,-2829
2454797,-2590,-373,-2430,681,-3378,-2955
2454814,-2667,-455,-2548,681,-3521,-3030
2454831,-2884,-584,-2752,684,-3733,-3228
2454847,-2993,-680,-2871,681,-3872,-3353
2454864,-2963,-673,-2843,688,-3840,-3323
2454881,-3118,-788,-3001,684,-4010,-3479
2454913,-3585,-1084,-3479,621,-4531,-3971
2454930,-3389,-1256,-3597,622,-4313,-3732
2454946,-3763,-1245,-3692,626,-4603,-4166
2454964,-3704,-1241,-3666,641,-4599,-4090
2454981,-3357,-1080,-3320,659,-4291,-3759
2454996,-3289,-1019,-3212,677,-4202,-3677
2455029,-3448,-1385,-3384,699,-3815,-3504
2455047,-3705,-1334,-3931,640,-4406,-3995
2455064,-3840,-1437,-3748,613,-4597,-4149
2455081,-3940,-1529,-3904,630,-4710,-4259
2455098,-4087,-1620,-4063,606,-4826,-4396
2455113,-4124,-1692,-4048,615,-4869,-4491
2455146,-3979,-1648,-3880,626,-4792,-4343
2455163,-4015,-1655,-3815,622,-4832,-4371
2455180,-3870,-1755,-4069,588,-4509,-4108
2455197,-4164,-1817,-4145,601,-4828,-4464
2455214,-4165,-1808,-4180,588,-4867,-4549
2455230,-4196,-1854,-4154,600,-4962,-4524
2455262,-4203,-1886,-4124,598,-5019,-4527
2455280,-4067,-1810,-4013,619,-4892,-4407
2455297,-4196,-1946,-4207,592,-4932,-4503
2455313,-4342,-2059,-4373,590,-4949,-4576
2455330,-4503,-2123,-4463,559,-5028,-4704
2455347,-4563,-2216,-4550,561,-5101,-4801
2455378,-4858,-2385,-4821,554,-5384,-5074
2455395,-4912,-2427,-4862,543,-5384,-5102
2455412,-4751,-2419,-4702,541,-5202,-4927
2455429,-4594,-2369,-4519,557,-5046,-4760
2455445,-4497,-2240,-4236,567,-4931,-4622
2455462,-4585,-2312,-4446,565,-5055,-4725
2455495,-4464,-2247,-4249,594,-5025,-4562
2455512,-4513,-2275,-4295,579,-5105,-4622
2455529,-4604,-2335,-4366,572,-5043,-4680
2455546,-4501,-2300,-4078,591,-4877,-4557
2455563,-4134,-2100,-3765,595,-4524,-4191
2455579,-4113,-2055,-3724,597,-4531,-4139
2455610,-4156,-2093,-3775,609,-4697,-4155
2455627,-4429,-2263,-4034,597,-4908,-4408
2455645,-4669,-2422,-4306,568,-5061,-4672
2455663,-4817,-2581,-4575,549,-5089,-4817
2455680,-4724,-2634,-4483,531,-4991,-4726
2455696,-4658,-2627,-4421,549,-4937,-4655
2455728,-4312,-2303,-3922,595,-4670,-4263
2455745,-4349,-2311,-3917,590,-4747,-4232
2455762,-4462,-2382,-4025,593,-4858,-4369
2455778,-4663,-2473,-4216,576,-4998,-4538
2455795,-4523,-2489,-4105,569,-4750,-4406
2455812,-4710,-2559,-3819,577,-4939,-4604
2455844,-4907,-2689,-4604,526,-5142,-4839
2455861,-4929,-2733,-4601,538,-5191,-4878
2455878,-4981,-2859,-4740,531,-5258,-4949
2455894,-5073,-2958,-4813,514,-5307,-5035
2455912,-4981,-2991,-4768,505,-5211,-4962
2455929,-4902,-3007,-4723,491,-5160,-4944
2455960,-4901,-3061,-4717,493,-5154,-4908
2455977,-4921,-2924,-4592,508,-5071,-4917
2455995,-4778,-2867,-4520,509,-5011,-4754
2456011,-4871,-2805,-4386,547,-5222,-4770
2456028,-4914,-2925,-4585,537,-5112,-4847
2456045,-4873,-2916,-4550,541,-5091,-4798
2456076,-4663,-2874,-4378,532,-4830,-4587
2456093,-4751,-2862,-4384,533,-4925,-4670
2456110,-4849,-2863,-4354,532,-5007,-4707
2456127,-4764,-2788,-4182,543,-4965,-4512
2456144,-4451,-2613,-3844,566,-4694,-4197
2456160,-4261,-2509,-3613,569,-4410,-3988
2456193,-4050,-2377,-3327,595,-4146,-3704
2456211,-3980,-2328,-3415,605,-4029,-3608
2456227,-4319,-2517,-3571,585,-4389,-3924
2456244,-4208,-2460,-3455,600,-4278,-3825
2456260,-3799,-2242,-3010,606,-3813,-3423
2456277,-3630,-2137,-2795,630,-3589,-3203
2456309,-4071,-2377,-3214,604,-4030,-3603
2456326,-4339,-2530,-3506,576,-4359,-3908
2456344,-4657,-2770,-4049,538,-4655,-4277
2456361,-4814,-2891,-4198,532,-4852,-4487
2456376,-4885,-2912,-4159,533,-4945,-4487
2456393,-4934,-2974,-4246,537,-4999,-4581
2456426,-4706,-2942,-4173,532,-4752,-4474
2456443,-4506,-2755,-3810,537,-4541,-4164
2456461,-4368,-2692,-3684,562,-4380,-4039
2456477,-4269,-2606,-3403,573,-4274,-3845
2456494,-4087,-2507,-3241,599,-4069,-3626
2456511,-4132,-2516,-3345,584,-4228,-3727
2456542,-4275,-2586,-3503,563,-4467,-3943
2456560,-4113,-2493,-3337,562,-4274,-3791
2456576,-4161,-2527,-3369,569,-4292,-3808
2456593,-3938,-2393,-3111,587,-4029,-3585
2456609,-3802,-2320,-2960,591,-3870,-3440
2456627,-3923,-2415,-3138,594,-4041,-3526
2456659,-4045,-2431,-3170,591,-4091,-3640
2456676,-4061,-2455,-3192,585,-4105,-3668
2456693,-4043,-2450,-3155,582,-4046,-3618
2456709,-3834,-2329,-2921,590,-3809,-3403
2456727,-3374,-2076,-2495,641,-3307,-2942
2456743,-3303,-2089,-1494,549,-3256,-2981
2456774,-2691,-1712,-1710,706,-2541,-2243
2456791,-2799,-1698,-1677,650,-2498,-2215
2456808,-2755,-1660,-1623,660,-2442,-2166
2456825,-2729,-1635,-1573,682,-2335,-2063
2456842,-2924,-1728,-1759,681,-2534,-2217
2456859,-2567,-1547,-1351,649,-2090,-1848
2456892,-2496,-1531,-1356,699,-2111,-1752
2456909,-1903,-1177,-648,685,-1381,-1191
2456925,-2370,-1412,-1115,700,-1873,-1631
2456942,-2131,-1272,-891,696,-1627,-1435
2456960,-2115,-1261,-855,680,-1602,-1386
2456976,-2294,-1354,-1049,699,-1758,-1539
2457008,-2124,-1259,-849,669,-1578,-1350
2457025,-2563,-1599,-1519,679,-2257,-1722
2457042,-3209,-1857,-2047,638,-2847,-2504
2457058,-3285,-1920,-2175,621,-2974,-2626
2457076,-3023,-1774,-1912,648,-2742,-2402
2457092,-2925,-1729,-1809,655,-2559,-2243
2457124,-2431,-1461,-1275,661,-1988,-1709
2457142,-2375,-1424,-1102,685,-1905,-1628
2457158,-2450,-1552,-1437,675,-2120,-1848
2457174,-2669,-1572,-1534,668,-2233,-1961
2457192,-2876,-1681,-1685,664,-2365,-2070
2457208,-2673,-1579,-1534,650,-2230,-1947
2457240,-2393,-1427,-1233,654,-1876,-1625
2457257,-2169,-1303,-998,678,-1681,-1453
2457274,-2261,-1334,-1093,700,-1753,-1523
2457292,-2116,-1341,-1092,688,-1754,-1537
2457308,-2580,-1500,-1369,673,-2083,-1824
2457325,-2561,-1470,-1437,676,-2215,-1937
2457357,-2214,-1263,-1071,705,-1848,-1591
2457375,-1771,-1034,-623,671,-1370,-1149
2457390,-1799,-1023,-620,709,-1364,-1140
2457408,-1294,-742,-88,743,-793,-614
2457425,-942,-520,334,727,-358,-209
2457442,-1056,-559,256,722,-442,-294
2457473,-1678,-863,-377,739,-1132,-934
2457490,-773,-383,571,676,-169,-20
2457508,-812,-370,590,754,-147,-13
2457523,-573,-219,868,745,130,253
2457540,-595,-206,885,730,104,237
2457558,-600,-194,860,747,73,206
2457589,-453,-110,1012,755,322,450
2457607,-363,-48,1110,751,459,566
2457623,-317,-5,1164,748,487,612
2457641,-295,6,1171,745,511,630
2457657,-299,27,1182,741,509,635
2457674,-335,2,1119,725,467,596
2457706,-388,-7,1077,743,401,559
2457723,-349,10,1094,743,425,576
2457740,-269,61,1179,748,519,667
2457757,-236,99,1222,750,573,718
2457774,-211,128,1234,744,608,758
2457790,-192,135,1258,746,600,760
2457823,-258,122,1153,744,495,706
2457840,-263,123,1169,742,503,701
2457857,-244,145,1180,747,491,696
2457873,-201,159,1195,744,502,761
2457890,-105,209,1238,747,498,824
2457908,-108,198,1195,747,450,819
2457939,-142,205,1155,741,374,760
2457956,-160,213,1145,741,375,748
2457973,-177,218,1151,745,370,737
2457990,-151,249,1190,748,401,751
2458007,-159,242,1172,749,406,748
2458023,-133,267,1204,743,456,767
2458040,-124,296,1201,744,460,765
2458073,-155,287,1160,743,429,704
2458089,-136,299,1168,747,427,694
2458106,-138,303,1168,746,426,669
2458123,-152,313,1167,745,421,662
2458140,-155,327,1169,746,427,685
2458156,-161,323,1165,745,447,667
2458188,-237,290,1095,747,343,585
2458205,-267,268,1153,738,301,558
2458222,-531,131,1952,711,14,263
2458239,5574,3678,6363,852,6177,6051
2458256,4619,3305,5667,930,5405,5310
2458273,4722,3414,5803,937,5584,5484
2458304,4633,3484,5758,905,5519,5434
2458322,4957,3679,5967,927,5765,5649
2458339,4748,3645,5782,925,5564,5582
2458356,4812,3663,5930,913,5708,5584
2458372,4512,3693,5487,900,5214,5122
2458390,4775,3729,5848,921,5606,5494
2458420,5090,3901,5970,920,5783,5654
2458438,5259,4036,6125,939,5928,5798
2458455,5338,4123,6126,967,5961,5831
2458472,5363,4223,6120,946,5958,5798
2458489,5309,4220,6176,951,5979,5833
2458505,5333,4263,6161,921,5994,5826
2458537,5311,4234,6250,931,6068,5906
2458554,5255,4286,6159,945,5983,5800
2458572,5120,4237,5998,961,5809,5622
2458589,5379,4560,6015,931,5850,5813
2458605,5184,4521,5872,946,5687,5626
2458621,4901,4365,5626,953,5409,5258
2458654,5067,4350,5945,977,5750,5567
2458671,5540,4574,6347,938,6187,6003
2458688,5377,4618,6119,979,5981,5788
2458704,5239,4622,5995,941,5845,5643
2458722,5188,4765,6038,942,5764,5577
2458738,5367,4898,6081,980,5935,5754
2458770,5783,5056,6448,977,6339,6138
2458787,5684,5004,6398,988,6293,6027
2458803,5545,4937,6263,969,6129,5888
2458821,5450,4893,6203,955,6072,5823
2458837,5208,4808,5955,963,5821,5550
2458855,5190,4740,5826,940,5648,5553
2458886,4896,4756,5628,925,5431,5195
2458904,5051,4757,5829,980,5646,5375
2458921,5517,4928,6224,948,6065,5811
2458937,5414,5020,6083,954,5893,5683
2458953,5426,5063,6048,980,5871,5681
2458971,4961,4830,5607,972,5428,5266
2459003,4581,4761,5665,935,5048,4863
2459021,5421,4927,6052,963,5869,5661
2459036,5537,4940,6195,970,6011,5796
2459054,5277,4858,6047,982,5858,5636
2459071,5426,4943,6025,950,5825,5649
2459087,5156,4748,5835,953,5612,5431
2459119,4419,4308,5189,891,4884,4753
2459137,4176,4055,5140,899,4624,4517
2459153,3888,3970,4808,871,4355,4259
2459170,3797,3880,4960,885,4274,4155
2459187,3724,3854,4917,869,4148,4100
2459204,3439,3707,4385,875,3878,3766
2459236,3175,3504,4149,856,3431,3444
2459254,3322,3573,4138,838,3560,3612
2459270,2951,3378,3586,838,3153,3244
2459287,1743,2731,2545,805,1855,1941
2459304,1513,2548,2289,765,1543,1672
2459320,1001,2218,1680,751,832,1057
2459352,14,1621,565,835,-204,-18
2459369,-68,1607,510,713,-289,-40
2459387,191,1690,778,754,-43,162
2459404,408,1933,1224,742,502,418
2459420,812,2030,1401,751,671,833
2459436,934,2065,1601,741,798,948
2459468,-90,1518,458,755,-318,-94
2459486,-264,1390,226,751,-521,-292
2459502,-232,1368,271,747,-535,-300
2459520,-249,1339,273,749,-510,-269
2459537,-200,1335,258,746,-506,-248
2459552,-240,1314,230,747,-578,-286
2459585,-314,1283,44,745,-617,-388
2459602,-247,1207,292,747,-687,-330
2459619,-248,1226,289,747,-677,-334
2459636,-247,1230,294,748,-621,-337
2459652,-241,1264,167,740,-521,-316
2459669,-271,1128,479,723,-760,-310
2459701,-707,1068,-331,706,-960,-731
2459718,-415,736,73,707,-1249,-768
2459736,-686,830,-139,691,-1486,-691
2459753,-1238,640,-1605,769,-1765,-1298
2459769,-1622,852,-1249,700,-1642,-1524
2459786,-2017,335,-1874,758,-2216,-2271
2459817,-1621,765,-1232,701,-1734,-1541
2459834,-1621,765,-1232,701,-1734,-1541
2459855,-1621,765,-1232,701,-1734,-1541
2459869,-1621,765,-1232,701,-1734,-1541
2459887,-2274,628,-1631,700,-1864,-2231
2459903,-2216,241,-1611,738,-2192,-2174
2459934,-1619,753,-1260,760,-1337,-1720
2459952,-943,1127,-419,744,-622,-921
2459968,-973,1180,-358,768,-524,-897
2459984,-634,1227,110,773,-223,-578
2460002,-711,1289,-17,761,-259,-573
2460019,-616,1263,50,748,-306,-499
2460050,-567,1288,193,753,-129,-527
2460068,-482,1266,339,751,-178,-285
2460084,-449,1331,159,747,-74,-320
2460101,-495,1282,160,746,-188,-316
2460118,-500,1264,175,750,-186,-319
2460134,-489,1237,188,749,-179,-336
2460167,-348,1263,356,753,-48,-218
2460184,-318,1245,464,749,-20,-154
2460201,-311,1205,432,750,-29,-186
2460218,-332,1168,451,748,-52,-196
2460235,-324,1146,420,747,-22,-186
2460250,-301,1128,483,748,-70,-195
2460283,-276,1067,471,750,-70,-157
2460301,-279,1034,497,747,-120,-150
2460317,-262,1007,534,747,-139,-138
2460334,-261,965,527,750,-167,-163
2460350,-248,941,535,748,-187,-146
2460368,-255,915,541,748,-192,-158
2460416,-247,894,588,747,-157,-158
2460434,-233,871,603,749,-145,-123
2460450,-233,868,600,748,-158,-127
2460467,-263,862,601,747,-160,-152
2460483,-272,845,631,747,-203,-155
2460501,-267,831,665,747,-219,-171
2460532,-49,833,686,743,-234,-162
2460549,-57,833,686,752,-197,-130
2460567,-91,837,680,748,-191,-128
2460583,-91,813,680,748,-184,-148
2460600,-96,811,684,749,-156,-153
2460617,-83,840,709,748,-159,-157
2460649,-85,843,717,749,-182,-161
2460666,-89,839,710,746,-144,-124
2460684,-58,871,721,750,-92,-143
2460701,-94,870,701,745,-82,-143
2460716,-95,871,684,748,-29,-143
2460733,-97,877,685,747,-6,-136
2460765,-131,876,661,745,59,-122
2460783,-129,875,678,747,64,-93
2460799,-132,875,691,750,67,-98
2460815,-128,876,684,747,85,-93
2460833,-160,869,668,748,69,-95
2460849,-161,849,663,750,69,-98
2460882,-132,870,597,746,63,-69
2460898,-154,873,558,747,99,-63
2460915,-156,857,534,746,94,-59
2460934,-163,857,527,747,101,-64
2460950,-168,850,528,748,95,-65
2460967,-166,845,529,749,95,-39
2460998,-126,844,542,747,96,-36
2461015,-149,842,540,747,93,-30
2461031,-155,838,540,747,88,-62
2461048,-153,839,528,748,74,-62
2461066,-153,838,526,750,104,-66
2461083,-132,842,526,749,58,-62
2461116,-127,837,543,745,56,-77
2461132,-127,822,544,748,54,-95
2461148,-129,810,541,747,69,-86
2461165,-126,814,538,747,63,-62
2461182,-126,816,540,749,94,-66
2461199,-125,816,525,747,87,-70
2461231,-97,810,545,745,97,-56
2461248,-85,808,555,750,66,-37
2461266,-94,808,527,748,104,-31
2461282,-98,803,560,749,97,-24
2461299,-30,810,602,747,90,6
2461315,-37,810,603,748,56,14
2461347,-50,809,548,748,56,11
2461365,-28,794,590,748,31,10
2461381,-31,789,673,749,-10,33
2461398,-69,780,606,745,26,-13
2461415,-25,765,641,750,15,41
2461432,-79,775,660,745,13,30
2461463,-99,809,537,747,-22,-2
2461481,-54,774,637,747,-73,5
2461498,-98,772,631,747,-43,-4
2461515,-75,783,565,749,-32,1
2461531,-53,789,597,749,-63,33
2461548,-70,778,664,746,-17,25
2461580,-55,797,616,751,-47,58
2461598,-67,805,590,743,-34,53
2461615,-52,783,611,747,-26,60
2461631,-53,785,666,749,-26,67
2461647,-48,819,574,751,-46,103
2461665,-49,806,609,747,-38,57
2461696,4,799,693,749,-71,75
2461714,-133,868,624,748,9,151
2461730,22,819,741,747,-35,18
2461747,-7,817,979,745,-156,246
2461764,180,910,764,746,-134,70
2461780,14,932,922,750,44,94
2461813,35,1090,672,749,33,150
2461829,250,920,1057,746,-128,352
2461847,39,1200,517,748,-106,360
2461864,297,990,913,746,14,211
2461881,50,1172,724,746,-184,487
2461898,154,1164,663,746,5,244
2461929,220,994,982,747,-42,137
2461947,-8,1165,607,747,-44,248
2461963,82,1093,717,751,-24,203
2461981,-137,1172,669,748,85,69
2461996,26,1107,512,749,0,174
2462012,-206,1148,642,748,-31,62
2462046,-173,1051,688,750,-89,16
2462063,-126,1192,771,746,-8,165
2462079,-155,1043,573,749,18,56
2462097,-371,1100,620,747,4,84
2462113,-237,1116,543,748,16,86
2462129,-237,1069,595,749,-49,66
2462163,-288,1140,429,747,62,61
2462180,-244,1092,524,748,-19,10
2462196,-202,1032,627,747,-28,7
2462213,-234,1033,547,747,-34,-64
2462230,-206,1043,537,748,9,-57
2462246,-201,1016,528,749,-16,-97
2462278,-123,1035,583,748,-33,-67
2462296,-90,987,652,749,-38,-66
2462312,-95,972,609,746,-71,-55
2462329,-95,915,640,747,-71,-58
2462346,-142,872,574,748,-110,-101
2462363,-87,856,634,747,-72,-69
2462395,151,934,922,744,174,168
2462412,-191,707,639,749,-184,-171
2462428,-147,705,601,748,-142,-111
2462446,-122,681,623,748,-156,-117
2462462,-118,679,645,748,-195,-89
2462479,-89,679,663,747,-209,-123
2462511,-100,650,681,748,-222,-110
2462528,-103,625,656,746,-197,-81
2462546,-105,621,665,751,-203,-65
2462562,-82,680,814,747,-95,-51
2462579,-103,613,693,749,-259,-96
2462595,744,1088,1588,750,626,760
2462627,-195,490,673,744,-353,-127
2462644,84,767,913,739,-70,157
2462661,675,1210,4810,696,419,621
2462679,7362,7244,7228,1259,7283,7296
2462695,6917,7234,7228,1197,7268,7251
2462712,6954,6962,6959,1209,6960,6961
2462744,6955,6961,6958,1207,6958,6958
2462762,6958,6960,6957,1215,6957,6956
2462779,6957,6961,6957,1218,6957,6957
2462796,6957,6960,6957,1209,6957,6957
2462812,6957,6960,6957,1218,6957,6957
2462829,6957,6960,6957,1214,6957,6957
2462860,6957,6960,6957,1213,6957,6957
2462877,6957,6960,6957,1224,6957,6957
2462894,6957,6960,6957,1198,6957,6957
2462912,6957,6960,6957,1216,6957,6957
2462927,6957,6960,6957,1208,6957,6957
2462944,6957,6960,6957,1210,6957,6957
2462977,6957,6960,6957,1207,6957,6957
2462994,6957,6960,6957,1213,6957,6957
2463011,6957,6960,6957,1206,6957,6957
2463028,6957,6960,6957,1217,6957,6957
2463045,6957,6960,6957,1211,6957,6957
2463061,6957,6960,6957,1207,6957,6957
2463093,6957,6960,6957,1211,6957,6957
2463111,6957,6960,6957,1205,6957,6957
2463126,6957,6960,6957,1207,6957,6957
2463144,6957,6960,6957,1220,6957,6957
2463160,6957,6960,6957,1205,6957,6957
2463178,6957,6960,6957,1206,6957,6957
2463209,6957,6960,6957,1201,6957,6957
2463227,6957,6960,6957,1205,6957,6957
2463243,6957,6960,6957,1214,6957,6957
2463260,6957,6960,6957,1203,6957,6957
2463278,6957,6960,6957,1195,6957,6957
2463294,6957,6960,6957,1215,6957,6957
2463326,6957,6960,6957,1214,6957,6957
2463343,6957,6960,6957,1206,6957,6957
2463360,6957,6960,6957,1197,6957,6957
2463376,6957,6960,6957,1200,6957,6957
2463394,6957,6960,6957,1200,6957,6957
2463410,6957,6960,6957,1200,6957,6957
2463442,6958,6960,6957,1197,6958,6956
2463460,6959,6960,6957,1197,6959,6957
2463476,6959,6960,6961,1201,6963,6953
2463493,6940,6960,6968,1198,6934,6927
2463510,6828,6960,6926,1190,6783,6764
2463525,6686,6960,6808,1184,6629,6612
2463559,6515,6960,6621,1165,6374,6380
2463575,6438,6962,6534,1162,6259,6285
2463592,6264,6933,6325,1152,6005,6053
2463610,5962,6823,5812,1114,5320,5687
2463626,5518,6685,5428,1093,4888,5094
2463643,5110,6517,4985,1062,4368,4634
2463675,4767,6326,4544,1041,3592,4035
2463693,4611,6270,4211,1027,3202,3693
2463709,4226,6152,3601,990,2469,3050
2463726,3522,5916,2407,935,1636,2293
2463742,2923,5543,1513,911,880,1611
2463759,1441,4684,317,899,-847,-50
2463792,906,4255,-367,882,-1594,-744
2463809,520,3988,-851,825,-2098,-1182
2463826,474,3892,-932,836,-2191,-1264
2463843,518,3844,-997,823,-2183,-1224
2463860,546,3714,-1036,804,-2290,-1183
2463875,461,3601,-1230,804,-2386,-1259
2463907,302,3487,-1265,810,-2439,-1421
2463924,366,3511,-1209,840,-2348,-1378
2463942,402,3483,-1071,827,-2265,-1316
2463959,397,3478,-1105,825,-2224,-1311
2463976,420,3460,-1080,815,-2175,-1282
2463991,359,3417,-1076,810,-2169,-1314
2464025,247,3280,-1110,812,-2277,-1405
2464042,198,3216,-1111,801,-2288,-1471
2464059,189,3210,-1192,810,-2269,-1444
2464075,174,3154,-1128,805,-2271,-1457
2464092,178,3163,-1084,814,-2211,-1391
2464109,62,3130,-1079,812,-2139,-1341
2464141,90,3110,-1008,806,-2133,-1317
2464158,99,3109,-957,807,-2154,-1319
2464175,90,3071,-941,808,-2120,-1327
2464192,46,3059,-1009,805,-2112,-1331
2464208,109,3043,-878,810,-2055,-1276
2464225,92,3012,-859,800,-2035,-1259
2464257,-11,2943,-941,780,-2060,-1316
2464275,26,2842,-623,795,-2051,-1272
2464291,42,2848,-886,780,-2102,-1277
2464308,-35,2807,-666,777,-2177,-1200
2464325,-92,2752,-1092,750,-2258,-1513
2464341,-378,2722,-1184,732,-2502,-1477
2464373,-846,2276,-1619,749,-2979,-2453
2464390,-1542,2176,-2524,760,-3493,-2504
2464407,-1335,2061,-2227,750,-3561,-2641
2464424,-1300,2202,-2444,757,-3207,-2666
2464441,-1267,2197,-2396,763,-3176,-2566
2464458,-1102,2168,-2179,779,-3053,-2552
2464489,-617,2542,-1705,810,-2335,-1810
2464506,-214,2560,-902,816,-1868,-1486
2464524,-153,2699,-1159,812,-1742,-1354
2464540,-67,2657,-583,811,-1539,-1202
2464557,-333,2820,-1267,778,-1344,-1274
2464575,-303,2634,-953,779,-1538,-1433
2464606,-388,2644,-1057,797,-1498,-1514
2464624,-310,2667,-920,813,-1175,-1304
2464639,-342,2694,-893,809,-1180,-1262
2464656,-341,2704,-810,809,-1146,-1196
2464673,-286,2623,-749,805,-1101,-1149
2464690,-204,2537,-547,806,-1107,-1078
2464722,-145,2487,-577,782,-1086,-982
2464740,-55,2490,-467,794,-1046,-871
2464756,49,2426,-571,784,-1129,-799
2464774,41,2373,-397,780,-1162,-764
2464790,-23,2384,-445,784,-1084,-807
2464807,-26,2363,-475,775,-1146,-857
2464839,-27,2361,-329,777,-999,-803
2464857,16,2383,-302,788,-948,-705
2464873,-10,2312,-199,780,-1002,-733
2464889,-4,2325,-262,780,-951,-699
2464906,155,2374,59,782,-770,-516
2464923,160,2379,121,781,-751,-481
