t,AF3,F7,F3,F4,F8,AF7
0.0000,-76.6965,768.7213,338.3727,664.6362,-181.2578,-13.6995
20.0000,-97.9048,757.2634,351.6485,669.4547,-168.4627,-20.6754
40.0000,-61.7294,769.9868,350.3717,667.6653,-165.2316,-11.8087
60.0000,-73.9378,752.2211,335.6028,660.2643,-187.4768,-30.7540
80.0000,-90.6637,745.0875,327.4318,649.6736,-188.1427,-35.6348
100.0000,-64.0602,756.1383,348.5574,665.2938,-180.5484,1.9576
120.0000,-61.6030,758.1355,350.4587,669.7131,-179.1040,2.9923
140.0000,-63.0865,756.9940,337.5010,657.1532,-204.7068,0.9808
160.0000,-66.5112,761.0389,333.5346,651.7191,-185.8112,12.1477
180.0000,-63.1486,764.9340,345.4753,664.1005,-180.7600,31.8202
200.0000,-65.4167,753.0928,349.5716,662.8279,-187.8165,35.1018
220.0000,-60.1088,749.7743,351.4674,659.1506,-201.9638,31.7781
240.0000,-52.3005,754.3310,356.5799,683.9247,-178.7468,64.1419
260.0000,-76.3211,742.8702,339.3951,652.0906,-205.9243,60.7475
280.0000,-59.2911,758.3773,351.6043,661.8738,-182.4433,90.1380
300.0000,-55.2514,772.7347,360.3785,683.0560,-174.1371,96.7285
320.0000,-52.1934,771.3687,352.6559,664.0515,-167.3909,101.1704
340.0000,-60.2658,772.6810,349.3486,673.8727,-167.2553,111.6630
360.0000,-27.2976,785.2934,371.6057,692.1454,-149.1487,148.2179
380.0000,-37.3116,786.5452,338.4087,661.9320,-153.3472,134.7938
400.0000,-67.2408,771.3972,347.5922,667.1144,-157.0876,129.3002
420.0000,-29.4663,782.5214,348.3999,674.8614,-158.6031,148.8005
440.0000,-31.1848,799.4437,361.6101,685.1981,-166.9544,156.4519
460.0000,-26.3710,803.4949,370.3647,684.8206,-156.6184,170.7609
480.0000,-37.1911,784.3500,364.6099,681.1865,-182.7721,153.4384
500.0000,-29.4735,806.5647,364.4439,690.7478,-162.9351,183.5968
520.0000,-36.1680,793.2813,357.6076,684.1743,-180.7177,168.4292
540.0000,-28.4241,811.5352,366.4527,691.7966,-159.0337,189.6540
560.0000,-34.3262,810.2253,342.5103,666.1225,-170.5726,178.5077
580.0000,-19.2764,833.7208,376.4770,694.7695,-150.2215,200.6336
600.0000,-6.2005,843.1893,373.5428,697.1446,-149.3649,198.3978
620.0000,-30.2080,841.7674,363.5250,686.9081,-165.2579,179.5698
640.0000,-25.3103,843.1437,365.4811,690.1278,-157.3258,183.4415
660.0000,-28.2863,839.6879,354.5414,673.7353,-178.3718,172.5384
680.0000,-56.4436,842.1510,331.4230,648.2734,-188.0783,159.3584
700.0000,-31.1162,843.7466,349.6107,663.7566,-178.4875,153.5856
720.0000,-49.4845,819.2240,337.2943,663.1292,-169.0303,147.4344
740.0000,-58.9864,817.8696,341.6693,657.8215,-180.7133,115.6891
760.0000,-58.5029,816.1016,345.2231,661.1962,-185.9725,121.4663
780.0000,-58.0379,806.8512,350.7880,659.7567,-184.6195,120.6126
800.0000,-50.7555,815.0919,345.1449,660.1108,-182.9265,109.5262
820.0000,-63.9243,817.0416,349.8319,654.8907,-183.8338,89.5070
840.0000,-71.8013,820.9286,329.0564,632.0464,-195.8460,60.4061
860.0000,-58.6150,828.8690,340.9548,661.9191,-152.8176,65.6495
880.0000,-61.9954,810.9781,331.9929,654.1232,-165.7743,58.5356
900.0000,-63.6534,810.9976,328.0390,651.9561,-168.8348,35.4789
920.0000,-66.0742,807.8565,326.9151,653.0396,-170.6310,31.4020
940.0000,-66.4054,811.0360,325.1071,656.8638,-158.8606,28.7038
960.0000,-54.2095,829.7431,351.8885,675.1171,-145.6919,36.3165
980.0000,-61.2809,803.9911,319.1580,652.8442,-172.9294,2.5166
1000.0000,-67.4146,829.7086,322.8025,634.9426,-172.7229,-4.3853
1020.0000,-62.1622,831.1226,319.2279,633.9519,-159.9491,-5.1989
1040.0000,-65.4981,832.7475,319.7189,630.0342,-155.6953,-16.3136
1060.0000,-65.9471,828.0607,324.2884,635.8834,-158.8792,-34.2048
1080.0000,-62.7480,829.6789,340.6674,655.9427,-169.7559,-20.2767
1100.0000,-56.8928,838.1975,317.3672,625.9067,-161.8442,-4.2725
1120.0000,-56.8824,850.6631,332.6145,656.9982,-145.7180,0.5523
1140.0000,-45.5619,838.1933,320.4302,641.0027,-148.8215,-6.1489
1160.0000,-48.9520,846.6619,331.5303,654.0078,-137.6688,-14.4075
1180.0000,-47.4998,841.0027,339.4877,658.0059,-129.8342,-11.3107
1200.0000,-71.2387,831.8441,307.4883,624.0524,-151.7612,-67.2450
1220.0000,-55.4573,851.1088,329.4376,628.8973,-155.7695,-57.1773
1240.0000,-34.2764,845.7919,337.5202,642.9638,-147.7626,-52.2425
1260.0000,-61.3603,835.9807,340.4583,655.0285,-142.7315,-56.2817
1280.0000,-35.4015,842.7826,336.4962,658.0554,-135.8914,-57.3461
1300.0000,-66.2429,836.8727,331.4960,649.9230,-157.5679,-65.2063
1320.0000,-55.3663,870.8922,332.5507,654.8737,-150.0074,-65.2552
1340.0000,-29.1004,874.9972,331.4715,646.0894,-160.6986,-63.3825
1360.0000,-47.5466,882.9888,337.5797,651.9131,-150.0606,-64.0326
1380.0000,-60.1254,885.7704,316.3609,635.8767,-143.6071,-65.3132
1400.0000,-27.4897,908.9895,335.6529,662.9731,-146.0876,-58.1296
1420.0000,-54.0974,895.8382,322.3259,632.0389,-152.4817,-75.4364
1440.0000,-51.5344,897.2727,326.6754,635.9957,-135.0875,-66.0163
1460.0000,-40.0137,873.6121,333.2706,650.9375,-169.4382,-97.4972
1480.0000,-37.4380,878.2501,324.7773,630.0573,-173.2718,-75.0666
1500.0000,-42.1018,796.7101,329.1378,661.9791,-154.2386,-69.7366
1520.0000,-59.5601,667.3531,316.8748,624.1255,-168.2356,-93.9258
1540.0000,-34.0778,620.5490,327.0418,646.8768,-153.3187,-69.8350
1560.0000,-36.5114,512.3231,328.0082,648.9899,-168.3148,-60.8547
1580.0000,-29.1711,483.5307,336.9148,653.8869,-151.1124,-64.7847
1600.0000,-26.2898,432.2395,343.1068,665.1339,-139.4437,-54.6854
1620.0000,-66.3343,394.3724,310.7850,635.8297,-159.1145,-71.8968
1640.0000,-31.1528,375.4897,320.2664,637.0959,-154.4197,-62.5381
1660.0000,-27.5092,337.2737,332.6747,653.8848,-127.9572,-57.9664
1680.0000,-39.1043,299.4055,333.4221,654.9481,-157.6894,-63.3696
1700.0000,-23.4989,322.1411,358.5114,694.8871,-122.9887,-31.1778
1720.0000,-26.9554,321.3700,337.5421,654.0979,-153.7227,-61.3987
1740.0000,-31.7276,332.2443,318.3254,646.8786,-152.9175,-63.3198
1760.0000,-26.7870,335.5530,336.7611,660.0424,-121.6557,-56.3822
1780.0000,-24.8660,349.1880,324.1761,652.8293,-130.7023,-61.3362
1800.0000,-32.6164,359.6190,323.9310,658.9675,-127.9093,-35.2341
1820.0000,-28.1553,382.1790,329.0012,654.9704,-124.6543,-31.4937
1840.0000,-33.4651,372.5894,319.1117,658.0984,-129.9096,-32.1054
1860.0000,-20.2729,389.2527,344.8322,661.9952,-153.5359,-21.5405
1880.0000,-0.3299,403.4678,357.2581,672.1094,-134.8820,0.9679
1900.0000,-26.4802,420.1516,331.6596,657.9824,-140.4598,-2.6799
1920.0000,-30.9867,450.5936,313.4389,630.8598,-148.1640,-9.9436
1940.0000,-18.6061,503.1547,331.4958,659.0791,-152.5116,-3.7063
1960.0000,-1.7852,588.4579,338.5648,672.0469,-121.2214,10.0027
1980.0000,-24.8270,646.2744,330.2964,656.1254,-151.3694,-5.8924
2000.0000,-30.5715,704.6298,324.7807,661.8225,-152.1725,-3.7344
2020.0000,-31.0457,754.2883,317.1367,642.1296,-153.1987,-6.8895
2040.0000,-29.3289,820.5476,323.9013,651.8065,-169.2964,-33.6300
2060.0000,-32.2839,845.5765,313.0374,640.0437,-178.2295,-21.9003
2080.0000,-32.2223,859.3779,305.0194,631.8016,-187.4770,-31.7159
2100.0000,-21.5218,898.4432,327.8760,652.1805,-153.0245,-2.0626
2120.0000,-27.0463,921.2909,324.1713,653.8674,-167.5409,-4.5574
2140.0000,-5.7884,924.6738,312.7577,645.1862,-174.0360,-11.9278
2160.0000,-18.7654,947.3857,319.3071,653.8472,-185.4858,5.0640
2180.0000,-2.8712,977.7881,332.6146,663.2638,-165.8826,6.7606
2200.0000,3.1705,988.3278,337.4137,666.7961,-158.7261,20.0485
2220.0000,0.6822,988.7159,329.5033,671.1428,-159.8492,11.6695
2240.0000,-11.3583,1009.2241,331.4872,656.8034,-180.7259,0.3988
2260.0000,3.6183,1010.9585,335.4332,658.1853,-179.7918,20.8031
2280.0000,7.4421,1044.0195,337.5867,660.8301,-157.8043,22.1240
2300.0000,5.3305,1047.1185,351.3781,667.1166,-177.8029,14.7548
2320.0000,23.7444,1067.0302,352.6242,688.8639,-147.8701,33.0759
2340.0000,3.3291,1065.1381,335.3212,654.1717,-158.7755,31.8845
2360.0000,31.7586,1068.8225,336.6646,665.7158,-134.9420,35.1320
2380.0000,24.1140,1094.2214,346.2977,680.2917,-124.6568,34.9845
2400.0000,27.9468,1102.9233,360.7162,682.7264,-126.9104,42.0810
2420.0000,69.9849,1109.4031,381.2244,698.1235,-119.4895,68.9795
2440.0000,25.9809,1093.6519,360.7277,680.8329,-156.9861,26.7947
2460.0000,56.8449,1130.4686,368.2159,693.2117,-113.4728,62.0498
2480.0000,59.2091,1135.7677,370.7217,692.7638,-131.0581,61.7937
2500.0000,57.8031,1143.5021,363.2207,684.0396,-141.5382,57.2334
2520.0000,61.1510,1182.6140,375.7980,700.8925,-111.0781,70.8293
2540.0000,57.7256,1183.6365,365.2146,693.1163,-120.4472,54.2839
2560.0000,63.2827,1193.6388,352.7049,689.8950,-100.0307,61.6008
2580.0000,57.6783,1240.5023,372.3007,687.9625,-107.4360,53.4598
2600.0000,59.3951,1247.5725,362.7486,689.1036,-105.1564,39.5073
2620.0000,51.6280,1246.6718,364.3269,683.0115,-125.5236,18.4828
2640.0000,48.4433,1264.4952,358.6534,692.1346,-127.1017,-4.3488
2660.0000,56.5727,1289.6152,366.3578,690.8141,-108.4814,2.6918
2680.0000,57.3755,1288.5051,367.6449,692.2106,-106.2394,-5.3962
2700.0000,58.6240,1315.8041,379.4059,710.9216,-94.4392,-5.1512
2720.0000,69.3976,1350.4791,366.5555,696.1101,-91.1203,-2.7036
2740.0000,61.7337,1341.7601,354.5041,691.7269,-99.3365,-34.0251
2760.0000,66.4943,1343.3928,366.4852,701.2799,-93.0227,-34.6412
2780.0000,48.6993,1343.8903,355.5275,689.7473,-104.4606,-45.8321
2800.0000,34.3711,1323.3525,337.4022,680.3159,-135.1631,-67.9798
2820.0000,67.7756,1355.6796,377.6345,712.6182,-106.3992,-51.7935
2840.0000,66.4493,1351.4116,382.3531,710.3541,-115.1217,-54.9947
2860.0000,57.6605,1326.6790,370.7355,690.4392,-115.5840,-64.5409
2880.0000,57.2996,1322.4321,367.2981,697.4764,-89.1149,-67.0311
2900.0000,56.6575,1310.8656,359.7881,692.4812,-97.5242,-87.5889
2920.0000,62.2258,1311.6084,377.2025,692.6585,-95.0361,-57.3212
2940.0000,37.8663,1279.7371,348.8531,683.2717,-110.5545,-80.4584
2960.0000,34.2037,1280.5132,351.1277,686.5733,-138.0005,-91.3470
2980.0000,44.7677,1268.6334,358.9187,691.2802,-124.6468,-90.1714
3000.0000,47.1947,1286.4341,359.0574,695.7718,-120.9199,-91.4460
3020.0000,24.9383,1242.6709,347.0342,679.3259,-164.7165,-95.2148
3040.0000,34.0802,1259.5878,362.9304,692.8464,-139.8229,-84.5328
3060.0000,31.0194,1250.6558,350.1299,691.1776,-128.7884,-67.0474
3080.0000,37.9297,1244.5256,360.8614,695.8549,-116.7810,-63.5816
3100.0000,61.1384,1252.5120,377.1647,719.1915,-120.7471,-52.9183
3120.0000,63.9465,1234.6597,376.7844,713.9463,-128.8746,-46.6036
3140.0000,64.1093,1241.6365,379.3127,720.2161,-119.7241,-28.9693
3160.0000,38.8058,1177.6506,366.7148,700.8041,-152.6706,-53.7060
3180.0000,24.2243,1153.4709,348.3272,682.1678,-160.8574,-63.7352
3200.0000,43.6950,1156.7406,382.6449,701.8888,-133.6712,-24.7735
3220.0000,52.2657,1127.5167,380.4323,719.1183,-123.8715,-28.8216
3240.0000,25.5854,1099.7635,352.5186,690.0004,-125.7398,-22.0381
3260.0000,62.5088,1107.4521,379.5670,730.1620,-107.9503,6.1010
3280.0000,41.6381,1073.8766,373.4297,699.9792,-142.5251,-4.1087
3300.0000,30.5198,1069.4854,357.6349,689.1804,-159.9208,-3.6373
3320.0000,26.3963,1059.7551,366.3517,694.8499,-147.6100,2.5914
3340.0000,23.5921,1043.5526,346.7169,681.1367,-155.0506,-1.4555
3360.0000,33.3267,1050.8196,350.2336,690.7712,-143.5430,24.4965
3380.0000,29.7135,1040.4773,353.7939,685.2145,-149.1090,33.4695
3400.0000,31.1359,1042.8075,339.1101,677.7672,-162.4804,28.6308
3420.0000,25.8998,1024.4548,353.9113,680.1772,-159.1120,33.5508
3440.0000,38.0553,1021.8188,350.0111,690.6592,-149.4991,57.5523
3460.0000,33.0723,1014.3259,361.0905,690.2382,-149.9456,74.5719
3480.0000,32.9503,1003.8817,351.8664,692.7002,-150.5803,60.2596
3500.0000,42.1177,1008.4523,361.2181,710.5137,-152.0495,86.5908
3520.0000,44.8199,993.7133,367.7425,714.4835,-131.6624,95.2520
3540.0000,32.3218,993.3984,339.3177,687.4555,-136.8940,89.7217
3560.0000,22.7058,973.6250,331.6071,682.5001,-157.6796,75.2637
3580.0000,16.5344,973.6465,339.4756,685.6628,-169.8432,60.8173
3600.0000,25.4502,976.6226,326.3785,682.3859,-156.6597,91.0716
3620.0000,29.5319,980.5287,345.6541,692.7923,-124.8701,110.0303
3640.0000,35.4315,979.5931,334.2213,693.0895,-127.7743,126.9858
3660.0000,35.7067,977.5179,347.8026,703.9795,-126.7165,144.9885
3680.0000,44.1716,969.3609,356.0916,702.0844,-152.7552,127.8127
3700.0000,28.0103,977.5917,339.9756,686.0724,-125.7943,142.0582
3720.0000,8.9929,968.3075,332.9243,682.8130,-159.8487,119.7577
3740.0000,22.1802,984.7531,333.1869,692.1726,-139.5484,133.2773
3760.0000,18.7563,993.1871,332.7417,692.6429,-150.9922,131.5748
3780.0000,12.2101,1011.0197,344.3907,692.3281,-155.4326,141.3413
3800.0000,61.6567,1049.1697,376.5340,725.6211,-117.0195,185.4861
3820.0000,48.4283,1036.1295,356.5645,713.5344,-147.4570,155.5001
3840.0000,32.4695,1040.0726,357.2990,720.3469,-120.0996,167.3465
3860.0000,36.5982,1015.0384,339.8080,695.6456,-140.3311,144.6311
3880.0000,4.3174,1007.8678,323.0836,688.2968,-154.2800,143.3619
3900.0000,7.7881,990.1929,324.0061,684.7718,-148.3154,128.8565
3920.0000,-5.8024,986.7502,327.8743,688.9834,-159.4734,124.0840
3940.0000,-1.7704,983.4929,345.2155,691.1036,-158.2253,138.7906
3960.0000,0.8517,973.6330,344.7085,691.7841,-158.5123,148.0706
3980.0000,13.1113,974.6779,356.3501,726.1144,-145.9964,159.9541
4000.0000,-9.0635,926.3391,332.4497,678.6494,-181.6085,129.0210
4020.0000,-3.4882,940.6425,337.6174,689.3235,-182.9423,138.0768
4040.0000,-10.2843,933.2578,330.2691,683.5721,-180.6509,133.8356
4060.0000,0.8176,936.7704,335.7440,689.4799,-182.8593,158.2908
4080.0000,-0.6943,898.9385,330.0753,681.2939,-186.6911,149.9006
4100.0000,1.7783,889.0559,345.9995,695.5786,-156.8106,174.2657
4120.0000,-23.6016,872.8792,338.9395,686.2548,-184.8299,150.7859
4140.0000,-23.9851,878.0974,327.1491,684.8821,-186.7731,160.2866
4160.0000,-28.7126,889.7132,342.7234,687.1773,-167.8650,164.7639
4180.0000,-31.9426,868.0801,338.3298,661.8563,-177.7611,161.2737
4200.0000,-7.6886,873.5578,334.5674,680.8951,-150.0392,187.6589
4220.0000,-8.8485,869.3660,342.4357,684.0665,-165.5784,202.4747
4240.0000,-21.8702,873.4460,350.4457,690.7742,-153.0720,213.5945
4260.0000,-32.7941,861.4315,333.6020,684.1623,-175.5559,203.4206
4280.0000,-7.8622,883.4932,357.3922,693.6593,-150.1151,229.7446
4300.0000,-6.6278,888.3845,352.6499,701.2432,-154.4569,225.3965
4320.0000,12.7947,903.4525,371.2437,694.6480,-129.0452,274.6885
4340.0000,-14.6610,882.5408,355.7418,689.4044,-144.4466,254.3713
4360.0000,14.8274,898.2182,378.2289,708.6158,-122.0272,294.8423
4380.0000,0.4837,893.6492,371.8175,707.2972,-128.4876,280.2900
4400.0000,-1.3474,872.2485,362.1652,693.4940,-147.9951,272.9124
4420.0000,-19.6087,871.5110,365.8323,692.4502,-145.5322,278.3606
4440.0000,-29.0868,867.2912,356.1111,688.5870,-155.0001,263.8730
4460.0000,-28.5394,848.6403,350.8682,684.3887,-148.5369,271.2599
4480.0000,-29.0459,853.4052,371.1016,691.5723,-146.8692,281.9933
4500.0000,-35.6275,831.3986,355.8392,669.2817,-166.6767,267.1675
4520.0000,-38.9456,831.2798,350.1112,683.5104,-174.9391,269.0120
4540.0000,-21.5989,828.5329,380.8675,693.2796,-153.7202,292.0757
4560.0000,-2.8361,825.4398,382.1731,718.5956,-150.8480,309.3756
4580.0000,-28.7228,825.4080,381.7681,717.2491,-159.7209,305.9721
4600.0000,-28.8400,804.5345,366.2177,716.7339,-159.9585,300.3904
4620.0000,-27.7863,809.2988,355.7042,683.1918,-150.8258,309.7908
4640.0000,-33.6977,807.4592,367.3291,691.7263,-148.8289,301.4910
4660.0000,-47.9997,778.3132,346.6651,685.2532,-156.8415,286.4655
4680.0000,-47.6530,777.6293,350.3778,685.8493,-162.8277,278.7397
4700.0000,-29.0650,792.1165,359.5695,699.2042,-148.7864,298.4564
4720.0000,-36.5447,774.6861,380.5240,700.8013,-159.8069,285.9277
4740.0000,-19.2610,787.9752,383.4789,716.9634,-146.9182,299.2108
4760.0000,-33.2955,780.9516,372.6322,713.0015,-152.7372,302.0095
4780.0000,-23.3526,782.8726,386.2753,725.9929,-133.9753,318.9072
4800.0000,-3.1101,795.0133,388.7768,734.1417,-133.5272,333.2986
4820.0000,-20.6052,782.7104,391.1355,736.9397,-122.9463,314.7518
4840.0000,-30.9183,755.0930,369.8828,696.2143,-152.6498,302.3678
4860.0000,-37.7407,754.5001,361.0511,699.6642,-161.0821,288.6249
4880.0000,-20.8265,779.2921,378.0134,720.3159,-125.6017,324.5055
4900.0000,-34.7852,745.3818,349.9006,685.5397,-158.1188,289.3992
4920.0000,-30.6024,779.4642,375.1464,715.3292,-147.4970,311.8098
4940.0000,-23.9760,764.0550,371.7921,689.4609,-154.1052,316.3526
4960.0000,-26.5017,778.6895,365.3023,694.4071,-158.5428,300.9751
4980.0000,-6.1086,783.9234,384.6620,715.4957,-153.0467,316.2119
5000.0000,-28.4238,778.8562,367.4045,700.6592,-167.4804,309.0677
5020.0000,-20.3281,778.8172,379.5580,714.3554,-151.9793,330.1277
5040.0000,-30.1542,770.0560,360.5446,687.7804,-163.4388,309.1823
5060.0000,-28.5438,770.6439,364.3789,698.3397,-143.0279,327.9125
5080.0000,-17.1815,743.1050,367.6315,695.7264,-159.6122,327.2900
5100.0000,-36.5272,745.5237,355.3229,692.1091,-184.9483,319.8653
5120.0000,-37.9953,749.3669,366.6904,689.8328,-187.5390,303.2666
5140.0000,-30.6274,753.4136,370.2104,700.1209,-181.9465,327.7272
5160.0000,-38.9307,743.3761,366.7741,684.7904,-201.6146,313.3941
5180.0000,-27.8174,763.2019,387.1814,710.0505,-185.9600,322.7497
5200.0000,-41.7513,756.4652,362.8730,701.8268,-188.6592,318.3441
5220.0000,-28.9257,776.2974,381.1021,718.0900,-186.9930,339.7814
5240.0000,-30.7038,755.6367,370.9368,706.9708,-198.6885,337.5545
5260.0000,-30.8479,768.1835,378.0371,718.0488,-211.0164,335.5461
5280.0000,-27.7619,768.6952,378.9864,715.0759,-194.6780,355.5652
5300.0000,-29.8546,776.1177,373.0074,705.9128,-201.8471,345.5893
5320.0000,-12.6107,788.8095,377.9804,712.9709,-183.6278,358.5952
5340.0000,-17.8665,785.9561,366.9652,705.8987,-178.8319,355.6485
5360.0000,-24.6046,780.8689,366.9645,704.0512,-158.7314,361.3859
5380.0000,-26.9861,776.9376,364.9897,688.9075,-185.8420,350.7591
5400.0000,-21.6902,783.0529,380.0528,714.0390,-175.7712,366.5042
5420.0000,-23.8796,779.9540,365.0001,712.9200,-176.8922,359.6820
5440.0000,-27.7053,774.1370,369.9655,717.0076,-180.6737,351.4893
5460.0000,-25.9278,767.8929,376.9885,718.0360,-181.7756,353.6511
5480.0000,-29.6109,758.1213,358.9932,713.9997,-180.6939,340.4255
5500.0000,1.8583,783.9048,380.0365,721.0335,-166.8688,359.7989
5520.0000,-6.6483,774.1675,374.8825,716.9488,-185.8054,340.3564
5540.0000,5.8281,802.7613,388.0845,735.0866,-138.7740,358.0006
5560.0000,-1.7099,791.1426,387.8459,732.0110,-147.6748,321.1137
5580.0000,-8.8301,758.6864,365.1457,705.1566,-191.8036,272.0043
5600.0000,-4.8551,782.1937,373.8573,718.8124,-173.6103,262.1200
5620.0000,-3.8179,774.7089,382.2272,717.0786,-184.8259,239.0864
5640.0000,1.9276,783.1356,385.7765,730.8967,-150.5689,228.1392
5660.0000,7.0017,769.7682,390.1919,724.1125,-151.0220,211.0804
5680.0000,0.0150,776.0682,395.7203,719.8287,-157.5332,178.9719
5700.0000,40.2005,797.8359,398.2433,752.1827,-121.0632,184.0060
5720.0000,39.9339,805.9967,400.7588,752.9518,-119.5705,152.0211
5740.0000,-1.5886,782.7584,393.2848,739.2390,-129.0219,109.1997
5760.0000,17.7212,783.1372,384.7164,732.7511,-127.3640,108.9481
5780.0000,-8.5757,772.8741,381.3453,719.0668,-156.1474,78.1285
5800.0000,-4.0773,779.1216,377.6330,714.8940,-152.3976,75.9435
5820.0000,28.3461,807.7700,399.3626,729.2773,-126.2141,74.1864
5840.0000,36.6877,815.1824,406.6251,725.7260,-156.1369,66.8119
5860.0000,-5.3814,806.8370,382.4193,703.1570,-171.4453,10.1147
5880.0000,2.6755,816.1251,388.6240,713.8146,-166.0504,6.6875
5900.0000,3.3604,836.7811,393.3549,717.1813,-145.3541,22.2726
5920.0000,25.6305,844.1701,399.6384,729.7473,-118.0529,31.7144
5940.0000,27.4151,842.9056,394.3755,725.2417,-134.6051,4.2452
5960.0000,23.5270,838.9915,383.6424,724.8766,-119.0105,26.8197
5980.0000,28.4663,848.7803,383.3296,718.2073,-145.5770,-4.6690
6000.0000,19.5735,861.1642,397.7009,734.8821,-149.7727,-19.9293
6020.0000,35.5274,854.8939,396.2931,735.1880,-134.8239,-4.7011
6040.0000,28.6760,866.1421,380.7038,715.7829,-129.6475,-29.9315
6060.0000,42.3669,866.8862,394.2587,731.1264,-119.8196,-15.7420
6080.0000,58.5099,870.1942,403.7592,741.9536,-116.5429,-29.8553
6100.0000,36.3628,865.6705,391.1732,740.0148,-125.0307,-33.8112
6120.0000,63.7000,872.1246,407.8819,739.0137,-116.4423,-47.7820
6140.0000,49.3837,864.6833,369.0452,712.9876,-125.1380,-60.7875
6160.0000,25.6082,864.1574,381.9705,723.9671,-118.4750,-52.6022
6180.0000,64.4759,875.7098,389.0056,748.0043,-91.1670,-45.9030
6200.0000,48.6362,869.4138,379.0690,714.0264,-127.3247,-62.5526
6220.0000,58.4265,884.6010,386.9071,727.9789,-121.2789,-59.1077
6240.0000,57.7865,875.3748,383.1475,722.9951,-135.1232,-51.4570
6260.0000,43.2708,880.5226,376.7150,718.7955,-123.2698,-42.1377
6280.0000,63.8389,890.5408,393.3471,749.1786,-119.0834,-8.3071
6300.0000,51.3072,887.5246,391.6647,746.8099,-121.4125,-14.1811
6320.0000,61.8214,903.5817,381.4165,720.1150,-122.0093,0.6931
6340.0000,40.2715,903.4783,384.4755,725.7240,-129.5564,-2.3700
6360.0000,28.9519,891.6428,371.5670,713.1545,-141.9714,-1.9953
6380.0000,39.1650,898.2026,376.3300,718.6603,-131.5177,2.1832
6400.0000,29.8512,904.7001,368.6953,717.2469,-145.9720,-1.8782
6420.0000,35.9880,924.2753,376.1846,721.7898,-148.5848,0.1942
6440.0000,35.1118,939.9193,383.8222,738.3350,-148.9204,9.9330
6460.0000,34.0314,945.1649,366.0432,713.6537,-166.5056,-3.6770
6480.0000,23.1860,965.9389,370.9704,714.3750,-168.0516,-16.6183
6500.0000,59.8311,1042.1869,389.9142,721.6741,-142.6850,1.8239
6520.0000,53.1075,1065.0518,382.1334,714.4331,-148.0201,-17.6786
6540.0000,61.8108,1084.9971,384.7960,725.4648,-114.5816,7.8100
6560.0000,32.2815,1105.2091,373.3068,710.4265,-146.9674,-4.4959
6580.0000,22.7749,1104.9470,361.6902,695.4786,-191.6413,-36.0183
6600.0000,37.3475,1169.1743,380.3951,715.5500,-153.9985,12.4288
6620.0000,8.5899,1188.7877,350.5544,691.4233,-166.5068,-3.1284
6640.0000,33.5230,1212.3929,365.5305,716.4217,-152.9473,-17.4222
6660.0000,23.3889,1203.7874,371.4485,716.4702,-167.5566,-31.2852
6680.0000,6.5037,1207.5236,349.6196,690.5175,-168.0857,-71.3775
6700.0000,4.4287,1198.7638,365.3280,695.4219,-183.5023,-69.2510
6720.0000,32.7161,1224.5677,363.6646,696.4908,-184.0741,-93.2968
6740.0000,11.1469,1198.6887,358.2647,680.5337,-192.6339,-61.3641
6760.0000,-5.9079,1168.5400,345.7502,662.5024,-211.1373,-71.2609
6780.0000,5.0355,1202.6306,364.2260,697.5309,-154.4873,-29.3605
6800.0000,14.9177,1169.5432,359.8353,692.4567,-151.9808,-0.1104
6820.0000,8.0245,1154.4858,365.1214,695.4128,-150.4110,6.3866
6840.0000,-3.8141,1105.7117,350.8433,689.4763,-166.0603,7.6437
6860.0000,4.8014,1100.4565,376.1010,713.4818,-176.3487,33.2657
6880.0000,11.2081,1077.6903,378.9372,714.5264,-178.2430,53.7361
6900.0000,8.8355,1065.3046,371.0853,690.5563,-182.4842,61.3224
6920.0000,14.2196,1067.8186,384.8945,722.5775,-180.1912,94.6808
6940.0000,32.7525,1058.4451,379.0849,707.5770,-179.4637,101.3245
6960.0000,30.4830,1039.7750,380.9279,712.5548,-158.3089,123.6771
6980.0000,33.6807,1041.4606,379.0964,698.4823,-185.3848,123.3299
7000.0000,31.4046,1013.8463,366.8736,698.4874,-171.3423,147.7500
7020.0000,18.4659,985.3574,378.0944,708.5200,-189.3879,146.2948
7040.0000,18.6620,990.7372,371.8304,697.3714,-192.2534,153.8009
7060.0000,-1.5220,958.2565,352.1377,685.6311,-197.2249,148.4439
7080.0000,-1.1207,955.5990,351.8108,685.2018,-190.3704,157.7457
7100.0000,-3.4834,934.4625,349.1759,670.8121,-200.1718,155.5066
7120.0000,-20.0853,939.7810,334.7054,658.1574,-215.3138,149.5209
7140.0000,-1.7025,947.4617,347.2666,685.7554,-192.2491,158.6133
7160.0000,-3.0223,945.6317,352.7160,682.0934,-186.4066,160.4550
7180.0000,-1.7900,942.3060,358.3505,691.7689,-177.1011,176.6841
7200.0000,2.8514,929.5622,361.5953,689.0404,-181.5407,165.5401
7220.0000,4.9705,955.5402,359.4526,692.8907,-177.0815,161.7849
7240.0000,-7.8562,937.5252,349.5483,687.0605,-205.4166,134.3647
7260.0000,-27.8003,913.4135,337.5098,682.9850,-215.9854,91.7178
7280.0000,-0.7738,947.3549,353.4142,688.0438,-181.6241,88.4332
7300.0000,-1.1283,946.4738,354.5503,688.9995,-198.0644,87.8383
7320.0000,0.2968,933.3815,348.3314,665.8762,-224.6728,76.1780
7340.0000,2.9882,937.5844,358.6914,692.0518,-208.0300,72.0467
7360.0000,-17.6930,901.2600,351.2559,682.8108,-214.7000,58.0758
7380.0000,-5.9495,902.7507,350.7683,681.2662,-218.0150,63.0294
7400.0000,-2.7663,905.1968,365.2032,693.8003,-186.6283,65.9315
7420.0000,-9.8857,884.6667,348.8719,690.2509,-198.8236,49.1192
7440.0000,-25.7634,872.1284,356.0823,694.5972,-214.7644,28.8555
7460.0000,1.9334,885.9136,347.9180,686.2661,-184.9474,26.3242
7480.0000,-17.7019,879.1358,354.0274,687.7527,-209.6866,-8.9245
7500.0000,-36.9909,866.8704,339.9826,667.3981,-215.7947,-50.2684
7520.0000,-4.6855,864.9313,333.9024,666.6813,-214.8108,-56.0562
7540.0000,-9.8092,857.9727,347.0240,686.3448,-203.8486,-57.1471
7560.0000,-35.7962,831.8732,330.9195,674.5167,-228.6722,-60.1549
7580.0000,-7.6949,866.9749,359.1208,689.3345,-199.7910,-42.0557
7600.0000,1.2219,867.8918,374.8633,716.5656,-181.8636,-26.3791
7620.0000,7.0644,859.0002,366.1300,690.3976,-191.8948,-29.9919
7640.0000,17.9408,866.9170,368.8130,711.6846,-179.7534,-42.4150
7660.0000,11.0583,866.0936,379.1486,713.3323,-187.8328,-62.8366
7680.0000,6.8946,862.8807,370.7716,701.5034,-198.7074,-90.7220
7700.0000,-1.7130,843.0161,355.1423,689.2955,-227.8558,-138.7338
7720.0000,-2.0876,844.9464,351.8393,679.6693,-217.8628,-167.7864
7740.0000,-12.6160,830.0541,340.1503,670.3312,-232.7621,-193.5823
7760.0000,-35.1081,826.7933,339.7951,676.7444,-249.7951,-246.0340
7780.0000,-20.3947,822.0375,355.1122,686.1985,-232.7682,-250.5285
7800.0000,13.4729,833.8742,377.8726,708.6931,-211.8821,-275.1547
7820.0000,27.5423,838.9950,377.1235,711.1942,-213.8409,-297.4223
7840.0000,35.5525,854.8727,388.8459,721.9502,-196.7511,-312.2243
7860.0000,20.5878,813.9881,371.0516,710.0358,-198.7466,-346.1986
7880.0000,25.3105,829.9101,368.9283,721.0023,-186.7112,-353.2652
7900.0000,21.7190,827.8635,357.0463,709.9214,-184.9358,-360.1290
7920.0000,12.3736,831.8285,355.9933,700.0834,-177.7351,-371.3796
7940.0000,26.7850,830.8922,361.9709,704.9108,-184.9751,-372.2039
7960.0000,-17.5497,804.9913,326.0243,665.1526,-217.7209,-389.4916
7980.0000,0.7813,815.9999,350.8671,684.5894,-200.9836,-373.0626
8000.0000,5.1487,825.0739,355.1285,689.3160,-195.5271,-351.6812
8020.0000,9.9831,828.9147,354.7331,692.5089,-191.0337,-350.0773
8040.0000,1.1331,827.0091,347.2173,682.4558,-200.5843,-341.6903
8060.0000,10.0517,828.8611,323.6379,663.4510,-210.0451,-332.0222
8080.0000,-20.8914,829.1848,334.3302,674.7614,-214.5678,-336.5906
8100.0000,-26.7507,817.7231,322.5768,660.0927,-223.0979,-346.9591
8120.0000,7.8351,811.0804,358.4591,699.7877,-190.4439,-307.6294
8140.0000,-27.7258,807.7675,333.3977,683.0833,-228.2738,-327.7537
8160.0000,4.8842,837.2938,356.5957,709.9501,-206.3295,-297.8148
8180.0000,-6.5603,815.7100,355.3151,696.9313,-211.3189,-293.8403
8200.0000,-0.9589,814.2345,330.7116,670.1790,-226.2652,-309.7382
8220.0000,-14.5971,819.6680,333.1639,676.5732,-216.2950,-290.8175
8240.0000,-2.0257,836.1865,334.7857,685.4382,-203.1870,-279.7873
8260.0000,8.2246,830.4850,342.0982,688.5208,-213.3833,-271.8861
8280.0000,0.0091,807.1938,333.9393,670.5096,-221.2217,-272.7641
8300.0000,-25.4978,816.5628,343.0353,686.4602,-213.4498,-271.9126
8320.0000,-13.0755,817.3326,329.0336,664.6920,-216.0531,-249.5777
8340.0000,-18.4242,827.4020,352.9286,692.2707,-186.4725,-246.9233
8360.0000,-11.0219,807.1958,335.0698,670.7839,-201.0896,-244.6131
8380.0000,-21.5232,829.5247,319.7764,656.0157,-199.5209,-239.9710
8400.0000,-0.0444,840.1924,343.1750,669.8585,-206.9819,-227.4522
8420.0000,0.2286,840.6222,333.7261,668.0076,-200.6434,-222.0545
8440.0000,-8.1102,844.1879,332.3260,668.0634,-203.9397,-232.5121
8460.0000,-5.5715,838.5256,348.6302,672.7839,-214.7583,-239.2200
8480.0000,0.7983,838.2661,339.3668,663.0561,-214.7523,-244.3705
8500.0000,1.2540,847.5305,336.6008,660.8018,-214.7999,-258.2557
8520.0000,-3.1164,836.1110,324.4547,656.1226,-229.8266,-276.3224
8540.0000,27.3317,876.5834,343.5132,669.6547,-188.8528,-270.2855
8560.0000,-2.0630,837.2328,334.4850,663.1883,-192.7591,-286.2857
8580.0000,1.2092,855.6704,325.4829,656.6613,-202.9233,-317.4097
8600.0000,-4.9368,847.0571,326.5080,673.4073,-194.6641,-328.0530
8620.0000,0.1400,876.7354,335.4451,681.7153,-187.8145,-351.6646
8640.0000,-2.0041,874.0892,341.5090,682.3446,-182.7545,-362.1020
8660.0000,28.2757,873.9987,348.4235,683.6249,-174.8060,-376.7990
8680.0000,0.1035,878.9551,342.5599,669.3828,-186.8162,-438.0144
8700.0000,15.2007,888.9619,352.4608,686.6138,-180.7330,-444.9655
8720.0000,35.9713,907.8467,351.5159,684.2318,-154.7030,-461.7722
8740.0000,12.0666,893.0890,340.4189,672.6310,-186.6511,-511.9561
8760.0000,30.0056,923.7719,359.5117,688.2249,-166.8842,-503.7818
8780.0000,28.1828,918.1938,363.5021,687.7703,-176.5914,-540.1167
8800.0000,19.8968,918.7112,331.5177,658.2100,-199.9347,-576.6685
8820.0000,30.0104,945.4261,344.4949,688.8929,-174.6131,-572.2468
8840.0000,38.9931,962.4553,353.5304,691.0706,-167.0100,-571.6802
8860.0000,35.9824,948.6077,344.5171,680.8934,-175.6000,-589.1671
8880.0000,53.9444,980.5028,372.4378,698.0004,-157.0832,-587.5156
8900.0000,53.9638,982.6594,364.5199,692.0208,-169.5518,-596.2420
8920.0000,27.0605,976.3943,354.4096,684.9500,-190.1726,-608.5067
8940.0000,53.9416,990.8038,368.6082,702.1020,-155.3912,-598.3685
8960.0000,67.0718,1012.3546,384.4189,718.8564,-151.3159,-593.4855
8980.0000,67.9882,1007.8828,383.6159,713.2366,-153.1540,-591.3852
9000.0000,47.2234,1012.2711,359.3284,683.7061,-174.4110,-625.4991
9020.0000,32.9522,991.9570,351.6306,677.2116,-169.2226,-628.3486
9040.0000,42.3060,1015.9716,366.3570,692.7471,-163.4484,-630.3826
9060.0000,30.8456,1019.1716,358.7215,683.2544,-172.0791,-640.2841
9080.0000,60.1579,1041.1179,367.2651,685.6401,-162.5097,-640.4384
9100.0000,56.9087,1044.2382,378.7250,687.3746,-148.9702,-616.4241
9120.0000,65.3802,1041.0610,378.2562,694.4779,-153.6761,-623.3577
9140.0000,67.8485,1041.2406,383.7479,698.5157,-141.8358,-605.4183
9160.0000,57.3500,1046.9088,362.2218,682.4977,-154.8448,-620.3186
9180.0000,64.7247,1049.3320,357.7730,690.5238,-160.6644,-626.4436
9200.0000,56.3375,1039.7931,356.1790,688.3762,-147.9278,-620.3437
9220.0000,55.7860,1047.4929,351.7513,684.6342,-146.5050,-625.2484
9240.0000,64.4594,1038.8334,364.1824,689.3805,-142.9201,-626.4589
9260.0000,62.7942,1044.4576,365.7853,706.7839,-133.4218,-594.3420
9280.0000,71.5256,1043.7593,374.2459,721.1902,-131.0986,-592.3611
9300.0000,63.6032,1037.4199,362.7800,714.7018,-125.4341,-604.3555
9320.0000,85.4332,1056.7123,377.1749,722.2065,-123.0971,-597.5429
9340.0000,87.6020,1059.3446,379.8141,713.8854,-122.1545,-592.1547
9360.0000,86.4984,1049.8728,373.2270,715.1685,-123.1752,-579.5684
9380.0000,84.6844,1056.5234,358.8015,685.8679,-153.1542,-601.2276
9400.0000,95.4300,1073.9314,373.2415,707.0786,-133.2413,-588.4885
9420.0000,91.7052,1068.5542,380.7344,707.7678,-127.1234,-564.0090
9440.0000,93.5987,1069.9478,382.3058,730.2258,-124.3321,-570.5020
9460.0000,85.6782,1060.5337,365.7261,702.8856,-156.0408,-562.1099
9480.0000,90.5039,1071.8564,373.2907,714.0702,-130.3312,-558.5978
9500.0000,89.5799,1073.4741,368.6996,717.7529,-124.0880,-563.9630
9520.0000,61.5223,1047.8357,348.2700,692.1887,-156.3238,-564.7012
9540.0000,82.5350,1066.3979,364.6288,689.9172,-148.9795,-537.9778
9560.0000,58.6310,1052.8131,347.3564,685.1827,-161.4416,-544.6057
9580.0000,73.6210,1073.4514,365.6318,703.9330,-154.0891,-530.0197
9600.0000,70.6575,1056.8561,353.4235,699.2206,-155.4571,-519.5712
9620.0000,81.4859,1069.4189,352.5925,694.7909,-153.0462,-505.0010
9640.0000,68.6027,1059.9694,355.4521,686.0683,-158.3890,-479.5588
9660.0000,60.5693,1049.3595,350.5747,682.8846,-177.1354,-479.9958
9680.0000,59.6939,1052.9254,349.4585,687.1397,-152.3873,-452.6490
9700.0000,74.6508,1068.4370,370.5140,716.8732,-132.0549,-444.0090
9720.0000,91.5850,1071.1058,380.4805,719.2200,-120.1773,-404.6707
9740.0000,87.4974,1054.2731,358.5252,710.9318,-130.2060,-416.2298
9760.0000,95.5209,1062.1735,379.5576,721.1251,-117.1109,-380.5243
9780.0000,88.5464,1059.2190,362.4666,711.7930,-120.2805,-369.2788
9800.0000,94.6669,1075.1581,385.5000,723.2252,-109.1514,-347.4948
9820.0000,82.5646,1053.3224,364.4431,710.9655,-145.2745,-374.2598
9840.0000,97.5395,1073.0370,372.5046,708.1166,-155.8834,-343.4507
9860.0000,84.6516,1050.2626,377.4371,716.9373,-160.5068,-358.4486
9880.0000,88.6125,1066.2048,377.5050,713.1983,-174.9160,-333.2965
9900.0000,86.5430,1067.2422,380.4593,711.8771,-182.5680,-324.4016
9920.0000,87.5468,1051.1106,371.5516,713.1452,-158.8234,-311.2132
9940.0000,92.5679,1074.3224,382.4545,718.9402,-147.7876,-284.5148
9960.0000,76.5431,1029.1833,373.5101,702.8987,-163.5750,-301.0457
9980.0000,101.7256,1051.2385,418.5549,760.0045,-127.9224,-244.6287
10000.0000,62.4202,1041.1895,383.4658,723.8724,-152.3467,-272.8646
10020.0000,93.6761,1051.2537,407.5699,747.1075,-124.0478,-221.8337
10040.0000,102.3540,1066.1532,401.4129,744.8343,-123.2307,-214.7355
10060.0000,55.8103,1027.4714,365.6161,711.2872,-142.3066,-253.7713
10080.0000,67.3085,1042.0741,363.3886,722.8602,-140.0921,-219.7575
10100.0000,52.7360,1037.4042,360.6873,722.2138,-142.4765,-229.1052
10120.0000,22.3317,1017.9939,344.2995,714.6911,-152.9068,-250.5032
10140.0000,36.8191,1023.5369,351.7143,723.3737,-152.6485,-212.1568
10160.0000,34.3079,1025.0277,347.2403,722.6686,-150.8160,-230.4926
10180.0000,26.9103,1015.5551,329.8408,713.4894,-156.6595,-214.1508
10200.0000,26.1924,1014.8465,335.1125,714.4935,-157.6640,-234.3496
10220.0000,27.9778,1015.5934,337.9300,709.5601,-158.9709,-228.2963
10240.0000,38.1775,1035.7860,339.0716,698.4480,-145.3574,-210.1436
10260.0000,28.8335,1039.6750,344.9960,709.6679,-150.2076,-225.3622
10280.0000,34.2112,1030.7921,332.9529,704.2889,-140.2839,-232.0197
10300.0000,20.9926,1019.6748,334.0674,695.7458,-129.3074,-232.4750
10320.0000,28.1713,1010.7102,346.8853,709.0742,-143.0940,-224.9097
10340.0000,13.9694,1002.7465,338.2089,689.8979,-159.4954,-246.5885
10360.0000,3.0975,982.6175,334.7434,687.1024,-174.8603,-245.8601
10380.0000,-0.9397,980.6130,334.2513,689.9775,-165.6192,-249.7118
10400.0000,-8.7334,960.6481,331.7243,684.0423,-172.8031,-249.7634
10420.0000,-25.7731,952.6027,338.3930,686.0297,-180.8725,-248.8217
10440.0000,-14.7575,944.5695,342.5616,689.9080,-171.6013,-238.7223
10460.0000,-7.7472,937.7879,354.4046,697.1503,-185.9018,-240.9074
10480.0000,-29.6752,890.5502,353.5039,689.8513,-191.4805,-234.6987
10500.0000,-39.8586,850.8237,350.5146,690.1777,-197.1138,-234.8687
10520.0000,-52.6658,839.6018,363.4154,694.6964,-198.3786,-222.7381
10540.0000,-58.9194,820.6781,364.6185,691.2792,-216.1759,-223.8895
10560.0000,-59.7022,811.5206,371.3474,716.7599,-208.2849,-227.6427
10580.0000,-61.8368,796.6526,388.6103,719.1321,-197.3194,-218.9701
10600.0000,-95.7177,747.3840,378.3596,718.6671,-218.1968,-268.5818
10620.0000,-118.8241,713.6751,354.6471,686.1946,-257.4503,-300.8207
10640.0000,-117.6587,701.4102,382.2800,722.7087,-245.1674,-307.6644
10660.0000,-112.8396,658.7480,396.6875,730.1572,-244.5249,-298.9187
10680.0000,-131.7155,626.4535,382.2607,717.8607,-255.9668,-346.7545
10700.0000,-171.8880,590.6224,366.7500,717.1596,-273.5218,-374.8841
10720.0000,-184.7180,525.3314,381.2994,728.9510,-298.0893,-391.7146
10740.0000,-201.9458,499.6166,382.7668,720.0793,-297.5999,-385.8127
10760.0000,-196.7096,514.4982,401.2750,753.0242,-285.0916,-373.7650
10780.0000,-213.9924,473.6654,386.7106,739.1274,-297.6061,-397.6754
10800.0000,-228.5728,458.4116,386.3155,719.9615,-305.1086,-400.0316
10820.0000,-258.9799,411.6420,372.7318,722.0351,-314.4136,-416.5552
10840.0000,-295.6469,347.4044,381.3627,724.1013,-333.0179,-393.0933
10860.0000,-295.0537,330.5224,382.6812,720.8660,-336.5219,-382.5518
10880.0000,-289.6026,325.5101,406.3801,727.1924,-355.2026,-376.0980
10900.0000,-307.1100,280.5069,392.6056,725.6240,-334.3551,-360.4888
10920.0000,-323.5287,253.4156,383.4572,722.4340,-354.1951,-375.2404
10940.0000,-312.1244,246.5250,384.5276,727.6159,-352.3958,-336.3200
10960.0000,-350.4221,207.4805,365.5406,713.4227,-414.3008,-356.3805
10980.0000,-369.3301,189.4420,369.4691,715.3696,-414.2790,-352.3717
11000.0000,-361.5919,215.5272,369.5791,714.6193,-430.3569,-329.3315
11020.0000,-368.3201,216.2737,376.3481,720.3297,-404.1788,-313.2348
11040.0000,-386.4201,207.5576,365.7220,715.8245,-427.4755,-303.4485
11060.0000,-389.2688,174.2608,383.2197,718.0701,-441.1127,-292.1054
11080.0000,-385.3605,125.5626,384.7650,718.9366,-438.6577,-244.5768
11100.0000,-400.2735,92.1812,384.1386,721.9617,-474.0049,-226.0932
11120.0000,-415.3698,58.6543,374.8881,713.9662,-476.6731,-211.4260
11140.0000,-424.3220,35.0936,374.0422,715.8857,-478.9804,-197.9740
11160.0000,-384.4891,37.7065,399.0191,724.0812,-454.8779,-155.5740
11180.0000,-388.3002,26.0938,402.9440,722.7715,-463.7357,-131.9678
11200.0000,-417.3953,-11.0520,381.1450,717.2040,-487.9983,-124.5058
11220.0000,-404.4787,-23.6890,395.7680,720.7379,-477.6556,-84.9321
11240.0000,-414.4756,-58.1668,382.2995,718.3860,-498.9794,-79.6139
11260.0000,-418.3764,-84.7778,370.6775,715.5146,-540.5486,-93.8150
11280.0000,-438.2866,-98.2110,375.3603,691.5162,-534.2372,-85.7050
11300.0000,-434.5384,-141.8523,368.5864,696.5050,-567.4520,-82.8252
11320.0000,-470.3817,-172.2096,354.4686,673.5540,-602.2851,-86.6426
11340.0000,-467.4722,-184.7780,352.4676,663.2688,-593.2942,-63.9000
11360.0000,-453.4042,-220.0557,357.5804,661.7343,-596.4685,-57.6313
11380.0000,-440.5406,-238.7713,356.3267,689.3264,-597.2079,-38.8972
11400.0000,-440.3727,-245.0491,368.6819,682.8295,-589.5759,-11.5386
11420.0000,-446.5319,-265.8691,355.3075,682.2628,-621.9855,-23.0231
11440.0000,-443.5038,-298.1101,361.7767,684.7796,-621.8584,4.1517
11460.0000,-440.5041,-311.8269,374.1839,689.2436,-626.9728,13.8895
11480.0000,-433.3847,-334.2120,368.7944,685.8582,-631.9955,28.2742
11500.0000,-436.3371,-337.9610,361.1426,666.0743,-652.8109,30.6883
11520.0000,-407.5209,-349.3280,367.8049,691.8161,-629.9823,63.4105
11540.0000,-420.3495,-356.7804,360.1621,668.2003,-648.6469,52.6235
11560.0000,-415.4384,-379.3141,350.8686,657.8086,-628.1807,60.4135
11580.0000,-416.3648,-389.7297,352.1449,681.1835,-623.6212,56.7777
11600.0000,-390.6425,-381.2608,354.8292,671.7990,-621.2808,67.4792
11620.0000,-397.2541,-386.6145,355.1591,662.3109,-624.3686,63.4976
11640.0000,-414.7234,-399.4591,341.8238,658.7989,-632.4410,54.4452
11660.0000,-409.2102,-413.6629,339.1574,655.3419,-651.3162,40.5073
11680.0000,-382.6758,-396.4656,338.7856,662.5649,-631.4738,63.6265
11700.0000,-369.1753,-385.5439,351.1587,661.3526,-624.1951,59.3828
11720.0000,-365.7668,-397.4944,350.7903,665.6788,-630.4997,66.4843
11740.0000,-369.0857,-397.4675,343.2256,660.3848,-631.1219,62.3922
11760.0000,-355.9098,-390.7634,340.7346,664.5233,-640.6005,55.5194
11780.0000,-365.8900,-395.4855,338.3113,665.5783,-632.0986,62.3642
11800.0000,-353.9146,-398.8667,334.6306,663.3666,-654.7300,63.7486
11820.0000,-353.7922,-404.3563,338.3977,656.5401,-646.0717,60.4539
11840.0000,-350.9080,-385.7709,338.4917,663.2604,-644.8089,63.7728
11860.0000,-330.6997,-364.1870,333.5125,657.7115,-623.8614,98.3260
11880.0000,-360.1185,-387.0510,316.4297,636.1666,-651.8998,59.8204
11900.0000,-341.5800,-363.1420,326.6574,658.8885,-625.9269,85.4571
11920.0000,-336.1840,-354.1556,320.2782,658.1612,-611.9383,90.7072
11940.0000,-318.4917,-351.0280,327.7236,653.9026,-622.8803,100.4361
11960.0000,-338.3612,-351.1935,323.1564,652.9381,-623.0806,91.6300
11980.0000,-302.4333,-346.9198,341.8889,656.1454,-622.8174,125.4855
12000.0000,-323.3499,-348.2255,326.0342,641.7761,-626.9695,91.6034
12020.0000,-322.4118,-357.9079,322.0566,634.1721,-623.6041,105.4178
12040.0000,-291.5602,-312.2538,324.8574,652.6989,-624.0507,122.6718
12060.0000,-274.2473,-303.5987,330.2085,657.2385,-596.5073,138.4535
12080.0000,-286.6946,-304.3246,318.7754,635.5874,-612.1879,119.5882
12100.0000,-272.0588,-284.6467,329.3196,654.3840,-601.5457,144.5936
12120.0000,-272.7245,-291.4460,320.6038,636.5236,-616.2996,141.5046
12140.0000,-257.8702,-266.4223,334.4552,652.5869,-593.3895,155.6625
12160.0000,-241.7488,-261.5609,351.4559,673.3888,-562.2767,187.5085
12180.0000,-242.8557,-259.5193,342.5963,657.5778,-601.4318,158.7811
12200.0000,-238.9521,-261.6243,344.3387,660.3166,-580.4320,170.3419
12220.0000,-249.7906,-259.4536,348.7624,659.8139,-586.2539,168.9341
12240.0000,-224.9668,-267.5669,354.1890,663.1766,-588.3669,155.2750
12260.0000,-236.6400,-246.4380,339.8498,652.9066,-594.2827,158.9807
12280.0000,-218.0179,-215.7424,351.0490,657.1259,-568.4088,167.1025
12300.0000,-219.5516,-241.1986,328.9602,653.8630,-566.3228,148.1102
12320.0000,-212.1091,-211.7698,342.9160,657.8694,-559.5303,155.0607
12340.0000,-212.4150,-236.2022,338.1146,649.0712,-565.1973,149.1601
12360.0000,-217.1630,-223.8093,346.7732,655.8733,-562.5692,141.8613
12380.0000,-212.3120,-243.2417,337.1935,656.1721,-563.0045,136.1922
12400.0000,-208.3474,-228.7650,345.7143,661.7233,-560.7137,130.7415
12420.0000,-213.2582,-240.1497,333.3322,661.1487,-561.0237,113.3911
12440.0000,-198.4807,-227.8460,341.5728,659.7267,-568.6512,104.6612
12460.0000,-215.2449,-213.2500,338.4140,653.3651,-562.8800,95.5038
12480.0000,-186.5499,-198.8598,356.5532,665.6006,-565.7310,121.6141
12500.0000,-178.0847,-185.1769,356.4868,664.4883,-560.9063,126.7303
12520.0000,-184.5401,-185.8861,343.4802,662.5507,-559.8215,116.5764
12540.0000,-187.9561,-166.0729,332.5346,647.5676,-557.8606,88.7260
12560.0000,-158.7196,-147.6985,353.4012,687.5481,-525.8112,125.3484
12580.0000,-190.9968,-146.0328,349.6322,669.5133,-522.6955,99.8176
12600.0000,-163.7558,-155.7037,350.3370,663.4706,-506.9146,95.3063
12620.0000,-159.8654,-125.9961,351.6667,680.6345,-508.8059,96.8778
12640.0000,-140.8074,-135.6537,346.2500,680.4009,-488.0040,94.0412
12660.0000,-88.7600,-117.0338,372.7173,695.5818,-468.7239,96.0463
12680.0000,-123.8779,-128.8319,364.2879,690.3176,-486.9865,95.1103
12700.0000,-97.8228,-121.9944,362.7632,694.7980,-472.7285,101.0457
12720.0000,-107.7693,-98.6681,364.2558,687.2754,-474.0378,92.9144
12740.0000,-92.6022,-92.0441,366.7546,694.8671,-471.6168,95.2797
12760.0000,-98.9016,-81.6940,365.1768,694.0106,-465.1400,96.8021
12780.0000,-84.6835,-62.0906,384.7738,723.8319,-446.4443,125.2936
12800.0000,-91.8940,-58.8317,378.1516,700.1072,-470.0715,114.7429
12820.0000,-78.6371,-34.9704,389.7922,721.9837,-456.4142,124.4213
12840.0000,-92.9739,-29.8545,358.1512,687.0798,-478.2050,101.8100
12860.0000,-89.5808,-1.9536,382.8367,696.9774,-467.4482,124.4758
12880.0000,-88.8557,12.0776,363.1272,688.9217,-476.1044,115.7920
12900.0000,-86.4479,29.8984,362.8865,690.0415,-495.5161,103.4729
12920.0000,-67.9548,33.0397,384.1190,711.8022,-466.1135,123.7072
12940.0000,-66.5450,33.9336,368.8442,690.1019,-480.3734,117.5454
12960.0000,-71.9079,46.9132,377.1233,698.7834,-478.2709,122.7405
12980.0000,-85.5811,46.9492,347.8617,687.1874,-476.3032,118.5095
13000.0000,-67.9833,92.8451,371.0771,716.7831,-441.2325,153.5973
13020.0000,-61.5324,97.9211,365.9688,704.2599,-431.3642,155.4931
13040.0000,-65.1042,107.8895,377.0743,703.7560,-442.3061,153.5764
13060.0000,-64.4208,125.0890,377.9641,692.4214,-454.3519,157.6163
13080.0000,-58.0765,123.8644,374.9786,708.5805,-443.1670,162.6750
13100.0000,-50.5286,155.0938,371.9702,710.3330,-435.3881,189.6818
13120.0000,-35.0969,183.9232,377.0117,713.6161,-413.1545,184.6439
13140.0000,-32.4995,216.2154,401.0104,726.5414,-404.3000,209.5705
13160.0000,2.7968,222.7590,394.9708,725.4556,-410.1721,215.5074
13180.0000,-39.5434,192.2406,381.0748,715.5502,-415.3736,180.5667
13200.0000,-30.1372,210.6764,376.9438,715.4136,-415.2781,187.4300
13220.0000,-17.3846,215.4082,383.0909,720.4893,-403.2469,202.5546
13240.0000,-27.0197,199.5345,366.8390,716.4384,-412.2813,193.5103
13260.0000,3.3197,239.2948,393.1201,724.5689,-380.2766,206.5370
13280.0000,-5.0551,247.5469,391.8496,722.3433,-382.2362,204.4986
13300.0000,-2.5078,230.4035,377.1380,716.7432,-415.4419,189.6818
13320.0000,-8.9590,242.5349,375.8082,699.3643,-413.0695,184.6229
13340.0000,-4.3989,240.6098,386.2155,723.7883,-391.4201,186.6324
13360.0000,0.8029,269.3338,383.7722,726.3133,-378.1158,207.5473
13380.0000,-3.6159,267.5340,378.2456,720.6240,-386.3702,186.6104
13400.0000,-1.8511,259.3835,365.7444,707.1713,-399.9872,178.5483
13420.0000,5.2491,303.6514,376.2963,718.7243,-373.4392,191.5119
13440.0000,-1.8107,292.3373,368.7245,711.1993,-383.9557,166.6247
13460.0000,-5.5698,291.6742,365.3067,709.8007,-384.5739,154.5422
13480.0000,-4.8657,319.4066,374.6438,713.3386,-379.8305,154.4762
13500.0000,27.0989,341.6855,380.3046,716.7976,-354.6352,167.6166
13520.0000,10.1156,364.4059,388.6588,725.2569,-328.8668,158.4715
13540.0000,10.0437,369.7521,380.3267,719.7551,-353.6562,134.6082
13560.0000,16.2005,364.3956,374.6147,724.2200,-326.6460,126.6867
13580.0000,-26.9045,363.8579,335.3120,683.5964,-361.8435,62.5349
13600.0000,0.1240,389.3752,355.6693,690.2639,-354.6542,65.6571
13620.0000,1.7894,407.6964,380.3381,709.6854,-341.9342,72.3267
13640.0000,-0.6044,411.3117,385.6253,727.4972,-347.5220,62.6428
13660.0000,0.0335,417.8112,362.3368,688.5942,-357.1603,56.3847
13680.0000,-3.4062,440.3355,374.6191,699.5186,-349.3174,27.5917
13700.0000,3.6670,465.6256,382.3859,719.5480,-334.0769,26.4056
13720.0000,-1.2461,464.4137,376.7007,717.4410,-336.2105,-3.0178
13740.0000,-8.2429,474.7616,368.3343,704.3812,-335.2744,-39.5982
13760.0000,-17.2979,453.3965,366.6558,697.5602,-363.1115,-37.1244
13780.0000,-12.2837,475.6279,383.2847,724.2598,-351.3741,-34.4993
13800.0000,-1.0393,501.5695,380.7188,720.8116,-357.0198,-44.1019
13820.0000,-34.5510,469.4019,362.2400,691.2250,-380.6789,-66.5954
13840.0000,-3.0180,521.6979,389.7884,718.7789,-331.7784,-46.8771
13860.0000,-2.5372,524.4652,392.2451,721.0840,-331.6177,-46.5163
13880.0000,-2.9179,528.6480,381.8311,711.0275,-323.7708,-51.9790
13900.0000,-18.5768,511.3852,379.1953,718.0007,-336.8578,-50.7746
13920.0000,-15.8811,531.8447,378.8722,711.1427,-353.6546,-64.7889
13940.0000,-6.6564,538.1216,386.1102,715.9684,-354.0235,-35.6307
13960.0000,-3.7837,536.9234,390.8912,718.0568,-353.5329,-44.8660
13980.0000,0.9172,534.9238,390.0155,720.7371,-353.0880,-39.8894
14000.0000,-5.5601,536.1265,373.9957,705.2127,-359.3721,-41.7732
14020.0000,-16.9763,524.8758,361.0241,694.7006,-352.1432,-54.9107
14040.0000,-26.6175,537.2199,355.0312,691.2978,-350.3176,-61.8360
14060.0000,1.8103,544.7659,378.9532,724.5508,-321.3818,-26.8908
14080.0000,-0.4566,538.5618,369.1288,713.5080,-340.2022,-25.7637
14100.0000,-24.9677,555.6782,365.8896,688.5261,-348.5253,-55.0060
14120.0000,-31.4762,542.7437,370.1412,709.5891,-340.1004,-33.6573
14140.0000,7.7115,557.3798,382.7784,719.2160,-324.5659,-30.0312
14160.0000,-4.5163,549.7571,380.2716,722.6525,-315.9555,-7.6474
14180.0000,1.6670,569.2237,380.7366,722.3018,-315.6979,-4.1127
14200.0000,-8.4086,560.0841,383.2751,714.9000,-343.7672,-29.5750
14220.0000,2.6703,561.9560,369.6490,713.0629,-335.5768,-31.0515
14240.0000,7.3440,594.2100,399.3454,746.8538,-296.8727,0.4006
14260.0000,41.6120,592.8849,402.6445,746.9715,-285.8199,-4.1836
14280.0000,14.3782,594.3982,382.4465,728.0349,-284.6882,-24.3495
14300.0000,3.7094,592.6942,385.5399,736.8966,-273.7323,-31.1214
14320.0000,-4.4831,590.5759,369.5023,712.1765,-299.7710,-50.5092
14340.0000,-2.0853,616.5500,372.4842,717.9136,-291.8683,-57.1194
14360.0000,0.4708,652.7525,380.5723,717.1301,-291.6469,-59.3728
14380.0000,16.7810,688.2719,386.4721,722.7377,-298.9235,-57.1507
14400.0000,31.3146,688.9883,368.5688,714.2217,-293.7554,-62.3847
14420.0000,9.7659,711.2064,355.3492,701.6487,-292.7537,-74.2480
14440.0000,2.2783,717.2015,355.6081,690.2591,-293.7531,-97.4552
14460.0000,-0.9569,724.0140,359.3631,689.7042,-303.8274,-113.3298
14480.0000,2.2286,755.2991,356.6707,699.2250,-299.7131,-121.3028
14500.0000,-8.9916,755.9161,350.2904,690.7271,-292.7508,-134.3972
14520.0000,-4.6489,782.5502,363.6812,700.3241,-297.5893,-153.3300
14540.0000,-3.9742,835.6729,368.2466,716.6241,-281.8823,-160.3806
14560.0000,0.2728,841.6112,354.6787,685.2584,-308.6736,-199.4020
14580.0000,-26.9148,831.5284,336.2855,680.7064,-330.8149,-228.4475
14600.0000,5.1858,877.7959,362.6966,708.4165,-297.6483,-211.3481
14620.0000,0.0615,883.5079,360.2920,701.5311,-302.6750,-234.2890
14640.0000,9.0740,889.9201,367.6992,720.3102,-289.8047,-227.5002
14660.0000,9.0182,891.4223,371.2219,720.6603,-296.6758,-258.3662
14680.0000,-4.8433,875.8668,355.7397,699.2628,-317.7327,-294.4122
14700.0000,-5.6555,883.3095,363.2137,704.7489,-326.6572,-301.3901
14720.0000,-7.7711,880.8929,353.7625,695.2063,-308.8280,-320.3930
14740.0000,0.1689,882.2805,349.2578,695.6364,-307.6670,-319.3799
14760.0000,-11.7333,872.0078,349.7220,690.2924,-318.8703,-340.5406
14780.0000,-0.6380,872.0710,355.1960,695.6586,-302.5269,-341.3488
14800.0000,-19.8344,868.0518,347.7406,687.2863,-323.8094,-351.5688
14820.0000,0.1978,871.0630,355.1859,692.7103,-308.6729,-347.1728
14840.0000,6.8790,864.1024,352.7422,708.2969,-304.8817,-335.4595
14860.0000,-3.7297,850.9897,349.2450,692.7414,-299.4968,-338.2419
14880.0000,-3.8828,864.1431,352.7493,708.2686,-304.9051,-335.5000
14900.0000,-9.7604,867.9236,352.2504,685.7577,-316.5073,-332.1312
14920.0000,-27.8809,843.2015,326.7611,667.2338,-321.9534,-361.7303
14940.0000,-27.8215,863.8787,335.1935,686.8509,-327.5730,-340.2834
14960.0000,5.0964,870.3443,360.7711,704.1659,-297.9096,-304.6991
14980.0000,-2.8082,870.9419,348.1908,703.8888,-296.4645,-291.1196
15000.0000,-10.7997,862.3484,343.8182,693.0800,-290.0461,-273.6314
15020.0000,-21.9133,890.0326,364.1891,715.8213,-295.6142,-274.0048
15040.0000,-0.5939,904.3092,350.8087,712.1629,-261.9477,-229.7064
15060.0000,-0.8523,896.8637,355.1418,719.9022,-269.4240,-210.1007
15080.0000,-4.6651,899.3553,372.8599,722.1092,-274.9298,-213.8485
15100.0000,6.7274,894.0217,379.1416,725.8902,-274.5476,-178.0152
15120.0000,6.1960,892.2872,383.8114,729.9337,-290.8741,-184.8806
15140.0000,6.6340,899.9182,362.1654,695.9709,-300.5400,-182.8783
15160.0000,-2.4126,891.3279,379.8671,717.9974,-297.0352,-153.8180
15180.0000,-22.2614,863.8608,361.1085,697.0683,-303.5490,-160.8587
15200.0000,-29.2279,863.2642,355.8776,684.8195,-323.8324,-160.8687
15220.0000,-26.3039,869.9945,359.1031,714.1044,-303.5752,-139.7588
15240.0000,-24.1509,879.2883,365.8964,712.8300,-316.9925,-123.0228
15260.0000,-34.4843,890.9777,363.0396,715.2029,-315.7479,-108.8298
15280.0000,-0.0217,892.2448,362.9100,717.8994,-304.8218,-92.8926
15300.0000,-32.5250,890.0356,367.9940,716.0784,-303.6559,-84.6977
15320.0000,-30.9828,888.2206,373.9579,713.8251,-304.7831,-85.9171
15340.0000,-34.7040,886.9747,367.9625,712.2920,-321.7898,-66.6508
15360.0000,-31.9137,902.1099,365.0381,713.7964,-311.7622,-46.8838
15380.0000,-36.6687,895.9397,360.9558,690.2175,-307.7890,-56.5512
15400.0000,-35.7494,900.2160,356.0361,693.8001,-303.8385,-37.0898
15420.0000,-35.9346,899.9503,355.9241,692.1550,-323.8035,-36.6265
15440.0000,-36.6932,904.2204,347.0383,688.6816,-319.7587,-33.1499
15460.0000,-37.8806,887.9280,358.8954,708.3177,-306.8196,-26.5375
15480.0000,-45.5301,902.0898,359.1238,710.7538,-304.6003,-5.1154
15500.0000,-24.8905,904.9126,373.8445,722.3716,-292.8033,7.1777
15520.0000,-65.5702,886.2731,366.1227,716.6740,-308.6178,0.6999
15540.0000,-65.1326,871.9092,358.8268,708.3613,-319.8816,2.2836
15560.0000,-85.6082,864.1164,356.1744,700.7311,-322.6259,0.6834
15580.0000,-67.0256,842.9191,348.8107,691.3775,-328.0005,-0.4976
15600.0000,-65.4932,842.1843,368.1749,716.6528,-310.4592,24.5171
15620.0000,-53.1671,842.9229,378.7345,721.3503,-309.0758,52.3784
15640.0000,-50.5747,831.0931,376.2061,721.7286,-305.5489,56.5320
15660.0000,-64.1518,816.0540,363.7290,728.3759,-302.0776,54.2691
15680.0000,-67.5706,811.0441,372.2669,722.5629,-303.6164,53.4623
15700.0000,-36.1629,834.9261,386.7028,756.4423,-288.0413,66.4594
15720.0000,-74.6372,790.0519,378.3179,718.5224,-308.4967,51.5773
15740.0000,-70.0949,796.0412,379.7061,724.3607,-309.1374,59.4535
15760.0000,-68.6794,787.2180,377.3057,733.6033,-306.5604,59.5162
15780.0000,-65.8803,779.0792,381.6769,719.2795,-304.0328,44.5031
15800.0000,-54.6678,785.0792,389.2745,747.6094,-301.4507,56.4544
15820.0000,-54.8284,781.9294,405.6917,756.4748,-292.1116,41.4811
15840.0000,-54.7577,755.1180,386.3449,741.6430,-332.5411,17.3690
15860.0000,-97.8171,728.9032,362.6506,721.4242,-332.9899,-10.4367
15880.0000,-60.8689,751.0865,386.3369,749.5012,-306.5703,-3.2206
15900.0000,-70.7781,744.0131,384.6983,750.3184,-309.9895,-10.4272
15920.0000,-83.9880,751.9883,385.2851,748.6369,-312.5596,-32.2457
15940.0000,-67.5549,746.1646,385.7455,743.3073,-314.0240,-32.4057
15960.0000,-69.1876,744.8856,389.2371,748.6544,-312.5631,-32.2403
15980.0000,-69.4998,740.0604,398.7571,752.4256,-302.9532,-28.4300
16000.0000,-90.2346,753.8140,385.2653,740.6033,-304.4756,-26.3833
16020.0000,-65.2174,753.9940,391.7224,747.3174,-306.1346,-0.3610
16040.0000,-65.3187,749.9929,380.2404,744.6486,-294.4872,2.3867
16060.0000,-98.2116,734.2267,366.7889,720.3223,-306.9648,1.5067
16080.0000,-89.5006,721.8965,376.1693,722.5686,-332.6162,-2.2894
16100.0000,-78.9999,722.2457,383.7874,726.2605,-329.0905,18.3458
16120.0000,-115.7440,691.6719,348.1534,713.6633,-335.6103,4.5076
16140.0000,-89.8301,724.1730,368.8426,715.4075,-335.0371,28.3944
16160.0000,-89.8019,721.7831,368.0804,723.6624,-333.4951,40.5369
16180.0000,-97.7573,728.2264,364.9285,720.2775,-345.8863,31.4263
16200.0000,-88.9095,750.7174,378.1086,720.7089,-328.6040,66.5232
16220.0000,-93.4751,758.1984,347.9228,717.2723,-349.9287,61.3506
16240.0000,-95.0458,766.6948,360.0820,713.7344,-356.7026,88.5480
16260.0000,-85.4702,782.2978,360.0204,720.2206,-326.9312,116.5350
16280.0000,-91.2408,776.5311,359.0039,719.7031,-337.5497,124.5917
16300.0000,-87.2127,796.4912,366.0043,724.2319,-338.0036,133.3531
16320.0000,-90.3233,779.5458,362.9179,726.7374,-351.5985,130.7043
16340.0000,-117.1403,764.4848,355.0209,715.2770,-376.9683,107.3587
16360.0000,-98.4909,776.4461,335.9390,685.7705,-385.6361,118.5921
16380.0000,-121.1996,804.5974,341.1067,701.2128,-378.0525,117.3700
16400.0000,-99.6106,808.4700,353.8951,695.7913,-381.5775,118.6396
16420.0000,-104.9724,813.5972,355.0956,698.2125,-398.0891,142.3564
16440.0000,-112.5177,803.4828,349.8107,704.9581,-383.4667,148.8593
16460.0000,-104.0916,807.5062,361.1537,717.0844,-383.0086,174.3572
16480.0000,-94.5275,811.4673,363.8204,716.8987,-368.5234,177.9235
16500.0000,-124.9847,773.5872,347.1443,688.1555,-407.1033,158.1630
16520.0000,-119.6236,778.4398,356.8188,706.9310,-372.5391,164.8690
16540.0000,-126.0021,753.5792,345.1892,684.0939,-386.0667,173.0783
16560.0000,-111.7561,764.2732,354.7325,708.0168,-386.3369,186.9122
16580.0000,-119.9993,748.6464,350.2007,684.0773,-393.1306,178.1666
16600.0000,-110.7005,755.3068,350.7637,698.9081,-378.4130,186.0446
16620.0000,-128.9320,698.6729,348.2337,698.0768,-381.2558,182.0716
16640.0000,-115.6404,687.1777,345.7506,694.8826,-402.4236,183.9973
16660.0000,-113.0287,656.7111,354.2720,709.9606,-380.2408,182.0052
16680.0000,-146.6492,633.2050,358.7462,699.9977,-387.2618,189.1961
16700.0000,-125.0967,626.5206,338.2558,699.9576,-384.3358,182.8819
16720.0000,-138.5126,627.3221,327.7593,684.0746,-409.3599,178.2492
16740.0000,-121.2393,657.6182,344.2760,705.0430,-380.3460,198.9533
16760.0000,-122.4861,659.3974,340.7525,687.0497,-400.1517,193.2702
16780.0000,-126.2985,651.4576,345.2173,694.8430,-413.3941,187.6670
16800.0000,-119.2878,651.4189,340.7613,687.0490,-414.1428,182.3374
16820.0000,-98.4363,666.4951,352.2641,694.8519,-382.5844,189.7081
16840.0000,-113.1645,631.4306,348.7961,688.1036,-399.1820,210.4598
16860.0000,-123.4010,629.4388,329.1934,679.9913,-418.6138,189.6572
16880.0000,-118.0219,630.5372,331.7824,661.9642,-415.9451,186.4130
16900.0000,-118.5488,630.3129,323.2334,671.0709,-414.6231,209.7236
16920.0000,-99.0467,643.5656,336.8027,689.9968,-380.9746,221.5350
16940.0000,-99.6205,624.3451,337.1593,687.0206,-371.6680,231.6657
16960.0000,-95.8166,625.4905,329.8609,675.9577,-380.9254,215.4955
16980.0000,-86.8944,658.2122,344.1871,692.9913,-360.6449,238.6497
17000.0000,-86.7965,661.6294,352.8648,691.8614,-370.8868,244.5166
17020.0000,-82.0405,683.1288,353.1185,691.9608,-385.7938,242.6033
17040.0000,-93.5009,653.6953,333.8737,682.9106,-381.9241,220.4408
17060.0000,-95.0170,661.1185,340.0880,684.1337,-386.6817,231.5928
17080.0000,-84.4617,660.8596,352.9333,692.8663,-376.7831,234.4873
17100.0000,-88.0951,670.9384,342.0381,685.0156,-360.7231,244.4528
17120.0000,-94.2853,672.0270,340.9996,685.8246,-353.7766,243.6115
17140.0000,-83.2404,655.9976,355.0026,694.1779,-354.7865,259.4227
17160.0000,-85.2731,665.0411,351.0111,692.8012,-348.8710,268.6250
17180.0000,-79.4188,674.7655,357.0306,691.2310,-358.8432,259.4254
17200.0000,-58.0190,696.0151,369.0324,717.8433,-345.8820,294.5845
17220.0000,-84.4917,666.6738,365.0102,686.1653,-380.7672,264.5827
17240.0000,-96.0237,688.0915,361.0582,698.6983,-382.7101,263.4649
17260.0000,-86.6587,680.7402,346.9060,687.2556,-369.9025,273.4915
17280.0000,-92.0149,683.2191,357.1121,691.6516,-386.7758,274.4198
17300.0000,-86.7352,700.7080,358.9280,712.3448,-348.8131,302.5160
17320.0000,-59.8440,717.2343,365.1429,716.6988,-329.7464,308.5316
17340.0000,-53.6468,726.5809,387.9120,732.3329,-314.7226,335.5342
17360.0000,-60.8300,725.3192,369.1245,721.7835,-325.9446,325.3303
17380.0000,-76.8953,716.3765,349.8344,690.2725,-339.8168,310.7841
17400.0000,-86.6730,717.3701,356.1513,697.7721,-334.9158,304.4716
17420.0000,-93.9114,693.4698,336.8074,683.2656,-361.7041,286.7369
17440.0000,-108.8081,693.6006,337.1551,679.7119,-352.8414,308.4058
17460.0000,-92.8988,707.3483,347.7939,688.3596,-353.5747,307.8371
17480.0000,-113.7777,683.4894,331.2317,655.6993,-366.0923,288.2324
17500.0000,-96.8202,701.4400,346.7393,691.3284,-355.6445,306.7363
17520.0000,-89.7695,717.4574,347.1848,686.7327,-331.0186,320.2241
17540.0000,-79.7976,725.4875,355.7621,692.1705,-317.4686,330.8942
17560.0000,-93.7487,733.4789,362.2628,705.6469,-324.0722,334.1935
17580.0000,-65.6658,748.3765,361.7701,721.2609,-298.4374,349.9063
17600.0000,-67.9160,747.5900,355.2156,715.6558,-307.1227,352.1429
17620.0000,-105.7843,745.5807,346.6872,683.2037,-338.3791,333.1273
17640.0000,-63.0250,774.4253,365.3063,719.7247,-306.3518,356.0559
17660.0000,-95.5440,760.4859,347.6979,689.1152,-317.2191,334.1311
17680.0000,-90.0348,768.4720,343.2957,684.7128,-320.2797,337.0438
17700.0000,-88.4091,776.5795,354.6455,692.0432,-306.2627,341.2049
17720.0000,-100.0844,757.3231,340.3116,685.8249,-327.3964,340.0279
17740.0000,-89.3136,772.6601,336.6354,684.9944,-304.0343,356.2338
17760.0000,-94.2082,753.2272,327.3358,680.9914,-314.5072,348.8609
17780.0000,-96.2298,775.8191,337.6358,688.9731,-306.9117,354.1793
17800.0000,-92.4688,779.3008,343.3824,684.0233,-310.5675,362.8378
17820.0000,-62.1348,805.8497,368.5882,699.9571,-298.9353,384.3974
17840.0000,-74.6003,806.0647,354.4297,690.0320,-307.6971,374.7065
17860.0000,-70.8773,826.0065,350.5718,688.8514,-305.8464,371.3589
17880.0000,-79.7328,818.8982,355.4080,693.0739,-313.9822,359.6815
17900.0000,-95.7803,825.1840,341.4949,685.8023,-309.5679,340.5264
17920.0000,-90.8814,812.8712,350.4536,688.2618,-301.9545,336.7101
17940.0000,-93.5254,821.3144,332.5089,689.7757,-302.4263,331.4547
17960.0000,-109.0882,810.6082,329.4747,684.2798,-306.1297,328.4587
17980.0000,-87.3395,810.3677,334.4512,689.7108,-302.2981,325.4242
18000.0000,-97.2560,791.6077,352.5877,692.2111,-310.2957,345.4905
18020.0000,-102.2629,766.4480,344.4003,684.5511,-336.2230,336.4735
18040.0000,-87.5139,782.4840,366.5683,715.4312,-310.4305,365.5489
18060.0000,-67.0603,753.6332,365.3771,712.5405,-313.1013,366.6967
18080.0000,-78.5949,752.1555,349.6378,693.3906,-301.4101,351.4700
18100.0000,-54.8588,750.7208,358.3688,698.4666,-301.0334,369.7780
18120.0000,-62.8321,751.0601,359.6549,718.5021,-287.7251,352.3504
18140.0000,-93.6102,736.9722,333.2866,683.5483,-306.8407,324.6840
18160.0000,-86.0131,756.7981,349.6955,691.5601,-301.7221,331.2458
18180.0000,-60.4867,752.2239,358.3123,713.4774,-286.6623,355.8512
18200.0000,-60.0922,753.8167,359.7116,717.5162,-282.9292,353.1812
18220.0000,-68.3921,745.3073,352.2577,714.5117,-279.4832,350.7514
18240.0000,-63.3674,741.6495,352.7654,704.5801,-281.1665,344.2411
18260.0000,-68.2328,749.4590,354.2109,712.3679,-283.3731,342.8483
18280.0000,-55.4467,759.4305,345.7276,696.5167,-276.2213,361.2617
18300.0000,-84.0291,749.5956,356.2525,710.4400,-296.2072,336.8152
18320.0000,-63.6670,756.2452,348.7606,696.5281,-303.4101,339.2329
18340.0000,-87.8336,751.6131,352.1870,707.4576,-287.9601,353.0028
18360.0000,-91.7420,749.2954,349.8081,697.5922,-295.6978,343.1535
18380.0000,-83.7925,751.7201,356.2211,697.4724,-286.9531,353.0525
18400.0000,-72.7928,752.0228,355.7661,708.6408,-282.6534,355.0364
18420.0000,-54.6990,781.9791,384.1853,725.3120,-267.6342,388.1808
18440.0000,-66.8712,791.0590,362.8352,715.6439,-291.9641,355.9301
18460.0000,-55.6616,791.9626,370.1429,716.3988,-288.5498,349.1654
18480.0000,-58.0260,811.9749,382.8143,725.6154,-265.0800,379.0510
18500.0000,-88.5516,812.0532,326.1455,716.4169,-277.3338,345.2282
18520.0000,-71.1043,824.9011,273.8368,717.5209,-287.1545,348.8436
18540.0000,-59.5272,848.1570,246.1753,719.4188,-273.3495,366.0863
18560.0000,-60.9614,870.8394,230.7957,720.4786,-285.3810,352.7884
18580.0000,-82.5190,867.0391,216.1364,716.4719,-292.1492,356.2952
18600.0000,-61.9904,874.8159,195.7492,721.5068,-289.5778,355.7977
18620.0000,-84.6228,863.0526,184.1150,709.4850,-309.9032,323.3322
18640.0000,-96.9562,868.9146,187.7411,708.5267,-300.5600,311.8148
18660.0000,-45.5306,895.1017,218.1223,739.4622,-267.8495,354.2171
18680.0000,-80.9417,856.9024,194.7870,718.4851,-289.8128,325.8309
18700.0000,-94.7001,854.0652,185.1629,717.6094,-291.7852,325.2260
18720.0000,-61.7954,864.9521,192.7140,720.3710,-281.8332,335.8853
18740.0000,-88.7928,845.0784,184.1380,719.5396,-294.6677,318.2105
18760.0000,-98.7623,815.9602,180.7323,715.4600,-313.0057,301.7326
18780.0000,-90.9848,816.0420,184.1591,715.5344,-291.6020,305.3438
18800.0000,-92.6220,832.9811,186.7417,716.2865,-279.0246,297.7586
18820.0000,-60.0688,832.0121,201.2123,722.5536,-267.4879,306.2575
18840.0000,-61.3917,833.9923,217.7246,727.3311,-268.0088,316.7276
18860.0000,-82.1879,831.0004,222.2262,721.7099,-268.5011,286.1177
18880.0000,-69.3098,815.1935,223.7360,723.2825,-269.1163,305.7542
18900.0000,-96.4397,795.8127,211.2168,704.7185,-292.5249,272.0591
18920.0000,-83.2134,804.1718,216.6594,718.3911,-279.1463,288.9427
18940.0000,-60.5948,804.7000,240.2447,720.6535,-272.5128,297.0426
18960.0000,-61.8946,786.3345,246.6880,741.3376,-255.0880,307.9341
18980.0000,-65.7610,795.6606,247.2285,742.5287,-247.4040,307.0483
19000.0000,-78.6894,783.3436,270.6932,752.3985,-251.0304,311.0246
19020.0000,-69.9043,753.6187,267.2886,744.6291,-255.5235,310.0320
19040.0000,-74.5470,775.4085,271.6368,738.4005,-239.0708,305.0027
19060.0000,-82.1223,762.4957,266.2751,739.5172,-257.4874,298.9868
19080.0000,-65.2135,750.4957,288.6660,753.5112,-241.9919,313.0309
19100.0000,-100.3486,750.4091,264.3151,724.6175,-266.4936,277.8716
19120.0000,-55.0621,756.4664,299.6701,763.5316,-224.0320,306.0804
19140.0000,-67.6329,744.4312,308.3058,757.5043,-241.6748,307.7334
19160.0000,-88.8175,743.5840,294.6706,745.5192,-249.9001,277.1618
19180.0000,-84.8260,720.3207,290.3318,750.4518,-242.8390,283.7991
19200.0000,-85.7148,728.7870,297.5847,746.6236,-245.7501,281.2194
19220.0000,-89.9926,715.3123,303.3391,768.4650,-240.8385,294.7024
19240.0000,-94.4244,686.6439,291.6272,748.5778,-273.5071,275.4567
19260.0000,-63.2619,718.0861,326.3395,763.3149,-253.1117,300.4622
19280.0000,-84.3033,711.9108,311.5791,751.5955,-259.5297,295.4176
19300.0000,-53.2796,713.0920,321.3656,754.3583,-269.2190,306.4600
19320.0000,-89.1144,687.8978,309.5773,748.6544,-270.2449,274.6740
19340.0000,-90.5027,696.0960,309.4280,748.3778,-265.3250,294.4597
19360.0000,-93.9481,687.9065,307.5649,747.6220,-288.1932,280.5862
19380.0000,-92.7114,691.1339,304.3804,744.3106,-311.4632,265.3835
19400.0000,-114.9341,670.9541,292.4739,720.6716,-308.0403,265.6876
19420.0000,-98.8461,694.1874,294.4305,720.2708,-290.5534,256.1873
19440.0000,-91.8204,688.8766,305.4438,723.6837,-295.9503,262.7236
19460.0000,-102.8886,690.1760,317.5403,739.1583,-289.8642,273.1916
19480.0000,-63.5580,707.9611,331.4821,752.8076,-260.6643,290.8500
19500.0000,-65.0786,693.0077,335.5729,751.2523,-261.9214,290.2042
19520.0000,-78.6099,686.7225,319.3712,735.8101,-256.4654,285.9824
19540.0000,-93.1033,685.0110,304.5596,722.1487,-285.0611,254.1425
19560.0000,-57.4205,713.8063,354.3487,760.8741,-244.3971,299.8235
19580.0000,-60.0035,700.1356,325.6381,731.3096,-275.1944,264.1747
19600.0000,-94.4699,690.6625,320.2664,718.7750,-290.2600,239.9700
19620.0000,-66.0331,689.0963,352.7485,753.2239,-254.4536,280.0569
19640.0000,-54.4748,719.6174,354.1985,753.7957,-263.1011,272.0345
19660.0000,-69.1500,710.3629,334.8280,725.2207,-273.5111,247.0652
19680.0000,-73.5323,692.6982,345.0736,732.7080,-277.0503,247.9480
19700.0000,-54.0218,723.3928,368.9187,756.3009,-258.4863,262.9655
19720.0000,-63.3950,713.6273,336.9741,737.5228,-248.0141,258.0018
19740.0000,-67.0632,706.4754,349.0371,738.5246,-252.6037,244.9536
19760.0000,-60.5173,716.6403,348.9398,733.4162,-262.8463,247.9499
19780.0000,-59.1671,714.3084,366.0888,756.4539,-232.6575,266.0034
19800.0000,-74.6430,696.5413,346.7707,744.3605,-271.7465,241.8548
19820.0000,-60.9710,696.4690,365.2542,747.6476,-237.7952,257.1472
19840.0000,-66.6205,687.5071,359.7486,741.2794,-266.8247,239.9550
19860.0000,-71.0645,694.6529,351.3274,722.6868,-280.8168,241.9715
19880.0000,-66.6866,688.3885,359.6421,732.2328,-278.7340,241.7919
19900.0000,-74.9415,685.5126,355.3801,721.9500,-273.8092,241.9919
19920.0000,-61.7747,682.2057,359.5488,727.0165,-271.7061,245.9753
19940.0000,-60.7920,674.7183,372.5218,747.9974,-254.8507,259.1003
19960.0000,-60.8172,705.2453,379.4221,746.8597,-237.8806,260.9014
19980.0000,-62.7821,706.8302,386.6447,752.1631,-238.6446,242.0676
20000.0000,-64.8223,690.1141,379.3366,737.8077,-254.9329,237.7128
20020.0000,-63.7372,717.7247,383.7270,753.3660,-230.7329,262.2232
20040.0000,-57.8496,723.0720,393.2794,753.6082,-216.8628,256.8568
20060.0000,-36.5402,726.7142,385.7876,752.4389,-210.6718,261.3211
20080.0000,-61.0176,723.0355,379.1741,737.5378,-232.0320,245.8302
20100.0000,-55.5425,748.9072,376.8123,742.5792,-226.5904,241.2291
20120.0000,-52.9987,744.2203,387.1135,751.4259,-218.8886,241.5942
20140.0000,-59.4111,716.8914,380.9273,746.7510,-233.5435,220.2180
20160.0000,-57.2074,737.1143,389.0223,747.2554,-228.1245,219.5624
20180.0000,-70.5167,712.9225,369.9836,746.8821,-238.3557,184.2412
20200.0000,-67.2233,750.0492,382.9577,746.0688,-222.2421,188.6579
20220.0000,-94.2765,712.9351,365.0443,730.8506,-243.3920,181.4550
20240.0000,-91.3180,734.9360,370.9566,721.9474,-257.2364,157.5293
20260.0000,-88.2003,753.9688,372.0530,722.0301,-250.3340,150.3642
20280.0000,-64.2511,746.9506,386.9484,740.9758,-236.2319,177.6313
20300.0000,-66.1868,755.8549,374.1320,719.1360,-249.1968,147.3491
20320.0000,-64.2993,749.0788,378.9339,734.9579,-227.3577,158.4444
20340.0000,-73.1964,745.9465,381.1008,733.2104,-250.2067,155.2959
20360.0000,-59.3511,733.0746,378.9536,720.9011,-262.3133,160.5713
20380.0000,-59.0800,725.8914,382.1164,728.1411,-254.2034,162.2985
20400.0000,-57.5255,711.1781,389.9994,751.8972,-243.4160,163.6322
20420.0000,-59.0469,705.8259,389.0555,747.2779,-260.1278,171.4017
20440.0000,-59.4038,688.1214,369.9869,718.7543,-279.4160,157.5926
20460.0000,-58.1987,691.8867,384.0123,732.1821,-267.1345,178.3829
20480.0000,-33.5277,721.1592,387.0942,754.8989,-229.4025,195.7630
20500.0000,-64.2009,686.8954,372.9253,721.1013,-247.9672,165.2363
20520.0000,-61.5081,687.2555,380.1765,737.9394,-246.4403,181.7686
20540.0000,-46.9926,702.8795,375.8626,728.0580,-246.0541,175.2504
20560.0000,-57.5850,699.3314,388.1771,749.9042,-225.5660,176.6744
20580.0000,-32.0658,744.7924,412.7960,756.0297,-206.0416,208.1774
20600.0000,-28.5954,723.1926,407.2928,752.9658,-187.4362,202.9325
20620.0000,-8.0452,728.7072,411.6649,773.9899,-172.0072,204.1361
20640.0000,-33.5560,713.3537,409.3768,747.1258,-202.5197,181.0184
20660.0000,-5.9781,724.6378,410.5209,746.8773,-194.1986,190.0208
20680.0000,-12.4287,718.3692,416.5349,756.1782,-212.4725,160.0460
20700.0000,5.6174,723.6385,410.4151,751.6271,-192.1243,175.9047
20720.0000,-2.4782,735.4036,397.6221,744.4352,-186.2228,147.9748
20740.0000,-19.0332,748.5596,410.3034,741.4786,-189.2053,124.8245
20760.0000,-32.5047,731.4769,396.7034,745.6714,-180.1901,122.1087
20780.0000,-11.1613,718.3149,410.1867,743.2112,-180.3387,123.7996
20800.0000,-0.4184,752.5244,435.8940,770.7003,-174.1604,130.1426
20820.0000,-1.0088,724.3705,433.1291,768.0861,-190.4316,123.7032
20840.0000,1.2448,714.6451,400.9812,742.0062,-218.1376,101.2415
20860.0000,-17.1707,720.3026,394.9635,737.9260,-217.5588,79.6343
20880.0000,-25.4753,720.8369,411.0768,752.1979,-199.9521,103.4403
20900.0000,-36.0186,709.1665,407.8496,737.7092,-213.6092,85.3862
20920.0000,-23.3917,723.7398,417.2253,752.4319,-217.9309,94.4248
20940.0000,-27.1207,716.1691,423.7438,754.4821,-215.6284,93.2399
20960.0000,-3.4989,742.8973,441.3583,756.6956,-192.7044,125.6330
20980.0000,-31.0663,717.0496,417.6062,747.2432,-206.7864,123.3017
21000.0000,-30.4167,717.9773,424.4206,746.9373,-197.7129,123.8723
21020.0000,3.7269,756.1111,445.5633,779.9448,-170.9164,159.2086
21040.0000,-5.3484,733.1320,431.5848,756.0930,-195.4763,154.8509
21060.0000,-29.2072,719.0361,419.4677,758.8995,-201.0246,155.1375
21080.0000,-16.5258,724.0078,424.6261,769.2902,-193.4634,161.9620
21100.0000,-49.0942,717.7974,397.3392,728.5020,-218.1515,126.9796
21120.0000,-32.4798,728.0656,399.7429,725.5267,-208.2739,151.9952
21140.0000,-36.0372,721.7627,394.2431,729.3461,-213.1280,140.9178
21160.0000,-32.5042,737.2918,397.7420,734.6519,-207.3573,145.0526
21180.0000,0.6351,749.7800,433.1737,762.0764,-207.2434,175.6856
21200.0000,-7.4427,750.2944,412.8756,752.9144,-212.1812,165.2514
21220.0000,-26.0732,745.7324,405.1404,747.0173,-212.4185,176.7854
21240.0000,-30.4503,719.2011,383.9081,716.1184,-216.1607,156.1933
21260.0000,2.7210,753.7233,414.1340,747.6993,-183.3138,187.7118
21280.0000,-10.5674,745.3808,401.9476,739.2338,-199.0661,178.2488
21300.0000,-0.1771,742.8649,395.0569,746.6813,-197.4312,185.5316
21320.0000,-21.5594,726.2883,412.9981,744.4728,-214.1326,172.4589
21340.0000,0.6634,734.8471,411.9936,751.4432,-192.5722,178.4679
21360.0000,0.3982,714.2733,410.0125,752.4645,-191.0970,177.4253
21380.0000,-21.0908,687.6930,411.0144,744.3053,-192.6145,171.3951
21400.0000,4.3357,716.1500,410.0432,753.6406,-198.9454,182.6227
21420.0000,-2.0329,701.8488,404.9631,737.1925,-204.5717,157.3122
21440.0000,2.2616,714.2488,403.0904,748.8484,-194.8637,177.5260
21460.0000,16.8160,727.7966,422.9366,764.0890,-166.5004,192.3488
21480.0000,-6.4310,683.1101,402.0739,739.7839,-201.0099,173.5921
21500.0000,5.6318,721.7008,409.9253,732.1621,-176.5266,189.2724
21520.0000,-23.4233,693.2072,388.0395,718.7905,-213.9807,159.5937
21540.0000,0.6620,695.8029,400.9758,731.0727,-214.6434,178.2487
21560.0000,24.2188,728.0526,442.0998,768.9547,-170.9680,222.7765
21580.0000,-3.0647,713.7662,411.9122,744.0268,-192.7244,202.3134
21600.0000,11.3707,736.0133,425.0456,750.8920,-183.9517,211.8046
21620.0000,26.7566,744.9389,428.9611,748.0609,-179.7493,212.3421
21640.0000,22.3646,760.9404,444.0630,760.8680,-149.8832,226.8086
21660.0000,-8.0550,727.0759,414.9368,741.0731,-195.7184,202.2604
21680.0000,-9.5162,727.8823,404.0237,724.9293,-182.8777,185.6726
21700.0000,-20.0851,717.9395,402.9789,717.1039,-213.6106,179.3046
21720.0000,6.2347,759.8632,417.0050,729.7641,-203.9592,190.8432
21740.0000,-45.1654,743.2408,386.9922,713.1357,-226.5896,171.1013
21760.0000,0.4635,724.8908,405.9730,726.7197,-190.9726,187.8253
21780.0000,-25.0995,702.3046,406.9799,745.2972,-202.7444,185.1154
21800.0000,-31.4089,658.7982,392.9525,722.5906,-217.8033,171.9365
21820.0000,-29.2615,663.2711,415.0070,745.3961,-204.6466,192.1208
21840.0000,-52.3032,610.6122,399.9833,714.6239,-234.8465,173.8220
21860.0000,-25.1413,633.4374,418.0485,748.4814,-205.6986,188.1343
21880.0000,-39.4344,622.5248,404.9542,719.3956,-218.8911,175.9410
21900.0000,4.6632,650.5175,421.0870,756.6796,-182.6983,195.1318
21920.0000,-30.2850,623.3715,407.9479,731.3826,-216.9790,183.9273
21940.0000,4.6221,626.5655,426.0975,749.7975,-211.6468,191.1306
21960.0000,-11.1940,637.4089,438.9134,754.1923,-211.8770,157.9806
21980.0000,14.5145,623.6005,446.0880,753.9707,-207.5920,185.9703
22000.0000,-4.3135,596.2983,423.9169,751.9278,-221.8933,159.8751
22020.0000,-26.3339,586.6931,410.1214,716.9309,-250.5856,130.0469
22040.0000,0.7022,599.0237,421.8299,750.9384,-241.0551,144.9280
22060.0000,-9.4017,565.8214,407.1349,733.2246,-232.6980,116.9291
22080.0000,0.7569,601.0488,419.8278,741.6493,-211.8977,127.8806
22100.0000,-27.4791,573.9266,405.1694,720.4091,-233.5439,89.0622
22120.0000,-27.1493,570.7858,410.7791,735.5623,-229.9969,101.9452
22140.0000,-41.6210,553.9823,382.1962,710.5659,-251.6320,76.8766
22160.0000,-32.0681,558.8950,388.8072,711.3989,-245.9860,94.0037
22180.0000,-14.5327,564.2236,419.2434,722.6230,-239.4719,107.0481
22200.0000,-12.9497,563.7570,417.7980,729.3116,-237.9135,111.0939
22220.0000,-14.6058,564.3027,416.2486,726.8002,-239.4524,107.0257
22240.0000,-12.8741,563.6876,417.7763,729.1697,-237.9376,111.1128
22260.0000,-14.6916,564.3591,416.2531,726.9269,-239.4466,106.9898
22280.0000,-6.7918,556.5525,397.7118,716.0874,-259.0291,84.0107
22300.0000,-45.8431,568.4310,380.2802,710.0458,-250.5089,76.7914
22320.0000,-29.6884,560.5030,399.7643,726.8120,-243.0729,93.1590
22340.0000,-12.8017,566.3513,411.2866,738.2077,-241.5565,97.8196
22360.0000,-18.6256,565.4135,392.6813,717.7716,-252.0327,93.1724
22380.0000,-31.9491,560.5018,397.2729,722.1714,-264.5246,82.8410
22400.0000,-29.5139,565.3740,384.6616,716.6065,-278.0350,92.0129
22420.0000,-51.0904,538.3796,377.3082,698.2551,-278.5453,65.7669
22440.0000,-41.4312,542.4850,389.6501,721.6136,-275.0899,78.2156
22460.0000,-0.4552,547.5871,401.3289,749.3268,-258.5174,108.7886
22480.0000,-23.3122,566.2762,416.6671,754.4641,-250.1999,95.0628
22500.0000,-2.2029,563.3917,421.3104,770.4320,-238.4702,121.8889
22520.0000,-4.1659,547.4195,408.6621,746.5449,-265.1311,97.1652
22540.0000,18.4192,568.5597,435.3519,773.4678,-235.4563,128.9227
22560.0000,5.6769,534.4760,412.7000,753.4990,-251.3291,92.0035
22580.0000,-19.3841,545.4269,400.3190,722.5262,-280.3453,95.9529
22600.0000,-32.1229,520.3632,381.7001,715.4224,-290.3166,61.1128
22620.0000,-34.6169,533.3604,379.3168,717.6725,-300.3277,68.8398
22640.0000,-33.8725,527.4877,384.6305,722.4164,-293.3309,95.0065
22660.0000,-26.6462,534.2505,385.3485,722.5774,-296.2507,87.8015
22680.0000,-9.7252,559.6159,406.6660,739.4004,-266.3248,120.0134
22700.0000,-32.7743,531.3349,381.3007,716.6347,-278.3376,107.9374
22720.0000,-23.6981,563.7087,397.6256,718.3661,-275.2988,120.9137
22740.0000,-34.9561,528.1859,374.3317,689.6493,-288.3075,119.8985
22760.0000,-29.5961,537.6398,387.6349,718.3628,-292.3740,122.9762
22780.0000,-30.0885,533.9750,379.3327,710.6865,-299.1180,114.1004
22800.0000,-33.4179,522.9048,384.6243,718.3808,-303.4798,130.8829
22820.0000,-3.0641,535.9829,400.3384,723.6273,-273.1096,152.0359
22840.0000,-23.3722,536.9318,385.6577,726.2662,-278.3930,152.8226
22860.0000,-28.2343,533.7318,387.3298,716.5806,-277.1188,143.1881
22880.0000,-29.2764,566.0627,386.6973,720.3544,-266.4995,148.8027
22900.0000,-28.3248,555.7525,381.3060,714.6342,-301.1512,141.1297
22920.0000,-17.1693,567.1551,386.7052,717.4287,-277.5994,157.8752
22940.0000,-3.3572,599.4437,392.3178,724.5683,-274.1028,181.1723
22960.0000,-11.0727,597.4856,391.7029,723.4271,-270.5905,175.8238
22980.0000,0.2961,603.2966,414.3639,756.3988,-255.9754,198.3169
23000.0000,-0.0129,596.7137,391.6967,731.5472,-276.5682,182.7786
23020.0000,-29.6025,600.3036,391.2940,724.4816,-275.9727,184.3447
23040.0000,-3.8912,605.8303,388.6784,721.6060,-279.5748,182.7108
23060.0000,-23.6429,624.2043,390.3573,728.4809,-271.0482,178.3416
23080.0000,-9.8546,627.9054,402.6978,732.6902,-250.6390,200.6404
23100.0000,-21.6110,616.9756,385.3757,720.3713,-272.9374,180.5301
23120.0000,-13.9642,627.1204,390.6326,724.6472,-259.6039,184.4152
23140.0000,-28.6834,637.7974,383.3201,724.3660,-245.0361,196.5060
23160.0000,-40.8656,625.1652,386.6599,719.5914,-268.5450,179.4379
23180.0000,-6.7454,651.5484,412.3383,746.2032,-245.0397,190.7155
23200.0000,-10.8140,668.4663,406.6223,734.7192,-240.6452,185.2276
23220.0000,-17.7262,670.4962,398.4052,735.3250,-238.0131,181.6552
23240.0000,-30.9203,672.6117,401.5988,717.7459,-237.6714,176.2549
23260.0000,0.1191,682.3940,411.4321,736.1492,-229.9156,190.8581
23280.0000,-11.9097,688.7634,409.5677,748.7817,-220.6425,191.1355
23300.0000,-35.6570,658.2515,398.4688,725.0948,-246.9323,151.8884
23320.0000,-22.9464,695.7092,399.5386,730.7216,-245.5524,173.0340
23340.0000,-29.5708,675.1386,400.4958,729.1338,-240.9639,153.8537
23360.0000,-26.9523,694.8696,412.5004,736.8945,-231.6976,169.9176
23380.0000,-3.3837,704.0571,416.5511,725.0994,-232.0230,164.9312
23400.0000,-29.1247,695.8813,387.3938,709.6833,-257.6567,144.8017
23420.0000,-29.3527,715.0976,384.5883,715.1306,-246.9230,154.0300
23440.0000,-28.2173,699.9503,389.3071,715.8228,-243.5939,154.7711
23460.0000,-28.1790,712.9580,394.6378,720.2481,-243.9464,170.2596
23480.0000,-49.4744,710.1339,389.2448,713.6737,-262.5149,159.5986
23500.0000,-37.1440,714.1298,414.7621,723.2535,-243.9615,182.2791
23520.0000,-55.6183,699.0969,401.2274,717.6783,-258.4249,180.5619
23540.0000,-37.8077,716.0362,396.7514,718.1903,-253.9870,201.3218
23560.0000,-58.6791,710.1697,395.1196,719.5438,-239.4382,202.4601
23580.0000,-57.7332,688.0219,385.9041,721.4303,-234.0037,182.4723
23600.0000,-52.8374,686.1054,395.0283,724.5806,-233.4342,201.4327
23620.0000,-58.5870,721.0891,395.9851,715.3469,-248.0764,196.6050
23640.0000,-33.9634,711.0493,415.9293,739.5826,-242.3339,198.3109
23660.0000,-37.2587,699.2603,401.0793,724.5726,-255.9658,186.6480
23680.0000,-35.1922,693.0858,410.8344,726.3173,-242.2841,185.3585
23700.0000,-34.1338,721.2834,414.1941,723.6223,-255.9713,184.8953
23720.0000,-30.4445,694.8846,390.7352,713.2361,-247.3604,169.1158
23740.0000,-38.8794,705.6138,388.3223,713.7584,-261.1048,156.0073
23760.0000,-27.7578,730.8436,409.5491,723.1079,-229.2196,181.1857
23780.0000,-22.6897,732.6386,393.4483,722.8129,-235.1390,183.9673
23800.0000,-28.7986,728.6147,406.4854,720.0001,-235.1370,161.9032
23820.0000,-22.4708,749.7474,407.6170,732.9335,-237.0837,186.1796
23840.0000,-55.1007,721.6619,379.3231,709.8843,-263.1889,141.9297
23860.0000,-50.2281,735.9777,379.6776,715.2207,-250.1082,147.2169
23880.0000,-44.3374,727.4266,380.2161,716.7502,-269.0997,156.8036
23900.0000,-56.0140,702.1928,386.8751,719.1985,-258.2266,162.2947
23920.0000,-31.4935,717.3876,401.0829,729.5626,-242.0157,186.6526
23940.0000,-40.8896,716.2649,377.9797,712.5604,-266.1321,154.4467
23960.0000,-38.7218,713.2513,383.9078,717.5154,-250.0385,178.6344
23980.0000,-66.5873,716.4034,389.1342,715.6886,-245.3209,170.6737
24000.0000,-34.9654,751.0771,374.7326,710.3475,-224.8651,183.4677
24020.0000,-32.4495,724.5607,413.2796,725.8323,-212.3594,217.7760
24040.0000,-32.0039,717.9550,392.6959,707.2318,-243.9605,190.4251
24060.0000,-24.2259,714.5486,418.3849,726.8345,-225.4022,219.7177
24080.0000,-28.1937,682.7256,414.5420,734.0755,-246.8634,212.3679
24100.0000,-20.1624,694.8661,412.4736,745.0444,-217.3784,228.8958
24120.0000,5.4483,721.7579,417.4373,753.8947,-184.6247,264.4803
24140.0000,-4.9515,710.9899,414.5574,749.2104,-215.5400,243.9013
24160.0000,-42.2657,711.7653,406.3200,744.8455,-230.7442,241.3157
24180.0000,-0.9520,730.8676,413.6974,753.3716,-198.5939,264.9584
24200.0000,-33.4162,748.7100,406.2441,742.6107,-215.5339,245.5335
24220.0000,-30.9448,738.9352,400.7613,750.5037,-210.6080,249.7538
24240.0000,-24.3330,767.5210,406.1848,745.4841,-201.3851,271.5179
24260.0000,-18.9088,766.0804,414.7661,753.5862,-207.7122,273.8261
24280.0000,-6.3134,780.4575,412.1648,750.4953,-202.3455,266.4218
24300.0000,-40.8810,746.0533,370.8145,715.6355,-219.7324,240.8002
24320.0000,-31.3442,750.5165,383.1245,733.4252,-204.1534,263.6727
24340.0000,-59.9902,741.0897,377.8049,728.6577,-217.9307,245.6443
24360.0000,-63.3912,747.4602,370.1146,707.2367,-233.1991,236.6149
24380.0000,-53.0143,755.9127,380.8225,713.8312,-215.0703,252.5796
24400.0000,-32.2419,755.4987,387.0776,719.3167,-213.9124,261.7429
24420.0000,-37.1667,748.0883,390.7993,736.8052,-191.1398,270.4824
24440.0000,-27.1520,756.5021,397.1807,734.3878,-207.8122,275.9041
24460.0000,-60.2964,727.9675,379.8239,722.7779,-217.2519,259.3547
24480.0000,-51.0461,720.7402,389.2195,725.2563,-213.6401,276.0422
24500.0000,-50.5081,722.6809,377.6994,710.6457,-219.5244,265.2815
24520.0000,-61.8595,708.8127,384.3029,719.3395,-224.5706,272.2324
24540.0000,-66.6418,704.6506,371.6752,696.5767,-238.6235,248.0331
24560.0000,-65.6066,698.7766,382.3291,713.4498,-208.4532,268.4431
24580.0000,-67.8753,710.6558,364.5164,691.6174,-213.8619,259.7672
24600.0000,-77.4167,693.9426,372.4578,715.4554,-176.3635,275.6695
24620.0000,-89.0137,685.2903,353.4593,684.5046,-206.9999,283.6383
24640.0000,-110.3431,682.9876,347.6244,675.6209,-219.2006,253.6699
24660.0000,-122.3847,656.1436,334.2880,659.2989,-238.0453,254.3963
24680.0000,-124.0018,660.2507,349.7466,669.7996,-222.8736,267.0001
24700.0000,-110.6046,691.1119,350.1509,663.2054,-215.2123,267.2526
24720.0000,-115.9054,651.4244,336.9058,650.8254,-235.6970,242.2116
24740.0000,-123.8931,657.9559,353.9481,667.0884,-236.4501,264.9089
24760.0000,-124.5782,654.3845,351.0989,659.0521,-262.5929,249.4571
24780.0000,-124.9611,651.6904,362.8211,686.8965,-245.5388,276.6004
24800.0000,-125.3799,636.5938,349.2033,678.1328,-268.4056,272.6219
24820.0000,-126.2459,641.6354,364.6205,684.8027,-277.8384,257.3977
24840.0000,-111.0562,624.6993,387.4321,728.4520,-254.4212,308.8883
24860.0000,-144.5070,594.5972,378.4711,712.6649,-281.8034,272.1339
24880.0000,-128.8460,608.7781,392.6115,737.5680,-266.2154,308.1806
24900.0000,-157.7878,570.4258,380.2642,718.4182,-294.9133,288.9810
24920.0000,-155.7599,562.9102,397.7906,739.6788,-301.2354,297.4095
24940.0000,-135.0220,546.2735,420.1089,759.2225,-291.1933,324.7803
24960.0000,-190.5568,475.0590,396.9297,716.9166,-363.0905,283.5829
24980.0000,-172.0862,452.1458,415.9001,756.0706,-366.2135,307.5209
25000.0000,-192.2361,436.9235,409.1510,735.1583,-376.0002,287.7334
25020.0000,-206.4449,391.0340,408.7581,726.7805,-409.2977,281.3851
25040.0000,-212.1580,382.9742,412.3269,728.3241,-421.9326,283.9199
25060.0000,-215.5253,350.9167,424.6061,748.7002,-428.3051,289.1778
25080.0000,-249.9000,287.9985,423.5133,746.5688,-471.9087,285.0117
25100.0000,-244.6728,266.9662,441.4116,749.3726,-486.4712,276.1676
25120.0000,-270.8913,214.9249,429.6026,748.6473,-528.9399,265.2546
25140.0000,-272.7661,190.8292,433.2596,752.3972,-535.4584,265.0566
25160.0000,-296.6607,152.9058,424.7487,748.8030,-569.8053,240.3277
25180.0000,-323.0032,75.8215,420.1251,742.0493,-619.5508,245.7869
25200.0000,-365.7357,2.9404,444.9335,755.9550,-660.9395,215.3733
25220.0000,-379.0284,-25.7441,450.0511,752.1142,-701.5004,206.8869
25240.0000,-383.4713,-82.9304,445.0396,749.0554,-724.0060,184.5413
25260.0000,-416.1691,-125.8423,450.9901,749.8840,-750.4150,179.7319
25280.0000,-419.4620,-180.1485,443.0604,724.0799,-773.0380,167.4680
25300.0000,-457.2232,-251.6337,435.8410,721.7509,-821.4510,139.7352
25320.0000,-481.5680,-321.2193,446.1461,718.2053,-884.2545,108.5173
25340.0000,-510.2760,-403.5613,439.8215,712.7618,-939.3035,90.6428
25360.0000,-539.5483,-437.3237,446.2066,706.3671,-1000.3882,60.2990
25380.0000,-532.2432,-481.4614,469.7247,724.6071,-1013.2871,53.7297
25400.0000,-555.4995,-520.6802,465.2823,705.3491,-1053.5199,34.2829
25420.0000,-581.3235,-565.4649,457.7217,687.5997,-1111.0938,-7.0145
25440.0000,-632.5699,-661.8236,448.2646,677.3265,-1188.6445,-56.5562
25460.0000,-655.2514,-712.3893,470.6972,684.6080,-1216.9735,-61.8933
25480.0000,-644.6042,-727.0573,478.3312,697.3093,-1227.7487,-61.5566
25500.0000,-694.3706,-783.1817,468.7032,677.5911,-1270.9050,-101.7937
25520.0000,-680.6766,-801.2520,471.3767,683.2866,-1287.0836,-115.6942
25540.0000,-668.2270,-830.8516,489.7049,686.7411,-1316.7325,-122.7215
25560.0000,-715.7379,-904.4624,482.3066,662.2267,-1368.1512,-167.0539
25580.0000,-708.1424,-910.7881,487.6434,658.7237,-1375.5380,-181.5290
25600.0000,-756.8133,-992.6008,462.3197,625.2209,-1436.4562,-228.0183
25620.0000,-781.2040,-1025.6251,462.6991,624.7725,-1484.5787,-279.3823
25640.0000,-775.9285,-1035.9402,474.3542,629.2139,-1484.5354,-289.2161
25660.0000,-778.0292,-1063.3837,470.7211,623.7538,-1491.2283,-307.3117
25680.0000,-804.9974,-1102.1575,465.3003,596.2366,-1552.8397,-363.5091
25700.0000,-840.9324,-1132.2448,442.7525,576.8431,-1573.2411,-394.1858
25720.0000,-823.9116,-1128.2904,474.3241,568.1467,-1569.8256,-407.6256
25740.0000,-863.0342,-1174.9521,442.7674,540.7645,-1610.9855,-465.1511
25760.0000,-857.1160,-1175.3839,445.2891,543.0263,-1607.0228,-460.8659
25780.0000,-839.9780,-1195.9818,466.7283,556.9603,-1628.9333,-458.9321
25800.0000,-851.1810,-1197.7419,450.2522,559.9693,-1625.2897,-493.9985
25820.0000,-866.8395,-1197.6824,442.8282,528.9669,-1643.6713,-542.7573
25840.0000,-857.2455,-1191.8021,446.1740,524.0051,-1634.3868,-530.1620
25860.0000,-862.8522,-1187.6160,437.7804,507.9847,-1648.6451,-561.5738
25880.0000,-869.3099,-1190.0945,451.1382,509.9339,-1660.4976,-592.2691
25900.0000,-856.7897,-1160.3424,449.8679,506.9733,-1669.5931,-594.4280
25920.0000,-857.3578,-1165.2832,457.1285,508.8199,-1676.8212,-606.4359
25940.0000,-845.7574,-1137.0847,466.8605,505.1092,-1682.4515,-633.3734
25960.0000,-834.4228,-1125.3625,473.1103,507.7120,-1692.9141,-629.4696
25980.0000,-840.5231,-1127.0394,467.9384,504.1020,-1699.1488,-664.3675
26000.0000,-816.4564,-1106.4053,474.1027,506.8140,-1690.9115,-655.5463
26020.0000,-823.4901,-1100.9821,459.9665,500.0990,-1731.1946,-669.1835
26040.0000,-830.3648,-1074.7009,463.0622,505.7297,-1728.0450,-691.6515
26060.0000,-809.5822,-1051.8512,474.9707,505.2234,-1728.9786,-697.1769
26080.0000,-806.3770,-1033.7823,450.9759,503.7919,-1732.1770,-722.8408
26100.0000,-818.4623,-1041.6205,445.0448,498.2319,-1742.1036,-730.0882
26120.0000,-788.3839,-992.8444,448.9642,506.7491,-1735.2279,-731.7985
26140.0000,-747.3856,-940.6518,476.0701,538.1953,-1697.9623,-712.0139
26160.0000,-780.5337,-912.7589,441.9663,514.5964,-1734.2467,-748.0010
26180.0000,-756.4879,-904.5394,446.0544,532.2625,-1701.9471,-740.9668
26200.0000,-719.4441,-866.8336,448.9025,530.7213,-1698.3405,-746.8870
26220.0000,-725.4020,-855.4686,450.1484,532.2941,-1700.8035,-750.0338
26240.0000,-718.4108,-830.7898,448.8642,539.6314,-1694.3673,-749.0301
26260.0000,-725.4037,-810.4357,430.2188,501.2879,-1712.6707,-781.8134
26280.0000,-715.5128,-798.7320,440.8147,518.5748,-1699.5502,-778.0684
26300.0000,-689.3586,-762.3501,429.2325,505.3473,-1729.6360,-777.8130
26320.0000,-677.3958,-716.6826,444.8194,540.6599,-1690.6614,-752.1202
26340.0000,-639.4406,-670.4345,468.2776,555.2958,-1665.4941,-742.9434
26360.0000,-611.5145,-626.8328,468.7094,549.5762,-1666.6583,-719.1520
26380.0000,-597.4227,-592.4712,461.3455,535.3321,-1678.6652,-716.9822
26400.0000,-577.5245,-570.6641,465.7449,537.6727,-1672.6708,-721.9550
26420.0000,-564.5018,-538.5540,470.3405,554.2544,-1645.4015,-693.8278
26440.0000,-560.3146,-538.5260,471.6407,558.6936,-1642.6973,-697.1559
26460.0000,-542.3624,-504.6985,480.3730,559.3617,-1650.4689,-697.8164
26480.0000,-495.4592,-443.4286,497.5826,570.5666,-1642.7507,-661.1369
26500.0000,-487.5066,-423.7165,498.5038,596.3514,-1635.3040,-661.7979
26520.0000,-498.3294,-435.2935,471.5281,557.5813,-1670.9004,-690.1419
26540.0000,-492.4992,-417.7110,463.5244,560.4686,-1665.2722,-663.9044
26560.0000,-465.3708,-366.0487,484.4653,571.5703,-1672.8773,-666.0533
26580.0000,-446.5405,-347.8113,471.5910,573.4615,-1636.2615,-656.8943
26600.0000,-441.3095,-318.0348,470.4577,578.5532,-1638.8556,-655.9805
26620.0000,-426.4950,-279.1244,502.6328,603.4373,-1627.2854,-650.8473
26640.0000,-419.0896,-271.6401,459.3936,568.5544,-1646.9717,-666.0019
26660.0000,-402.5182,-249.1131,478.6600,598.5615,-1616.1697,-627.0215
26680.0000,-402.0527,-232.5576,469.3271,575.5486,-1609.9716,-636.0322
26700.0000,-379.5719,-194.3541,473.7239,597.5276,-1569.0680,-624.0000
26720.0000,-377.9666,-182.3975,472.2823,592.5182,-1558.0623,-617.9995
26740.0000,-368.6566,-162.4737,467.7528,578.4275,-1559.0295,-628.0097
26760.0000,-358.0136,-121.1387,474.2072,595.4597,-1532.9667,-599.9511
26780.0000,-352.7654,-104.6704,459.7963,589.5036,-1534.0890,-606.0571
26800.0000,-336.8260,-93.8208,474.1535,600.3178,-1507.0142,-591.7352
26820.0000,-330.8651,-87.8896,461.9160,589.5330,-1512.9785,-595.0865
26840.0000,-318.9515,-69.8048,466.0981,603.2635,-1505.1222,-589.8311
26860.0000,-330.9091,-64.9627,454.9081,587.6495,-1503.9982,-602.1310
26880.0000,-291.7568,2.3000,477.0588,613.2185,-1452.1272,-558.6882
26900.0000,-277.9315,0.6358,476.9912,630.5925,-1435.8367,-563.0899
26920.0000,-276.7960,-1.2767,472.0265,621.2772,-1437.0272,-559.8270
26940.0000,-260.7658,29.4561,476.0024,626.5786,-1425.8040,-532.0026
26960.0000,-259.7688,42.7621,478.9616,633.3734,-1401.0547,-529.6239
26980.0000,-268.8698,33.3132,469.0727,624.6881,-1396.8264,-541.1426
27000.0000,-257.6569,58.9664,473.9267,626.3371,-1375.0757,-534.7418
27020.0000,-247.9655,54.1636,466.1053,623.6521,-1372.7437,-536.0023
27040.0000,-238.5703,69.9672,464.9315,635.2457,-1333.1272,-515.5378
27060.0000,-229.9695,88.9173,473.1951,632.7999,-1333.7788,-520.1077
27080.0000,-225.5020,90.1398,467.8257,656.2716,-1312.0455,-502.6582
27100.0000,-215.8820,122.9966,466.1694,646.8413,-1286.7150,-501.1547
27120.0000,-200.6447,116.1962,470.8030,656.2496,-1283.0790,-495.6370
27140.0000,-216.8883,115.8567,451.2245,642.8245,-1290.7418,-506.0514
27160.0000,-201.7135,156.3381,445.7975,654.1047,-1259.0288,-494.7155
27180.0000,-190.7471,157.7666,443.2552,646.8771,-1254.7415,-472.1021
27200.0000,-201.7581,161.3370,438.7017,646.2280,-1254.9938,-484.6846
27220.0000,-177.8601,190.7402,447.2440,658.7855,-1224.7096,-459.9089
27240.0000,-189.7996,158.5419,441.6798,654.0853,-1229.0154,-473.7134
27260.0000,-183.7872,196.8701,449.3401,658.7919,-1214.6862,-444.8967
27280.0000,-154.8780,199.5559,443.7173,653.2394,-1198.9974,-445.6798
27300.0000,-160.6783,208.9449,445.3358,658.8035,-1191.6615,-439.9100
27320.0000,-151.8951,227.3158,447.6318,662.1489,-1167.0881,-410.6569
27340.0000,-155.3590,242.0233,441.4207,660.7338,-1160.5468,-413.8680
27360.0000,-152.0340,238.3147,451.6434,663.2040,-1154.9784,-409.7836
27380.0000,-148.3622,264.0512,437.4128,657.7757,-1125.5923,-391.7954
27400.0000,-141.2318,270.2511,452.5449,679.1320,-1091.1538,-394.8964
27420.0000,-136.9719,267.2697,444.5258,659.9288,-1101.4733,-386.5329
27440.0000,-150.3413,273.1569,443.5499,664.2413,-1091.2076,-380.9663
27460.0000,-144.8495,288.4290,442.4887,662.9054,-1070.5460,-375.4393
27480.0000,-146.6196,293.9453,436.4616,664.2360,-1086.1588,-373.1081
27500.0000,-115.6153,326.5786,454.5795,693.9397,-1040.4674,-341.4001
27520.0000,-133.8146,339.7022,441.4220,675.0722,-1047.2686,-354.2796
27540.0000,-121.3631,350.8434,445.5768,688.8538,-1032.2976,-348.2821
27560.0000,-128.0762,358.5573,430.4463,663.1568,-1020.3165,-355.3394
27580.0000,-103.0679,391.1579,446.6452,694.8132,-975.1456,-331.0689
27600.0000,-126.4993,378.0946,423.3441,666.1174,-986.3490,-333.4917
27620.0000,-108.7880,389.2973,427.6523,688.0194,-964.1913,-320.8631
27640.0000,-116.6619,401.8503,414.3539,662.0700,-976.4597,-325.6927
27660.0000,-83.4093,416.7018,441.7215,688.8817,-927.8749,-299.6427
27680.0000,-91.0915,413.5658,431.2795,691.1671,-906.5434,-284.6840
27700.0000,-103.1834,417.9321,410.6693,681.0276,-919.8687,-290.6045
27720.0000,-106.3243,438.2537,416.2808,687.1246,-914.7564,-270.7902
27740.0000,-96.8516,434.2544,423.7740,677.8491,-924.6339,-272.4353
27760.0000,-88.6416,428.0403,417.2094,677.9784,-909.7891,-261.1183
27780.0000,-90.5091,409.5764,410.7163,660.0139,-930.4465,-263.3898
27800.0000,-98.0839,419.7032,420.2034,677.1228,-903.9671,-250.2645
27820.0000,-101.1820,424.7095,383.7723,654.9030,-874.3334,-247.1199
27840.0000,-84.3084,446.5175,413.2340,675.0041,-833.2064,-226.3080
27860.0000,-78.9056,455.1618,415.8058,686.9910,-808.1987,-207.9074
27880.0000,-94.5852,438.2094,384.2145,655.0254,-844.2169,-223.4112
27900.0000,-118.5611,440.3435,378.7907,631.9635,-842.1074,-246.8249
27920.0000,-88.8908,444.7767,382.2416,656.0911,-818.3891,-224.4773
27940.0000,-86.1503,453.5460,388.7719,661.9291,-801.9355,-221.6573
27960.0000,-89.1989,448.5404,387.2389,662.0311,-805.5584,-223.6701
27980.0000,-85.8640,453.7538,388.7585,661.9332,-801.7934,-221.5357
28000.0000,-89.4787,448.3229,387.2637,662.0325,-805.6971,-223.7723
28020.0000,-122.6795,444.9709,358.6780,626.0126,-818.7126,-249.5070
28040.0000,-67.8000,465.1042,379.2863,656.0856,-743.8693,-206.7976
28060.0000,-97.3641,477.1832,355.6342,633.8754,-722.5741,-220.4092
28080.0000,-99.1148,460.9388,364.3433,629.1073,-725.8867,-223.9434
28100.0000,-103.1457,456.3289,343.6288,623.8759,-722.4734,-234.3767
28120.0000,-92.2861,468.8463,350.3587,631.0345,-708.9482,-223.9931
28140.0000,-102.1247,472.4281,373.6155,659.9754,-676.4016,-201.3417
28160.0000,-78.6063,478.8985,364.4397,653.1447,-663.0500,-206.0349
28180.0000,-96.7775,472.4728,346.5332,622.9865,-694.2156,-215.3307
28200.0000,-98.6448,505.7404,349.4382,629.1618,-670.1280,-219.1492
28220.0000,-83.7929,336.4630,355.4282,645.9171,-640.3102,-191.2240
28240.0000,-104.7916,270.7150,352.5070,631.0850,-646.1101,-210.0381
28260.0000,-90.5143,234.3486,353.3855,627.8409,-659.2362,-204.0837
28280.0000,-97.8588,214.8842,350.5886,629.1783,-629.1130,-185.0065
28300.0000,-92.4936,181.2310,333.3436,628.8845,-625.1551,-192.1527
28320.0000,-95.0489,181.9607,354.6183,642.1595,-623.1590,-187.1016
28340.0000,-95.5331,150.0067,348.2579,630.7782,-614.0933,-190.2983
28360.0000,-96.1414,146.9508,343.7490,632.1900,-616.1295,-206.0274
28380.0000,-122.4062,148.9272,351.2182,634.8104,-617.3002,-196.1567
28400.0000,-84.1780,148.0297,335.7938,631.1254,-588.2349,-179.1129
28420.0000,-103.3215,159.8353,343.1585,655.8465,-584.1158,-211.1449
28440.0000,-99.1084,156.2148,335.8475,648.1224,-558.1852,-186.1010
28460.0000,-93.3682,155.6347,355.0768,656.9092,-560.3168,-176.3276
28480.0000,-93.1197,167.4809,340.8795,641.1031,-564.1054,-198.9346
28500.0000,-93.3708,162.2611,349.0977,655.8527,-547.3848,-189.2273
28520.0000,-103.0507,167.6975,343.9368,650.2413,-539.9779,-195.8466
28540.0000,-89.4591,189.1390,358.0049,658.8238,-529.3690,-192.3150
28560.0000,-94.1203,145.9937,354.9052,659.1599,-535.8583,-205.8619
28580.0000,-85.3528,171.9273,341.9571,634.8095,-528.3991,-205.4532
28600.0000,-125.1576,189.1344,332.9830,630.0491,-533.8594,-207.9312
28620.0000,-122.4703,183.6956,324.9770,631.8409,-542.5354,-227.4818
28640.0000,-130.0882,184.4277,324.9924,630.0391,-531.8644,-205.7852
28660.0000,-127.4842,213.3853,321.9574,651.8245,-529.6461,-210.4389
28680.0000,-147.0240,205.6548,304.9419,632.1606,-531.7632,-225.8575
28700.0000,-146.5997,201.1045,312.9173,626.7621,-528.6931,-239.4817
28720.0000,-127.9202,234.8898,312.9395,629.1667,-509.5339,-227.6996
28740.0000,-140.6522,241.8725,302.9393,617.8488,-507.9319,-242.5571
28760.0000,-130.9589,238.2025,319.9920,626.1876,-484.5231,-234.6764
28780.0000,-112.7543,250.5847,329.9883,659.9249,-468.0210,-207.5040
28800.0000,-135.8750,228.2970,312.9103,635.1011,-487.4013,-230.6703
28820.0000,-120.6896,267.3326,323.9882,641.8665,-468.9763,-222.5032
28840.0000,-98.7316,283.6670,327.9506,655.0706,-482.1991,-244.6762
28860.0000,-115.7986,293.2808,332.0204,657.8003,-453.1200,-214.5916
28880.0000,-89.7463,313.8061,334.8954,663.1500,-445.2618,-217.7384
28900.0000,-88.9585,321.1232,341.0912,656.9391,-446.2116,-214.6349
28920.0000,-93.5942,330.9874,354.8346,681.2288,-457.0700,-210.6706
28940.0000,-82.0002,354.8718,355.0767,658.8365,-449.5153,-207.6651
28960.0000,-101.6024,331.1507,335.8493,660.2054,-449.9493,-233.5603
28980.0000,-87.0542,349.7567,354.1766,663.9171,-438.5495,-215.8876
29000.0000,-118.4915,357.2412,331.7603,647.2736,-454.9605,-244.5105
29020.0000,-113.2537,368.4653,324.1771,657.7198,-412.6815,-227.8671
29040.0000,-90.2174,398.3920,347.7241,662.1816,-406.7460,-217.5573
29060.0000,-91.1989,397.3293,341.2736,652.7977,-400.6554,-221.8432
29080.0000,-128.2187,388.6045,318.6655,624.1929,-415.5981,-244.3957
29100.0000,-112.4394,403.3555,326.2516,640.6376,-411.8217,-238.0506
29120.0000,-95.1624,392.7061,342.6461,665.2580,-390.5922,-216.2624
29140.0000,-115.4712,412.2262,321.2946,634.6224,-403.8369,-249.1207
29160.0000,-107.0372,425.7778,333.5732,660.4441,-355.3616,-217.3443
29180.0000,-125.7769,401.0664,304.3570,620.5071,-385.0051,-256.2455
29200.0000,-124.8964,424.9106,323.5620,632.4890,-366.3265,-243.2017
29220.0000,-118.9084,420.1220,324.3505,648.4547,-361.0568,-249.3424
29240.0000,-119.5383,431.8220,335.5988,658.5143,-361.3275,-244.0197
29260.0000,-123.0330,438.0000,348.3814,662.3690,-370.3279,-251.3409
29280.0000,-97.3826,451.9053,354.5326,689.6473,-333.1165,-226.8161
29300.0000,-85.3381,465.0883,355.3654,684.1434,-304.4459,-220.6082
29320.0000,-95.1058,442.0148,348.5844,682.7458,-323.0050,-243.7515
29340.0000,-112.4922,462.9633,346.4073,681.0516,-320.5345,-246.7282
29360.0000,-83.8946,499.0697,378.5517,696.8820,-287.9864,-210.6189
29380.0000,-102.7857,462.9715,350.3617,680.0876,-317.6574,-247.8279
29400.0000,-104.7771,478.0722,354.5424,678.9366,-306.8271,-249.5212
29420.0000,-93.9289,490.1026,366.3571,690.8079,-287.7448,-241.9240
29440.0000,-87.5328,478.0543,343.6317,676.0834,-304.8026,-240.2206
29460.0000,-135.2119,503.1011,350.3216,669.8688,-324.6812,-289.1292
29480.0000,-79.1719,505.8352,364.6631,693.1976,-284.6817,-240.0355
29500.0000,-120.5851,482.1630,354.3494,686.7585,-291.8065,-248.3952
29520.0000,-123.8304,499.8896,335.6745,655.2719,-295.4424,-282.8867
29540.0000,-118.8153,513.3245,357.3236,678.5688,-274.0365,-263.5774
29560.0000,-119.5829,507.8573,342.6972,670.4739,-304.4704,-287.5849
29580.0000,-123.2648,514.3260,341.2700,658.4999,-304.1661,-286.9438
29600.0000,-125.2773,532.7858,339.7293,655.4820,-310.3300,-312.4053
29620.0000,-93.5548,547.3870,365.2366,688.3574,-261.2752,-280.1538
29640.0000,-113.9864,563.5969,357.7633,664.6998,-257.2181,-314.3029
29660.0000,-121.8365,550.5120,336.1765,652.1565,-266.2813,-349.3733
29680.0000,-128.5669,566.6037,345.8570,653.7366,-246.0271,-354.0780
29700.0000,-92.1251,575.5609,354.1197,687.1492,-231.4801,-344.4450
29720.0000,-128.2489,561.5809,347.8903,658.8975,-249.9763,-387.7881
29740.0000,-111.4926,596.6116,352.0956,678.1762,-239.4697,-397.7460
29760.0000,-128.9635,559.6245,339.9310,668.9304,-260.7292,-418.6954
29780.0000,-125.6981,564.6204,330.0098,654.1187,-272.5805,-454.0905
29800.0000,-121.5921,590.4307,352.9834,677.8932,-260.6244,-463.4045
29820.0000,-127.0504,588.7430,342.9563,665.9891,-244.7979,-476.2818
29840.0000,-123.3540,578.3219,334.0001,661.9677,-241.5882,-501.3498
29860.0000,-129.4271,599.6689,333.8782,657.0661,-245.9476,-522.3047
29880.0000,-123.0514,596.3915,343.0842,662.8175,-209.5704,-521.0630
29900.0000,-125.7861,598.8479,334.8690,660.0391,-226.8854,-538.6181
29920.0000,-121.7295,631.2202,353.1066,669.8162,-208.4166,-530.0326
29940.0000,-120.8750,643.9586,356.8744,690.0327,-185.0244,-557.7120
29960.0000,-123.5412,647.1790,351.1586,687.8350,-191.3143,-581.8340
29980.0000,-108.2884,661.0116,367.7777,689.2225,-185.1028,-571.8726
30000.0000,-109.2131,662.2031,359.1867,688.8456,-178.2492,-598.7916
30020.0000,-122.4010,661.0800,358.7939,686.2950,-175.1846,-597.0237
30040.0000,-156.0028,634.0992,330.2062,653.7357,-220.3235,-646.6364
30060.0000,-123.6193,663.2644,356.8017,688.2772,-172.2600,-622.1285
30080.0000,-128.9051,676.9451,353.2036,678.7334,-182.1656,-645.6413
30100.0000,-151.7482,651.2943,347.7483,675.3876,-186.3685,-664.0471
30120.0000,-154.6313,655.9166,348.2195,671.6434,-186.1602,-661.5016
30140.0000,-121.8702,684.3381,367.7055,691.4026,-173.4403,-656.1447
30160.0000,-130.4661,684.8716,358.2178,684.5250,-182.0605,-661.4659
30180.0000,-144.1518,667.3959,345.7422,656.4243,-210.3289,-695.2307
30200.0000,-110.4722,683.9091,382.2397,694.4247,-177.9639,-659.5856
30220.0000,-149.2120,662.4593,357.7028,672.6570,-223.5789,-705.2916
30240.0000,-141.4709,668.8199,375.2646,692.4227,-194.9494,-708.4812
30260.0000,-130.2094,684.3911,369.7636,689.7512,-182.5305,-690.0596
30280.0000,-135.4098,683.9001,363.2085,689.3570,-207.8990,-713.6752
30300.0000,-126.3001,683.4504,366.7529,688.7752,-185.5406,-718.0693
30320.0000,-131.2491,689.8089,356.2284,687.1496,-182.9505,-734.7893
30340.0000,-135.2011,670.4623,352.7294,664.8398,-215.5935,-754.9554
30360.0000,-122.3512,709.8773,353.2121,669.0178,-180.7826,-748.6600
30380.0000,-103.2739,718.2883,377.7860,693.8166,-169.6420,-739.9003
30400.0000,-111.4206,712.9761,365.2544,691.0297,-175.8605,-741.9758
30420.0000,-139.0480,687.3703,353.7787,656.9280,-185.6397,-772.7773
30440.0000,-149.3893,684.0342,346.2173,660.9966,-187.7591,-790.0325
30460.0000,-125.0977,694.1481,351.8025,670.1625,-175.6623,-776.8755
30480.0000,-122.5492,689.0566,363.1711,688.9805,-179.8543,-784.0712
30500.0000,-127.8974,685.1152,360.7582,684.0341,-160.7906,-770.6615
30520.0000,-116.6627,697.1389,377.1917,687.8474,-152.7893,-773.2100
30540.0000,-115.7557,710.0262,363.7766,686.2147,-151.6634,-775.4347
30560.0000,-113.6927,718.2021,369.1800,684.8203,-144.6798,-775.4575
30580.0000,-122.6513,684.9508,355.7747,663.3235,-167.6494,-808.2576
30600.0000,-130.8251,697.3159,349.1984,655.6592,-165.7333,-810.4673
30620.0000,-95.5715,727.9895,371.7924,692.2703,-146.8060,-777.2230
30640.0000,-120.0145,722.4094,357.2010,668.5669,-153.5894,-808.7579
30660.0000,-126.4690,684.7562,351.8141,664.2666,-157.6768,-825.0034
30680.0000,-117.2859,682.4398,357.2121,673.6382,-159.7459,-820.8482
30700.0000,-121.1025,694.7877,361.8027,682.3544,-155.7810,-826.9401
30720.0000,-134.4666,681.5975,347.1332,658.5228,-163.5718,-849.0945
30740.0000,-120.0769,690.6760,350.7867,660.2948,-152.8004,-834.7108
30760.0000,-150.6098,674.8677,352.2160,660.6130,-164.6426,-840.1500
30780.0000,-124.8407,684.4474,345.7956,661.3964,-158.7422,-820.4919
30800.0000,-134.8729,660.8240,351.1755,662.4751,-167.6495,-831.4525
30820.0000,-126.4846,690.4761,353.8156,657.4172,-157.6503,-844.3859
30840.0000,-125.1517,692.9646,374.1523,681.5444,-152.7854,-816.6879
30860.0000,-127.2935,632.4143,373.8024,672.5623,-160.8032,-830.1442
30880.0000,-101.3520,567.8610,384.1209,694.4462,-151.7717,-803.7969
30900.0000,-125.2146,456.2519,374.8389,679.6155,-163.7493,-816.8564
30920.0000,-117.5238,421.0560,377.1307,686.3179,-160.7589,-811.9441
30940.0000,-135.9694,376.9918,367.7966,676.7007,-168.5833,-819.7003
30960.0000,-114.8569,356.9846,360.1463,667.3342,-153.8094,-805.1376
30980.0000,-102.6044,363.9782,381.8497,691.6486,-142.5430,-792.6015
31000.0000,-92.9219,331.0907,379.0649,681.2816,-135.9992,-786.3947
31020.0000,-115.4179,309.9681,364.9172,685.7817,-147.3534,-793.3295
31040.0000,-100.2083,291.9579,379.0263,683.0988,-151.0111,-783.5807
31060.0000,-98.1972,297.9475,385.9604,695.8600,-147.2448,-762.0024
31080.0000,-94.4300,278.9836,378.0455,685.9824,-155.1678,-757.8248
31100.0000,-96.9393,272.9611,379.9664,687.0283,-159.2688,-753.8516
31120.0000,-87.6191,266.9404,381.9723,689.9277,-162.3082,-740.9567
31140.0000,-95.6607,269.9258,381.0417,688.1990,-172.1167,-720.6526
31160.0000,-93.8723,244.9664,365.9080,666.8635,-168.4175,-730.1890
31180.0000,-88.3807,265.0414,387.0346,689.1636,-146.8495,-687.4655
31200.0000,-91.1962,253.8507,380.9340,680.7798,-178.5726,-686.4156
31220.0000,-94.1652,264.1662,386.1358,692.2570,-183.7396,-682.1155
31240.0000,-89.3492,241.7502,381.8262,681.5032,-195.7613,-667.6788
31260.0000,-99.1250,245.1608,384.1363,689.4226,-174.6187,-658.0519
31280.0000,-99.5098,238.5703,386.7462,694.3173,-191.0595,-626.9578
31300.0000,-53.7655,265.3153,415.2786,726.5274,-148.4607,-588.8454
31320.0000,-83.7661,278.5022,408.7069,717.3334,-159.1163,-582.0306
31340.0000,-91.6626,247.5427,382.3121,690.7809,-190.1893,-594.4593
31360.0000,-88.9426,279.2911,397.6057,704.2207,-164.4402,-563.3042
31380.0000,-98.5155,263.7125,376.3661,680.9391,-192.1108,-572.2691
31400.0000,-133.2506,258.1581,368.5115,680.0645,-197.6503,-577.5313
31420.0000,-106.1904,260.8033,380.4987,688.1035,-189.7599,-548.2033
31440.0000,-92.4322,292.1752,387.4512,725.8004,-164.8742,-518.5536
31460.0000,-127.9556,273.9454,371.5534,691.2415,-186.5441,-526.9467
31480.0000,-122.6545,262.7560,359.3768,678.6844,-197.0448,-510.7986
31500.0000,-133.7788,291.0946,387.6585,701.3831,-179.2925,-478.7989
31520.0000,-120.7787,277.6478,385.2808,710.6100,-183.2377,-474.0379
31540.0000,-127.5842,262.2841,374.7566,695.5922,-175.0039,-451.4702
31560.0000,-135.0380,265.4312,374.1654,721.2968,-176.4568,-446.1538
31580.0000,-124.5218,281.5674,381.9084,715.7074,-178.8164,-414.3404
31600.0000,-161.0912,268.2908,372.0913,686.3084,-183.7167,-415.4536
31620.0000,-142.3852,285.7647,375.9732,707.7656,-176.6794,-386.0980
31640.0000,-136.1804,281.0557,393.0078,714.0070,-180.9624,-381.4644
31660.0000,-145.1494,262.8431,389.0526,714.0570,-193.4901,-384.0782
31680.0000,-121.4007,281.8115,417.8920,748.9417,-150.3102,-321.7234
31700.0000,-159.1035,253.1266,393.0934,726.0735,-177.3101,-330.8463
31720.0000,-205.6041,234.7229,361.7804,703.7960,-216.5057,-366.7505
31740.0000,-179.9139,241.2706,388.1766,721.0778,-194.9970,-333.7671
31760.0000,-191.6302,227.4783,386.7600,707.7372,-212.6528,-340.8995
31780.0000,-204.8685,235.3080,398.2346,717.3458,-209.9208,-343.4766
31800.0000,-183.6444,239.3368,404.6852,713.6024,-199.8540,-316.9176
31820.0000,-205.8292,232.6229,392.3514,710.4052,-200.5916,-321.3915
31840.0000,-199.8704,246.2622,414.6170,722.6758,-191.9322,-298.9969
31860.0000,-215.7003,215.7978,409.3719,722.3766,-210.4214,-307.4987
31880.0000,-222.9322,220.1982,416.5380,726.6481,-206.1485,-277.0982
31900.0000,-210.6607,218.7472,418.4633,728.3787,-206.2223,-284.2614
31920.0000,-232.9263,194.8631,413.5721,725.5483,-220.3408,-286.2779
31940.0000,-239.6231,187.9595,419.4407,738.6042,-205.2500,-252.1796
31960.0000,-242.9060,173.7793,440.4905,742.5208,-224.5057,-261.2918
31980.0000,-258.6528,153.8727,442.5317,730.5453,-249.2002,-269.2151
32000.0000,-270.0516,146.8285,441.5198,749.5338,-249.5206,-265.2897
32020.0000,-280.5976,126.1282,442.5368,731.6050,-268.9021,-277.1521
32040.0000,-277.9288,118.6993,443.4983,734.4571,-264.5158,-257.3447
32060.0000,-286.6159,95.0666,447.5252,754.5349,-267.9733,-259.1434
32080.0000,-278.9546,65.6122,450.5641,747.4371,-262.6745,-239.3340
32100.0000,-303.6111,61.1634,447.5216,749.4223,-271.9440,-258.2052
32120.0000,-293.0103,55.6769,451.5218,744.4915,-279.7711,-262.2398
32140.0000,-294.7463,43.0345,459.4667,750.4406,-271.8982,-259.1650
32160.0000,-294.0053,30.6726,464.5446,753.6674,-261.7200,-268.2953
32180.0000,-298.7300,33.1416,475.4477,774.3977,-270.8024,-269.2624
32200.0000,-293.9558,17.4670,475.5952,779.6450,-272.8187,-279.2500
32220.0000,-310.7988,-6.7087,472.4019,764.3553,-286.7469,-301.3450
32240.0000,-323.9243,-9.1556,470.6450,761.6519,-276.8821,-312.1819
32260.0000,-331.7892,-28.6523,474.4215,749.2066,-294.8210,-313.3195
32280.0000,-321.7749,-33.1728,468.7230,756.8421,-276.8856,-309.0851
32300.0000,-303.9145,-44.7251,485.2917,781.2027,-269.7003,-298.4096
32320.0000,-305.7304,-73.2039,503.7439,784.9766,-264.7424,-311.1251
32340.0000,-310.0070,-96.8522,474.2990,750.1052,-287.7957,-322.5520
32360.0000,-318.4745,-93.1954,483.8372,785.9069,-270.9012,-312.9304
32380.0000,-328.1239,-121.8953,474.2334,747.0448,-296.7552,-321.4496
32400.0000,-326.4432,-109.1593,479.8680,764.9661,-294.7230,-321.9772
32420.0000,-315.1842,-122.9055,479.1455,775.8459,-278.6900,-317.5423
32440.0000,-333.3682,-131.9588,477.0161,763.1473,-313.8429,-324.9446
32460.0000,-345.3288,-136.8752,473.0531,769.8122,-293.8303,-332.5749
32480.0000,-350.2405,-128.8238,461.0743,746.2322,-309.7730,-332.8386
32500.0000,-341.5071,-118.0882,457.9999,751.6713,-306.8370,-310.6355
32520.0000,-352.2055,-132.7624,457.0912,741.1998,-318.6904,-331.6300
32540.0000,-331.6694,-116.9588,471.8765,766.6882,-279.8137,-293.8253
32560.0000,-310.0558,-110.7532,491.1602,783.3326,-263.7373,-270.7830
32580.0000,-312.7192,-75.0369,501.8501,773.6253,-267.9138,-279.8244
32600.0000,-299.7916,-94.6374,477.2874,763.4354,-289.6797,-270.7444
32620.0000,-302.8854,-90.1866,504.7871,779.5016,-273.9040,-254.8273
32640.0000,-307.7658,-85.5994,495.3542,753.5227,-298.5921,-261.6021
32660.0000,-300.9177,-68.3277,496.7080,769.4451,-292.8748,-237.7634
32680.0000,-306.6312,-76.5607,493.4323,750.6080,-300.6920,-245.6887
32700.0000,-281.9612,-52.3623,499.6559,782.3394,-275.0203,-209.7020
32720.0000,-289.5450,-41.3592,500.4673,779.5683,-272.5535,-212.7077
32740.0000,-290.1296,-39.2270,496.5832,776.3337,-273.9848,-219.7528
32760.0000,-277.4518,-2.3978,503.5302,784.7107,-269.5575,-185.5997
32780.0000,-274.2548,-4.3866,498.5189,759.2974,-292.0882,-204.7506
32800.0000,-279.4500,-5.1712,500.5551,764.7711,-286.5742,-182.6017
32820.0000,-266.2476,6.4149,500.4581,757.3527,-305.9338,-185.7635
32840.0000,-267.3673,2.4416,506.6203,775.8573,-283.5739,-159.7243
32860.0000,-267.3415,1.4129,468.3907,749.2377,-311.0738,-175.6654
32880.0000,-267.3022,27.7179,483.5835,757.8304,-289.5010,-160.7149
32900.0000,-260.3454,-4.5168,472.4119,745.1768,-315.1290,-156.6474
32920.0000,-247.1549,25.6512,469.6617,743.8282,-311.4147,-128.7494
32940.0000,-247.3416,31.2804,486.4207,768.1016,-280.0215,-114.4692
32960.0000,-240.2784,18.6136,483.6168,764.8697,-295.4340,-123.9362
32980.0000,-257.3291,52.2348,498.3734,771.2766,-290.0480,-85.3846
33000.0000,-252.0378,42.6873,476.6479,749.7895,-297.5408,-123.0950
33020.0000,-261.4950,60.2347,473.4139,746.2062,-308.1458,-91.3633
33040.0000,-235.0272,91.7428,474.6615,749.7881,-292.4244,-80.1677
33060.0000,-246.3939,86.1449,475.4016,747.2716,-304.1059,-88.2213
33080.0000,-246.1850,86.8223,472.6770,743.8425,-307.5223,-87.2883
33100.0000,-245.5899,95.0831,472.3934,749.1785,-303.0616,-85.0815
33120.0000,-238.1060,89.8941,469.6418,743.8249,-310.4937,-70.3385
33140.0000,-239.5738,91.0687,466.3926,734.1035,-305.2047,-58.0723
33160.0000,-233.1384,119.8473,470.5620,744.8882,-297.4810,-65.5457
33180.0000,-179.4888,155.1734,485.4441,760.2333,-265.2064,-22.8793
33200.0000,-220.1069,155.9315,470.5309,742.7606,-293.4029,-39.4630
33220.0000,-208.4688,168.1324,474.4595,736.2288,-292.2747,-34.7032
33240.0000,-200.0276,177.8633,480.4853,747.8547,-275.2778,-7.7578
33260.0000,-190.4378,188.1469,472.5120,744.0869,-280.1702,-7.7161
33280.0000,-202.1127,182.8255,466.4965,745.7413,-277.3800,-10.6649
33300.0000,-186.4822,211.2352,470.5769,750.2394,-270.1929,9.2129
33320.0000,-180.1825,230.9290,477.4688,745.7481,-269.2508,22.9324
33340.0000,-187.2854,231.0300,469.5872,741.0887,-281.2991,4.3783
33360.0000,-179.1870,229.9883,476.3809,741.7154,-279.2321,21.8981
33380.0000,-185.3721,253.1868,469.6459,742.1415,-274.3045,10.3047
33400.0000,-193.2954,258.9947,447.3246,716.8834,-290.2498,20.6743
33420.0000,-184.3073,251.0466,440.6839,712.1566,-307.3571,4.5076
33440.0000,-179.2529,272.9149,440.2900,716.9090,-297.2276,26.7007
33460.0000,-187.1645,284.0370,440.7381,715.0980,-293.3565,31.4469
33480.0000,-174.3220,288.0112,441.1875,720.9886,-289.0809,28.7750
33500.0000,-201.2011,288.0353,436.8324,699.9701,-295.5398,25.3873
33520.0000,-181.4148,276.9310,420.1276,690.8663,-307.1288,26.6478
33540.0000,-192.2411,269.1747,420.8756,688.0270,-309.4201,33.5856
33560.0000,-196.3765,300.0345,413.0989,686.0305,-284.9376,27.5811
33580.0000,-191.1680,284.0103,399.9205,663.9558,-306.5001,27.4843
33600.0000,-182.3240,317.0278,412.0240,676.9640,-283.8065,53.8129
33620.0000,-161.0951,338.2032,415.9748,685.7680,-267.6057,69.3014
33640.0000,-170.3680,325.0341,417.9942,686.1614,-303.7697,61.8003
33660.0000,-185.0703,307.0803,384.9433,657.8619,-307.6771,57.3144
33680.0000,-181.5938,329.0517,406.9323,686.2377,-272.8463,92.7452
33700.0000,-180.0542,341.0174,396.0083,682.6466,-293.6664,71.2766
33720.0000,-176.4605,332.1323,383.9041,661.2531,-294.7274,81.8324
33740.0000,-158.8824,345.9577,394.0711,672.5664,-279.6595,91.2992
33760.0000,-162.6291,357.1326,377.8353,653.2742,-304.6885,78.8861
33780.0000,-157.8067,380.1166,406.0793,670.5591,-273.7415,97.0354
33800.0000,-155.6228,367.0468,397.8586,672.4976,-272.7144,91.1755
33820.0000,-156.9452,384.1096,396.1214,677.4630,-259.7307,104.8512
33840.0000,-149.6483,383.0902,395.7686,680.6855,-263.5186,115.1858
33860.0000,-143.8637,392.1104,396.1449,678.2013,-273.8134,116.8617
33880.0000,-161.6901,394.1773,380.7703,661.6738,-275.6208,105.5242
33900.0000,-157.7170,386.9130,384.1913,660.2410,-274.9083,103.5999
33920.0000,-152.8052,417.0396,387.7296,660.7251,-271.5586,118.5620
33940.0000,-147.7556,409.0651,377.1486,655.0301,-277.9152,114.4152
33960.0000,-164.8340,411.1543,376.7886,654.8955,-294.5318,90.6773
33980.0000,-174.6790,405.0477,353.2215,640.8823,-300.9343,98.3169
34000.0000,-183.6896,397.0186,349.7498,635.0402,-328.5748,85.0260
34020.0000,-203.8891,412.1236,344.1884,631.8467,-336.9369,63.0332
34040.0000,-203.7736,410.2211,333.7446,631.1152,-332.5953,88.2678
34060.0000,-217.7692,392.0847,321.1940,623.6661,-338.0210,63.7683
34080.0000,-214.7424,408.0981,352.7778,654.1705,-315.5454,76.3118
34100.0000,-222.7625,413.0685,342.1885,626.5271,-362.0982,36.6622
34120.0000,-234.8038,391.1284,323.7854,622.4196,-371.5089,32.5538
34140.0000,-234.8056,402.9321,332.1911,631.5195,-354.0240,36.4518
34160.0000,-230.6271,383.1056,329.8230,626.5604,-391.5132,24.8136
34180.0000,-216.8315,382.8900,349.1360,658.4009,-381.0636,38.1013
34200.0000,-236.5787,368.0280,333.8000,622.6224,-424.5008,-6.7728
34220.0000,-239.0607,378.8730,350.1490,650.2338,-425.1516,-2.8241
34240.0000,-231.5477,372.0363,353.7893,657.7652,-436.4233,-8.4324
34260.0000,-260.0625,355.9923,343.0584,649.2964,-447.0923,-32.0432
34280.0000,-240.5796,371.0984,375.8592,663.7947,-435.5610,-18.2803
34300.0000,-252.0793,357.8737,358.0877,656.2260,-456.0483,-25.2470
34320.0000,-266.3687,331.0260,362.8918,651.7640,-478.5466,-58.0543
34340.0000,-268.3424,316.8498,383.0266,666.9930,-498.2086,-60.5483
34360.0000,-244.3085,331.0369,412.9335,691.9869,-472.3591,-42.8805
34380.0000,-281.3143,301.9731,386.0010,657.9959,-514.2082,-69.6582
34400.0000,-290.1732,305.1130,392.9912,665.0528,-495.5536,-79.6332
34420.0000,-264.4556,303.8343,409.9920,688.9725,-467.1755,-60.9671
34440.0000,-298.1139,272.1297,390.9607,672.9561,-505.5397,-93.4756
34460.0000,-284.6960,278.8251,415.9850,694.8948,-491.2431,-69.1142
34480.0000,-291.9523,238.2124,413.0342,685.9482,-513.3953,-96.3269
34500.0000,-290.8755,194.8618,423.9529,685.9395,-532.1498,-95.2763
34520.0000,-320.7860,190.1669,436.0521,709.1233,-498.4690,-91.2325
34540.0000,-334.9506,170.7704,428.9265,690.8239,-536.2176,-112.5319
34560.0000,-363.4859,141.1724,418.0909,687.0385,-542.2938,-135.0246
34580.0000,-390.2361,108.7269,416.8367,690.8109,-535.4122,-132.6020
34600.0000,-381.3278,94.3179,430.1862,702.9810,-530.3245,-133.9214
34620.0000,-384.4225,99.6977,446.8315,718.8408,-519.3024,-116.8842
34640.0000,-393.1465,53.3798,428.1701,693.0078,-531.3263,-123.6826
34660.0000,-422.5114,35.4916,441.7949,710.9797,-556.4023,-134.1373
34680.0000,-420.0913,27.3106,442.2531,716.1664,-563.1967,-132.3947
34700.0000,-443.8304,-4.4540,443.7230,720.9661,-565.6282,-141.1014
34720.0000,-424.8804,2.4123,456.3290,725.0771,-572.0637,-115.3895
34740.0000,-442.9855,-24.5914,448.6725,717.7968,-572.5176,-127.4682
34760.0000,-410.5958,-24.1158,464.3875,728.0433,-569.0027,-115.2253
34780.0000,-415.2212,-22.5882,477.6248,749.8860,-561.7455,-102.6043
34800.0000,-413.5110,-33.1791,475.3824,752.0426,-559.9686,-86.9967
34820.0000,-418.3040,-29.7959,498.5730,756.9169,-565.8847,-83.5891
34840.0000,-450.1992,-52.8579,473.4612,752.0240,-573.9281,-98.7711
34860.0000,-438.5844,-66.9594,475.5250,748.8574,-599.8402,-99.8834
34880.0000,-445.0572,-61.9120,485.5762,750.9401,-593.8423,-100.7383
34900.0000,-454.7023,-68.0495,467.4566,745.0590,-593.9824,-119.9039
34920.0000,-437.0202,-32.7640,484.6076,754.1093,-592.6714,-94.5241
34940.0000,-428.9732,-36.1589,497.3482,756.9720,-567.0582,-98.0546
34960.0000,-431.6975,-31.4257,492.6829,748.9868,-593.6290,-96.4967
34980.0000,-445.0645,-56.3707,475.3207,744.0264,-600.1776,-130.2325
35000.0000,-424.7341,-40.2175,496.7168,761.0848,-596.4904,-97.3151
35020.0000,-413.0788,-41.4538,486.2710,757.0074,-584.3287,-90.3476
35040.0000,-437.4572,-35.0930,482.8456,755.9747,-598.2806,-107.2596
35060.0000,-423.3314,-28.6680,491.1904,754.0449,-589.5609,-106.5872
35080.0000,-428.4500,-0.9655,481.9008,751.9360,-580.2723,-116.0477
35100.0000,-398.3632,2.7239,507.1158,768.0722,-566.6949,-88.6806
35120.0000,-401.4442,0.1687,501.0114,768.9273,-560.1306,-89.0556
35140.0000,-416.4532,-0.3064,471.9826,742.9949,-596.6375,-115.6768
35160.0000,-426.2491,-2.4686,489.0506,760.0074,-582.9911,-113.9938
35180.0000,-393.4990,30.3905,466.9000,733.0102,-578.8909,-97.7497
35200.0000,-424.3510,23.4158,469.1771,720.9302,-595.8301,-126.7785
35220.0000,-390.4235,59.1987,469.8270,724.0800,-590.9547,-117.9376
35240.0000,-387.2468,64.6141,478.3084,739.0016,-565.6894,-108.7002
35260.0000,-401.4121,66.0944,449.6819,717.9116,-597.0413,-125.9487
35280.0000,-386.2174,105.8059,469.3561,719.8907,-572.5848,-124.7904
35300.0000,-331.3962,202.8663,475.5919,752.9526,-537.3543,-62.8426
35320.0000,-345.2334,194.8572,476.4145,753.0499,-531.3547,-60.6640
35340.0000,-339.4364,217.7779,473.5334,751.0301,-536.4231,-65.9115
35360.0000,-338.2296,214.1183,458.5072,727.9944,-556.3500,-84.7331
35380.0000,-330.4758,215.7250,469.4910,735.9307,-548.4653,-69.8896
35400.0000,-335.3934,224.4124,447.5796,719.9461,-562.1846,-93.6109
35420.0000,-324.3952,255.4168,470.3518,732.9351,-558.5988,-62.8654
35440.0000,-302.3427,290.5481,441.7135,715.0761,-559.0829,-66.7105
35460.0000,-319.1256,291.3484,451.3374,723.9895,-537.8511,-64.0162
35480.0000,-306.5808,313.5459,443.7606,726.1393,-550.8894,-59.7212
35500.0000,-315.0806,315.2747,433.2013,700.8141,-567.9773,-86.9007
35520.0000,-311.6736,326.6152,419.8036,685.1500,-578.8904,-79.6536
35540.0000,-320.9583,345.1140,417.1331,684.8742,-568.9167,-85.9056
35560.0000,-293.7846,381.8573,437.8402,699.1739,-562.6310,-66.8500
35580.0000,-289.7485,420.0107,437.1580,705.9163,-527.0540,-64.7769
35600.0000,-276.9500,441.7816,416.8606,705.1139,-513.5892,-59.9169
35620.0000,-291.6649,435.0479,419.1546,685.9608,-510.0862,-65.6188
35640.0000,-273.9950,467.9818,409.8980,692.1331,-504.5840,-56.0301
35660.0000,-276.5813,479.1053,405.1264,685.9894,-507.1613,-57.5570
35680.0000,-240.1951,481.9099,417.8990,708.0402,-467.4820,-36.0137
35700.0000,-250.3083,476.0311,391.1135,684.9685,-509.1135,-47.3620
35720.0000,-256.3161,509.0047,417.8791,695.8864,-471.4893,-52.0451
35740.0000,-243.0819,504.1016,409.1407,693.9421,-485.3012,-49.3236
35760.0000,-242.6256,501.8947,411.7986,689.8719,-478.4977,-59.2059
35780.0000,-239.9959,502.0133,392.2350,669.1445,-496.1724,-61.0985
35800.0000,-234.7322,506.7958,385.7484,661.7648,-500.4047,-64.4983
35820.0000,-213.6989,528.2340,414.3407,685.1526,-475.3235,-54.8668
35840.0000,-222.9220,533.8363,402.7132,683.7756,-504.4399,-56.7005
35860.0000,-219.5049,521.2495,413.3928,689.2787,-498.3089,-60.7921
35880.0000,-217.1094,531.6149,393.5744,662.6411,-502.5288,-59.6659
35900.0000,-210.4010,534.3213,394.4754,660.2802,-484.2347,-65.5339
35920.0000,-186.4550,534.5578,406.4507,673.5641,-471.4802,-58.9041
35940.0000,-189.0644,558.4966,411.6487,691.4267,-448.2257,-44.5416
35960.0000,-178.5849,541.4800,412.3334,687.4525,-455.5523,-42.0081
35980.0000,-176.8508,567.6047,412.7413,692.6275,-451.1652,-62.3916
36000.0000,-186.8551,533.3187,396.1692,675.1962,-481.5618,-73.2792
36020.0000,-143.7238,554.8098,417.8875,685.7651,-465.1644,-41.1772
36040.0000,-142.9251,560.0331,433.0247,702.0233,-439.6659,-33.4438
36060.0000,-89.4677,599.0709,446.1188,725.8721,-409.9720,-15.0578
36080.0000,-127.1557,599.9380,423.8195,705.0458,-427.5817,-36.6336
36100.0000,-119.3290,595.2472,416.2365,709.0360,-415.8909,-29.8892
36120.0000,-123.3990,563.6844,409.6055,684.6803,-450.6313,-32.7931
36140.0000,-116.2575,591.4378,412.4557,695.1913,-427.9688,-22.7368
36160.0000,-88.3559,597.6810,413.4634,703.6216,-412.7918,-6.7127
36180.0000,-76.9364,603.6720,426.5936,722.5806,-394.9030,5.2324
36200.0000,-99.7039,602.4272,395.2732,679.4105,-420.7435,-11.9788
36220.0000,-97.8944,630.7632,411.8141,690.6974,-408.6711,-1.4300
36240.0000,-65.6698,627.2202,414.1092,703.2271,-375.8815,9.6858
36260.0000,-61.6977,622.0244,408.9960,708.9547,-378.8040,30.4837
36280.0000,-35.9995,630.0768,417.8611,724.0538,-341.8840,46.5500
