t,AF3,F7,F3,F4,F8,AF7
0.0000,-89.5079,650.4855,480.7426,578.0955,-402.3085,-0.2087
20.0000,-127.3953,623.5461,444.2278,553.8296,-413.4477,-21.6226
40.0000,-92.4164,613.4434,466.7771,555.1014,-387.3042,-6.0753
60.0000,-97.4967,609.4136,472.2266,580.8033,-391.4835,0.0505
80.0000,-108.2174,625.5967,456.7947,564.1901,-382.3150,-0.8863
100.0000,-115.6747,627.4905,464.1696,586.7191,-389.5247,-1.0527
120.0000,-95.0706,625.6334,473.8453,597.2695,-364.2854,32.1620
140.0000,-104.8377,651.3712,448.1117,589.6532,-333.4757,25.7178
160.0000,-83.9069,657.5833,478.9375,614.3578,-321.1591,49.4116
180.0000,-83.9792,665.4286,476.0082,610.5606,-318.5371,61.5414
200.0000,-113.7555,631.7200,449.9979,573.4003,-383.1326,12.5565
220.0000,-90.1897,661.2234,474.9287,586.4812,-347.6684,36.3334
240.0000,-82.5434,644.7352,473.0926,629.4990,-307.0677,68.7982
260.0000,-152.3732,613.1375,429.8452,584.3962,-371.8437,20.1007
280.0000,-97.3572,667.9155,488.2070,629.5912,-302.8579,76.0481
300.0000,-95.5345,656.0728,465.7265,626.2986,-318.8733,73.8977
320.0000,-129.1965,620.9990,431.3173,586.6910,-376.8014,25.2099
340.0000,-101.7627,633.0416,457.6010,626.1946,-318.0398,74.7170
360.0000,-82.9608,672.1077,477.4587,644.8026,-279.5753,102.3766
380.0000,-142.9784,593.8901,413.4733,617.1005,-336.2190,44.5078
400.0000,-153.8051,610.0961,437.5887,635.9258,-301.3596,26.6144
420.0000,-90.1490,635.7992,485.3603,690.0295,-266.4045,86.3938
440.0000,-128.6350,598.2447,431.7089,634.0274,-306.2379,37.7039
460.0000,-137.3022,562.5773,430.2041,626.8833,-324.6958,29.1637
480.0000,-150.4405,563.3292,415.8412,651.1274,-303.9306,25.9062
500.0000,-111.4577,597.5040,449.0679,652.8227,-272.9047,56.0819
520.0000,-107.2629,604.4911,461.9941,685.2089,-270.8058,65.0325
540.0000,-127.6127,591.3905,441.9352,670.7452,-261.0708,43.9284
560.0000,-115.1746,607.6181,445.1205,686.2875,-244.5305,67.1797
580.0000,-122.7875,591.2550,443.8363,670.6534,-277.3136,36.7784
600.0000,-150.0336,565.7324,420.2080,651.3979,-296.3018,-1.6327
620.0000,-158.8737,557.0504,411.6803,650.5825,-296.5262,-5.1434
640.0000,-127.9706,574.0123,446.3464,686.4412,-252.0180,43.2394
660.0000,-87.9032,579.0042,477.6244,724.5475,-228.7266,66.6868
680.0000,-126.9074,570.1656,440.4246,693.5106,-248.8316,43.2566
700.0000,-125.9479,566.9053,428.5343,688.4942,-246.9299,26.6591
720.0000,-143.8999,537.2408,416.4973,684.5305,-253.6988,27.3337
740.0000,-123.0151,542.6848,440.4482,692.4617,-265.1218,52.7130
760.0000,-129.8929,542.3542,438.5768,689.5851,-272.4996,28.2155
780.0000,-123.0016,544.5560,448.3926,706.4561,-264.3090,62.7676
800.0000,-103.9194,560.4241,474.6134,727.6041,-249.2439,62.2448
820.0000,-113.9064,567.5282,454.3668,721.4295,-260.5039,59.8892
840.0000,-133.9404,532.6183,432.6311,684.5609,-279.1174,23.0493
860.0000,-134.8730,532.3624,441.3384,714.4585,-276.6640,21.0068
880.0000,-99.0545,542.6846,454.6482,744.5817,-254.0249,71.0029
900.0000,-138.7189,521.3047,436.3610,693.4900,-297.7702,29.1102
920.0000,-142.1915,512.7130,431.6335,697.5178,-298.8410,31.8574
940.0000,-125.5843,531.1954,445.3800,705.5576,-278.8770,43.2637
960.0000,-159.3662,494.8375,414.5978,682.4440,-308.8024,26.6683
980.0000,-148.4720,503.0589,419.4026,723.6459,-266.9067,63.4801
1000.0000,-156.5245,501.8680,413.5469,686.3559,-301.6785,37.3799
1020.0000,-166.2347,467.9681,374.4853,650.7250,-322.9244,27.6778
1040.0000,-178.6933,472.8443,385.4586,673.2859,-312.6775,24.1944
1060.0000,-136.0057,506.9788,417.5570,693.8290,-261.9996,54.9671
1080.0000,-147.8912,476.0103,414.3838,678.1558,-316.6514,30.9824
1100.0000,-152.8014,482.0421,408.6528,682.9346,-300.9578,43.1801
1120.0000,-126.1547,504.9176,425.2648,693.0289,-306.7469,66.6422
1140.0000,-151.5463,454.9773,401.7699,682.0840,-305.8850,58.4624
1160.0000,-187.4491,460.8879,381.1583,653.8837,-334.7204,37.3812
1180.0000,-160.3429,507.9944,405.9099,659.2340,-311.8985,41.8007
1200.0000,-152.6652,484.9352,393.0057,660.7159,-300.7823,60.1590
1220.0000,-181.0457,467.0166,386.0315,661.3934,-328.8158,48.1198
1240.0000,-157.9667,469.7583,392.8576,667.5380,-300.8813,64.8623
1260.0000,-163.7399,469.0775,401.1972,667.5952,-313.6884,60.3641
1280.0000,-187.2667,467.6831,375.7007,657.3803,-322.0918,28.5276
1300.0000,-173.5197,470.1563,402.3502,681.7419,-324.6113,45.6468
1320.0000,-153.4940,484.7049,401.5336,688.2238,-303.2355,66.2049
1340.0000,-172.2456,460.2878,381.5311,658.9156,-309.4509,29.9148
1360.0000,-171.7882,472.4747,383.3784,668.0547,-304.3683,44.8886
1380.0000,-159.9875,474.5219,384.6765,657.0850,-312.2891,48.2670
1400.0000,-182.0355,465.3730,384.2107,651.8701,-320.5368,29.5929
1420.0000,-208.7196,442.5879,352.8357,624.2401,-362.1502,7.5079
1440.0000,-187.3106,444.3047,375.0428,636.6909,-348.6361,23.4101
1460.0000,-189.4552,471.6239,378.9906,662.4092,-317.9325,21.7416
1480.0000,-158.5161,488.1932,397.9039,670.5551,-302.7588,62.1580
1500.0000,-154.2521,511.7994,406.1704,693.5717,-289.8408,68.0199
1520.0000,-179.7030,473.9205,377.7335,665.3896,-318.9297,44.8782
1540.0000,-203.0338,465.9373,364.2780,645.6766,-325.6733,33.2297
1560.0000,-156.9161,492.8646,407.6116,684.2689,-296.1263,70.6938
1580.0000,-182.8852,481.2191,382.4366,647.7802,-325.5275,32.4033
1600.0000,-203.1324,472.6010,368.4774,668.1927,-319.2399,25.4893
1620.0000,-172.6603,482.3833,386.5374,691.9058,-292.3708,56.5679
1640.0000,-189.2750,468.4451,372.3845,683.0847,-300.3952,45.3325
1660.0000,-184.5957,470.4214,368.6451,676.9581,-303.1702,28.7485
1680.0000,-188.3872,471.2698,375.2767,657.0397,-328.5677,20.1883
1700.0000,-150.4375,501.6459,414.7565,709.0289,-301.0536,60.9307
1720.0000,-156.4615,481.2446,399.2027,693.0197,-290.7170,56.1006
1740.0000,-186.3304,469.7523,368.7942,670.0267,-307.0084,30.0028
1760.0000,-173.5585,478.0890,400.1525,701.0052,-298.7833,27.9278
1780.0000,-148.2665,469.9086,410.8440,723.9993,-280.8410,68.0640
1800.0000,-172.6119,474.9334,385.0946,684.0056,-300.8870,18.8606
1820.0000,-198.2881,449.1290,354.8765,665.9644,-320.7283,-0.7818
1840.0000,-147.6497,486.7392,408.0665,716.0494,-293.0306,39.8372
1860.0000,-138.2251,508.2528,421.8955,718.9313,-288.7358,45.1862
1880.0000,-160.6336,465.5161,397.0858,712.1418,-289.1074,26.8759
1900.0000,-142.2750,508.3721,437.9171,724.8649,-275.6564,43.1410
1920.0000,-126.5600,509.4213,414.1044,718.2149,-306.1727,51.8845
1940.0000,-147.2530,482.5779,417.8705,717.7373,-308.6104,39.1525
1960.0000,-148.5776,498.3305,406.1279,737.3248,-290.2243,49.8556
1980.0000,-154.3501,481.6919,398.8350,721.6063,-293.5486,36.1580
2000.0000,-155.4702,508.2044,409.1843,746.4897,-271.2593,56.9581
2020.0000,-153.4255,493.7375,416.7592,737.4653,-298.4938,37.0174
2040.0000,-120.4123,504.1273,446.2773,773.6284,-266.2315,72.9316
2060.0000,-141.5034,482.8647,412.6732,741.3016,-292.4854,56.0515
2080.0000,-157.2996,492.0997,406.3589,720.7747,-292.3245,44.0236
2100.0000,-133.5803,535.9050,411.5591,720.1114,-309.4673,46.8681
2120.0000,-125.1484,537.0872,435.4995,756.9717,-273.3643,71.1698
2140.0000,-147.6962,509.8715,422.4692,768.9576,-276.4076,88.8411
2160.0000,-157.0723,487.0424,408.5867,752.1411,-273.4196,62.2685
2180.0000,-155.8733,508.8858,394.3110,714.7604,-284.3326,59.7474
2200.0000,-175.9797,495.0065,392.7146,696.3004,-353.3839,20.3139
2220.0000,-177.9796,500.9221,387.1676,713.5814,-333.3304,25.6484
2240.0000,-146.8335,487.0302,405.8754,749.4945,-305.5107,65.4339
2260.0000,-184.1498,472.8309,379.0101,713.4026,-335.2713,30.5415
2280.0000,-183.6898,501.0092,382.0262,695.6525,-351.4862,26.5605
2300.0000,-171.2589,503.8814,385.8789,705.2578,-363.2569,17.3755
2320.0000,-187.5985,508.0216,375.1601,679.7853,-385.5742,-4.2757
2340.0000,-180.3689,501.8360,394.7253,718.0850,-336.1502,28.2891
2360.0000,-175.4750,505.0813,382.3203,689.9423,-368.6263,29.7268
2380.0000,-175.4713,505.7580,386.5680,695.9528,-376.1698,10.2143
2400.0000,-189.3571,507.1519,385.4592,664.0331,-409.7784,-4.0517
2420.0000,-186.6505,502.6909,376.4217,663.8202,-388.1391,4.0689
2440.0000,-184.2119,495.2752,386.6088,660.1421,-415.8030,3.0130
2460.0000,-186.7614,467.5466,384.2733,661.7324,-412.0193,2.9270
2480.0000,-186.1249,480.4177,383.7550,660.2005,-414.9107,1.0735
2500.0000,-158.8476,504.4862,412.1284,662.6697,-410.9418,5.7821
2520.0000,-171.0117,533.5300,396.9111,656.2668,-410.0178,4.1475
2540.0000,-157.9277,534.4399,408.0136,648.6560,-411.8409,2.7320
2560.0000,-152.9106,537.6377,416.0240,654.2830,-408.1228,5.2599
2580.0000,-186.0076,497.2773,385.8837,624.6272,-439.7939,-14.2050
2600.0000,-181.8555,490.7614,393.1306,626.2451,-449.1831,-9.5464
2620.0000,-172.0732,508.0912,402.7714,630.6712,-445.6770,4.5786
2640.0000,-198.8078,500.8813,362.2303,591.2041,-475.3168,-38.4312
2660.0000,-198.1299,506.9472,366.6863,594.6996,-468.5704,-30.4359
2680.0000,-223.7566,478.1105,342.3309,555.1293,-495.3776,-71.3070
2700.0000,-258.1389,440.8547,310.6067,529.7654,-537.4913,-108.6078
2720.0000,-240.7480,440.2190,334.3958,541.0397,-510.4735,-94.2954
2740.0000,-210.2052,476.7258,348.5443,563.8812,-504.4200,-78.6957
2760.0000,-206.6691,500.3714,368.4584,564.9248,-528.5249,-74.1941
2780.0000,-186.2289,502.4780,372.5047,589.0162,-503.3579,-56.7195
2800.0000,-200.6980,480.5920,343.4811,555.7349,-510.6089,-61.0623
2820.0000,-244.2063,443.3531,316.4353,533.1710,-559.3869,-99.7733
2840.0000,-232.6298,453.6898,340.5042,543.6077,-540.5561,-93.0159
2860.0000,-209.2417,475.2251,352.4312,544.3619,-564.3185,-83.9281
2880.0000,-226.6761,436.9184,337.5248,537.3856,-559.7100,-93.9772
2900.0000,-213.2414,455.9778,349.4513,542.5673,-559.3172,-83.9927
2920.0000,-249.6711,441.0663,319.5223,516.1741,-565.6931,-95.8508
2940.0000,-223.2232,473.9232,334.4438,525.7697,-557.3112,-89.0620
2960.0000,-231.6365,471.1316,331.5084,538.0026,-526.7155,-58.8243
2980.0000,-227.2572,469.5998,349.4528,544.9766,-526.3018,-54.1300
3000.0000,-216.6271,465.3204,340.4875,557.7856,-532.6591,-58.7640
3020.0000,-230.1797,455.5091,333.4916,531.2098,-564.2906,-68.1551
3040.0000,-220.6593,455.4908,348.4547,553.5257,-529.6518,-60.6590
3060.0000,-213.2190,468.3230,353.5251,571.4598,-525.3463,-30.1227
3080.0000,-212.6851,465.5985,335.4306,556.3278,-513.5931,-37.6370
3100.0000,-222.1870,473.3529,370.5807,571.6954,-508.3767,-61.2035
3120.0000,-176.6310,508.7602,372.3681,567.0927,-500.4971,-17.5830
3140.0000,-211.1965,473.2169,348.6426,556.8875,-497.4247,-36.2410
3160.0000,-198.6932,510.8651,350.3345,574.8979,-469.3813,-22.5655
3180.0000,-212.1870,504.0260,350.6958,567.1255,-478.5110,-28.2949
3200.0000,-209.6846,512.9543,349.2826,566.6735,-483.3021,-28.5650
3220.0000,-202.1233,511.9187,346.7441,570.3300,-469.5558,-21.2696
3240.0000,-182.6822,509.0399,363.1920,597.4921,-435.1668,4.4130
3260.0000,-184.1740,497.8929,344.8098,590.5201,-449.6899,-7.2959
3280.0000,-206.6543,496.1464,350.1655,599.3143,-435.0434,1.3599
3300.0000,-210.1999,499.8327,348.8741,600.7000,-416.8004,-1.2799
3320.0000,-189.6132,509.1505,354.0978,629.1825,-401.8974,5.3355
3340.0000,-214.2365,501.7986,349.9263,605.8477,-411.9634,-14.3269
3360.0000,-174.6576,555.1776,373.0638,608.0035,-417.7654,-1.5305
3380.0000,-166.2168,546.8055,352.9527,601.9683,-393.1192,16.6181
3400.0000,-192.5852,527.2766,390.0266,630.9302,-413.6473,-6.5609
3420.0000,-176.2153,531.8704,358.0239,627.0810,-381.2191,39.6386
3440.0000,-193.5704,529.2390,352.9533,616.8094,-413.5089,-1.6155
3460.0000,-169.2776,575.9379,378.0513,645.1748,-353.3193,39.6914
3480.0000,-194.5389,538.1630,350.9305,623.7234,-374.3865,16.1912
3500.0000,-169.2950,569.0309,382.1187,667.2567,-339.5362,39.7765
3520.0000,-184.5403,530.1028,360.8771,653.6747,-370.1620,13.1397
3540.0000,-206.3246,529.0643,356.1078,634.3214,-367.6199,-5.9795
3560.0000,-182.4978,535.0056,359.8583,657.6293,-353.0208,3.0537
3580.0000,-194.3595,534.1416,362.1360,652.3590,-386.7514,-6.8836
3600.0000,-176.4382,547.8419,386.8399,689.6306,-344.9212,11.9324
3620.0000,-183.3951,554.2119,380.1449,684.3563,-366.8964,3.1504
3640.0000,-185.4667,533.7391,382.8398,677.5927,-354.8583,-0.1507
3660.0000,-180.3981,565.3336,383.1882,689.3967,-349.0096,-3.6407
3680.0000,-186.4502,564.4725,367.8131,671.5940,-351.6685,-25.2099
3700.0000,-184.4439,561.5171,366.1993,666.3578,-342.1496,-18.4906
3720.0000,-185.4346,568.2758,366.8009,688.6071,-322.6459,0.4517
3740.0000,-198.4632,565.6899,354.1920,668.3375,-352.1858,-16.2934
3760.0000,-199.4301,570.2429,364.8018,680.6137,-349.5026,-8.5933
3780.0000,-183.4693,558.8957,375.2106,696.3293,-317.2580,1.7414
3800.0000,-190.3640,559.9045,376.7839,714.6666,-338.5028,-2.7520
3820.0000,-157.4770,596.1581,409.2108,752.2946,-289.3946,37.9421
3840.0000,-156.3739,600.7341,403.7858,749.7344,-277.3750,30.9689
3860.0000,-173.4969,580.4214,390.2220,739.2400,-332.4041,9.1318
3880.0000,-153.3557,575.5925,412.8192,757.7784,-294.3087,40.7949
3900.0000,-160.4887,578.6519,398.2245,752.1937,-294.4713,30.3436
3920.0000,-130.3878,608.2558,435.8285,781.8597,-268.2217,62.6418
3940.0000,-121.3913,619.9221,432.2253,784.1578,-265.4517,60.5532
3960.0000,-181.3878,583.1087,393.8003,759.9324,-297.2199,24.3900
3980.0000,-159.4636,570.1334,403.1995,783.0903,-251.4556,36.6378
4000.0000,-184.4104,590.8596,363.7892,744.9991,-264.1761,10.2310
4020.0000,-158.4523,608.2328,397.2113,790.9900,-264.5186,33.8371
4040.0000,-128.3965,628.6887,418.8177,797.1036,-251.1290,41.0899
4060.0000,-131.4226,625.5621,433.1950,812.9100,-214.5079,34.0025
4080.0000,-143.4301,626.4725,417.8237,814.1932,-180.1175,52.8766
4100.0000,-158.4073,619.8004,400.1899,808.8344,-218.4873,28.1298
4120.0000,-150.4195,624.2763,405.8402,804.2584,-233.1196,39.7619
4140.0000,-155.3684,618.0087,412.1678,839.7657,-177.5130,55.3143
4160.0000,-138.4498,622.0826,411.8253,845.3575,-166.1057,58.6256
4180.0000,-147.3092,628.1533,417.1662,837.6719,-182.4715,59.4084
4200.0000,-151.4667,626.8854,413.8641,824.4580,-209.1861,20.5408
4220.0000,-152.3267,620.3440,411.1403,810.5416,-219.4503,-0.4227
4240.0000,-148.4699,602.6288,416.8561,839.5703,-187.2307,22.3942
4260.0000,-156.3259,594.4233,412.1304,841.4548,-161.4573,19.5587
4280.0000,-147.5477,620.6022,414.8765,861.6865,-147.1677,28.3556
4300.0000,-156.3219,621.6205,407.1326,836.3391,-162.4342,1.7311
4320.0000,-162.4868,616.5015,407.8984,851.8380,-153.2521,2.3065
4340.0000,-156.3263,602.6119,408.1057,859.1990,-154.4727,4.5969
4360.0000,-182.5179,588.3397,405.9341,842.9648,-152.2760,-14.5300
4380.0000,-157.3236,603.7047,411.0841,865.0560,-163.3774,2.6608
4400.0000,-136.4775,634.2820,435.9572,890.1334,-148.2310,27.3374
4420.0000,-147.2854,600.7659,412.0513,849.8889,-157.3870,12.5356
4440.0000,-162.4691,592.1954,405.9632,840.2578,-176.3033,-23.4614
4460.0000,-165.3333,603.7966,448.0512,891.7658,-103.3694,-2.3218
4480.0000,-144.4900,594.1616,430.0053,881.4349,-121.3484,9.4752
4500.0000,-190.3476,558.7988,378.9919,816.5768,-183.2714,-56.4987
4520.0000,-179.4394,589.1678,395.0076,844.5988,-183.3272,-40.3463
4540.0000,-151.3847,591.8508,418.9550,859.3918,-140.2852,-15.5682
4560.0000,-199.4459,527.2209,387.0490,850.7734,-125.4021,-22.1653
4580.0000,-200.4797,537.8391,394.9042,857.2011,-152.1703,-31.7181
4600.0000,-185.4005,537.2048,418.1049,867.9803,-162.4341,-23.0616
4620.0000,-204.4691,530.8337,385.8650,838.0014,-170.2288,-23.7818
4640.0000,-150.3132,572.2898,428.1753,881.1869,-125.5071,30.9579
4660.0000,-188.4876,507.7055,403.8108,856.8020,-162.1176,7.9264
4680.0000,-219.3074,477.3106,381.2072,819.3806,-216.5452,-16.7793
4700.0000,-215.5303,497.6904,378.7635,820.5940,-202.0191,3.8022
4720.0000,-229.2588,501.2794,350.2408,773.5491,-221.6924,-25.7240
4740.0000,-239.6283,499.6318,352.7128,781.3730,-213.0079,-27.2784
4760.0000,-225.2748,483.3887,348.2690,775.7546,-250.6875,6.3673
4780.0000,-250.6517,447.5723,327.6471,741.1566,-269.9182,-24.3534
4800.0000,-238.2510,480.4508,358.3535,773.9667,-244.7968,8.4413
4820.0000,-237.6834,466.4512,351.6006,772.9282,-285.8661,22.3549
4840.0000,-295.2558,394.4458,314.3758,720.1489,-338.9541,-33.2775
4860.0000,-259.6865,430.5114,346.5373,735.7162,-331.8333,-3.6072
4880.0000,-274.1845,420.4185,322.4286,720.3552,-336.9352,1.7693
4900.0000,-280.7509,412.3448,316.4712,715.5115,-351.7421,-1.7938
4920.0000,-257.1516,430.6064,336.4846,738.5453,-309.0968,38.8298
4940.0000,-263.7343,424.2607,317.4627,716.3306,-321.7166,33.0154
4960.0000,-258.1515,426.6672,330.5146,711.7227,-354.1421,26.9765
4980.0000,-248.7255,419.2328,335.4166,707.1721,-351.5486,33.9481
5000.0000,-265.1917,409.5962,324.5425,685.8519,-357.3312,28.0770
5020.0000,-245.6962,440.3025,352.3814,718.0001,-349.4635,60.8283
5040.0000,-239.2150,429.6997,348.5669,721.0137,-350.3629,64.0674
5060.0000,-255.6745,409.2159,326.3594,690.8610,-365.3842,49.8373
5080.0000,-265.2327,413.6093,315.5728,682.1341,-378.5002,36.1463
5100.0000,-253.7149,425.1504,317.3519,683.7491,-365.2941,67.7594
5120.0000,-274.2288,408.6306,302.6162,664.2485,-379.5840,39.1417
5140.0000,-277.6887,399.2149,307.2967,686.6292,-366.2035,63.7528
5160.0000,-296.2338,386.7132,288.6264,660.3566,-393.7009,40.1671
5180.0000,-288.6414,403.2042,288.2891,646.5232,-413.1534,37.7284
5200.0000,-277.3161,423.5904,298.6213,659.4336,-386.7214,64.1333
5220.0000,-255.5489,423.1553,312.2962,658.4445,-386.0085,35.7233
5240.0000,-273.3447,420.5820,293.6073,648.4702,-378.8559,-26.7528
5260.0000,-276.5361,438.2977,279.3045,630.4193,-414.9537,-60.0777
5280.0000,-267.4538,435.6662,295.6044,635.5066,-400.9233,-92.8695
5300.0000,-246.4435,459.2574,307.3204,664.3890,-377.8784,-58.9766
5320.0000,-261.4845,439.6189,295.5712,638.5065,-398.0231,-100.9171
5340.0000,-254.4287,446.3353,306.3549,663.3865,-370.8594,-88.9022
5360.0000,-250.5602,444.5665,299.5250,650.4796,-381.0733,-94.0580
5380.0000,-250.3275,465.3165,296.4037,657.4301,-386.7021,-95.8378
5400.0000,-245.6129,477.5792,307.4780,666.4437,-350.0984,-60.1822
5420.0000,-219.2189,474.3348,322.4520,685.5094,-331.6585,-57.7385
5440.0000,-216.6671,483.5199,329.4359,687.3782,-348.1568,-55.3068
5460.0000,-251.1762,480.5353,306.5063,649.5695,-354.7047,-62.6090
5480.0000,-213.7997,489.4550,318.3820,662.2973,-349.1784,-29.4094
5500.0000,-245.0829,469.4290,300.5448,648.6505,-364.6294,-50.4389
5520.0000,-240.8821,479.4503,304.3039,655.2087,-355.1665,-28.5266
5540.0000,-235.0181,486.5883,310.6503,657.7551,-350.5650,-25.2658
5560.0000,-237.9431,493.3711,306.2140,658.0818,-353.1962,-7.6499
5580.0000,-235.9503,506.5596,298.7102,652.8943,-345.5828,-1.1241
5600.0000,-240.0227,501.3133,306.1317,662.9380,-365.2285,1.0818
5620.0000,-279.9195,461.5735,289.7948,655.0414,-393.6148,-33.9387
5640.0000,-234.0240,511.2701,290.0645,652.8173,-370.1688,2.8864
5660.0000,-251.8479,487.6882,301.8958,650.2043,-386.5629,2.1508
5680.0000,-220.0681,507.2549,312.0072,664.6516,-365.1807,27.7535
5700.0000,-240.8084,471.5910,302.9703,661.3496,-363.6071,35.2704
5720.0000,-253.1707,474.3437,301.9207,662.4808,-349.1431,53.6439
5740.0000,-231.7030,500.6778,318.0664,686.5532,-359.6680,63.3855
5760.0000,-247.1812,473.3411,310.8352,685.2972,-360.1642,57.4787
5780.0000,-240.7017,475.7699,321.1443,694.7291,-339.6974,85.5889
5800.0000,-249.2377,487.2931,320.7455,691.1442,-352.0602,88.3759
5820.0000,-223.6408,510.6605,315.2131,682.8926,-355.7493,88.6717
5840.0000,-239.2843,505.2434,310.6753,682.9394,-353.0148,86.3222
5860.0000,-229.5763,501.6784,319.3114,685.1149,-338.7825,114.8125
5880.0000,-227.2982,500.2801,325.6224,689.7910,-317.9505,119.2037
5900.0000,-208.5876,540.6990,342.3888,709.3055,-320.8204,138.9071
5920.0000,-218.2565,528.3906,346.5476,717.5958,-313.9395,131.1559
5940.0000,-211.5928,529.7156,348.4270,718.4710,-308.8292,147.9758
5960.0000,-214.3107,537.3871,349.5146,720.4119,-300.8607,155.0692
5980.0000,-205.5589,538.6507,351.5043,730.6683,-304.8877,156.1147
6000.0000,-187.2954,563.3362,362.4452,749.2592,-274.8789,182.9770
6020.0000,-187.5367,565.5339,360.5532,748.8486,-266.8207,183.1271
6040.0000,-199.2637,557.4094,348.4386,746.1149,-277.8156,179.9825
6060.0000,-180.5993,567.4726,380.5670,759.9755,-248.8620,190.1963
6080.0000,-186.2466,566.5882,379.3880,753.9471,-263.7621,153.9202
6100.0000,-179.6093,561.4531,376.6117,779.1683,-239.9428,173.1735
6120.0000,-191.1735,560.4994,364.4001,754.8167,-250.6912,154.9465
6140.0000,-187.6046,570.5375,369.6138,758.2531,-237.9908,160.2097
6160.0000,-158.1760,601.5865,391.3890,781.7253,-214.6616,185.8837
6180.0000,-192.6643,588.4297,372.6109,775.3853,-220.9987,150.1954
6200.0000,-171.1319,597.6565,395.3802,793.6001,-200.6100,170.9092
6220.0000,-168.7317,595.3372,391.6212,799.5052,-178.9690,159.1179
6240.0000,-168.0408,597.7491,400.4261,814.5222,-186.6754,180.0626
6260.0000,-151.7759,631.3040,417.5800,814.5436,-171.0378,181.0874
6280.0000,-161.0190,598.8181,401.4475,806.4679,-202.5489,176.0504
6300.0000,-151.8294,607.1459,410.5464,813.6105,-176.0250,189.9849
6320.0000,-152.9253,598.8768,410.4781,817.4244,-183.5500,197.1584
6340.0000,-155.9151,600.1073,413.5255,820.6746,-164.0044,209.8836
6360.0000,-147.8893,605.9329,418.5407,817.4119,-179.5415,216.2695
6380.0000,-145.0029,625.1130,412.4363,818.6922,-180.0406,226.6964
6400.0000,-154.7753,604.0092,425.6184,826.4054,-153.5744,209.4679
6420.0000,-151.0424,625.0413,421.3985,834.6505,-160.0831,236.5567
6440.0000,-140.6845,633.1601,439.7086,837.4484,-150.4460,236.5679
6460.0000,-161.1134,617.9973,416.3064,828.6333,-158.1221,221.3942
6480.0000,-119.6250,656.1491,447.7854,864.4691,-117.4103,263.7810
6500.0000,-128.2344,653.8102,445.2436,854.6117,-125.1315,258.2681
6520.0000,-125.4758,657.2374,442.8729,869.5355,-100.3552,275.0091
6540.0000,-134.3071,643.7595,436.1413,836.5262,-111.1555,248.0528
6560.0000,-147.4290,663.4556,447.9811,863.6184,-90.3760,258.1508
6580.0000,-142.4492,653.6542,441.0229,854.4479,-96.1963,258.8732
6600.0000,-160.3337,657.3754,440.0776,842.7040,-124.3388,254.3652
6620.0000,-129.5603,644.6028,446.9253,870.3167,-93.2845,276.6182
6640.0000,-126.1752,656.4562,447.1917,871.8389,-94.2229,271.6357
6660.0000,-145.6893,631.5668,445.8150,873.2261,-107.3949,270.3619
6680.0000,-148.0448,628.6210,442.2874,877.9548,-96.1272,280.8432
6700.0000,-129.7945,661.3782,471.6908,887.0634,-92.4828,284.1960
6720.0000,-111.9396,665.7531,471.4218,909.1091,-81.9988,322.0121
6740.0000,-95.8656,661.3030,499.6079,907.9324,-89.6163,319.8926
6760.0000,-100.8252,662.8334,481.5313,902.2285,-87.9395,319.2950
6780.0000,-121.0591,672.3546,473.4613,899.7953,-88.7633,308.7180
6800.0000,-91.7217,687.8328,483.6370,900.3866,-97.7396,323.5214
6820.0000,-107.1712,675.2644,474.3461,903.6293,-89.9181,326.4351
6840.0000,-118.6085,663.9896,475.7434,913.5563,-91.6208,321.8159
6860.0000,-104.2749,669.2050,500.2706,924.4773,-87.0862,350.1954
6880.0000,-88.4699,673.0262,506.8585,926.6833,-93.4537,356.0228
6900.0000,-116.3909,659.9962,479.1446,900.3331,-124.2472,317.0120
6920.0000,-117.3791,655.9789,474.9483,882.8226,-121.3337,319.1926
6940.0000,-90.4999,666.0643,501.0679,902.1904,-115.3756,333.7552
6960.0000,-107.2160,665.1909,483.0401,872.9751,-125.1316,305.4151
6980.0000,-103.6182,692.8890,507.9721,890.0591,-109.6182,331.6009
7000.0000,-86.1296,659.1232,507.1416,906.0991,-93.8997,337.6748
7020.0000,-88.7155,655.7705,502.8663,894.9147,-126.8313,315.3860
7040.0000,-121.0111,645.2379,496.2397,876.2373,-127.7025,289.7664
7060.0000,-88.8118,660.6791,510.7890,878.7838,-157.0715,297.2587
7080.0000,-93.9178,641.3074,515.3019,880.3348,-154.5613,282.9605
7100.0000,-94.9357,629.7238,514.7217,891.6838,-150.2123,291.0967
7120.0000,-124.8834,600.3236,502.3897,871.4066,-153.3702,268.0699
7140.0000,-109.9267,610.5596,511.6429,871.6086,-153.3911,273.9459
7160.0000,-87.8489,636.4254,538.4318,876.4985,-145.1243,279.1798
7180.0000,-90.0006,617.6511,532.6108,874.5391,-150.5939,273.8656
7200.0000,-95.7770,608.3951,531.4772,854.5584,-177.9587,231.1677
7220.0000,-98.0086,597.5022,530.5673,844.4621,-198.8051,216.8441
7240.0000,-98.7759,596.4628,535.5323,839.5771,-221.8619,214.2479
7260.0000,-131.0682,558.4232,507.5262,809.4273,-263.9977,180.7833
7280.0000,-124.7745,538.5156,507.5327,780.5693,-274.7169,156.1671
7300.0000,-168.0366,509.4008,478.4907,760.4451,-313.1393,137.8283
7320.0000,-175.8036,501.4702,482.5452,744.5394,-351.5718,103.1475
7340.0000,-181.0104,496.4357,472.4627,723.4601,-349.2365,105.8124
7360.0000,-182.8907,490.5074,464.5501,694.4647,-383.5146,86.0362
7380.0000,-184.9779,474.5146,467.4896,691.4967,-407.2736,58.8211
7400.0000,-201.9186,472.3911,444.5089,687.4000,-416.4884,58.9902
7420.0000,-194.9011,459.3967,452.4893,689.5648,-412.3954,64.9378
7440.0000,-214.9937,446.4633,447.5174,673.3062,-444.5233,24.8836
7460.0000,-196.8311,445.4686,444.5003,656.6284,-452.3769,30.0376
7480.0000,-204.1010,429.4711,442.4809,645.1820,-498.5389,26.6837
7500.0000,-215.7520,417.4321,438.5262,623.7292,-505.3319,1.2063
7520.0000,-212.2710,414.2923,418.4326,620.0599,-506.6728,15.4835
7540.0000,-245.5744,394.5684,381.5541,586.8494,-546.3229,-5.4603
7560.0000,-241.4395,402.2655,387.3729,564.9019,-567.7332,-0.5288
7580.0000,-252.4665,377.5089,356.5938,543.9828,-567.1890,-22.3185
7600.0000,-263.5689,358.1750,349.3067,538.7606,-597.9103,-20.7296
7620.0000,-261.2841,350.6802,347.6530,528.1237,-628.0840,-33.1377
7640.0000,-263.7528,352.0893,343.2577,520.5880,-654.0814,-29.0174
7660.0000,-257.0729,375.7117,356.7234,534.2835,-627.8725,-17.9010
7680.0000,-279.9620,344.9992,321.1730,488.3922,-684.3450,-63.2420
7700.0000,-292.9424,329.8014,302.7699,472.4502,-697.6453,-70.6512
7720.0000,-284.1074,336.9061,309.0792,477.1964,-690.5674,-64.4978
7740.0000,-274.7092,341.0607,291.8279,480.6176,-678.3750,-57.4392
7760.0000,-310.3221,318.6589,281.9892,473.0163,-711.9563,-85.6567
7780.0000,-283.4918,326.0740,299.9106,471.8000,-719.0334,-79.1636
7800.0000,-329.5474,289.6334,253.8905,432.8498,-778.3001,-124.9640
7820.0000,-308.3552,325.2132,279.0186,443.9487,-779.7623,-103.0291
7840.0000,-304.7662,312.4023,280.8146,454.6699,-771.5948,-94.1586
7860.0000,-307.1358,311.4071,274.1080,446.1529,-782.3826,-89.7354
7880.0000,-308.9973,318.2283,249.6930,440.4778,-773.9664,-68.3432
7900.0000,-331.9398,297.6027,248.2092,438.2892,-788.9673,-98.5157
7920.0000,-294.1674,333.2058,277.5923,464.3553,-771.3570,-47.4970
7940.0000,-286.7335,328.6272,282.2910,470.4529,-781.6396,-29.3364
7960.0000,-304.3153,327.9284,272.5291,457.1974,-777.7004,-38.6689
7980.0000,-294.5369,335.9170,273.3876,477.5715,-780.2553,-26.2200
8000.0000,-281.5082,354.8505,273.4082,476.0628,-762.2034,-0.9554
8020.0000,-273.3849,371.9651,278.5287,477.7229,-754.7748,3.8460
8040.0000,-269.6686,367.6643,271.3035,471.9348,-749.5767,2.8975
8060.0000,-268.2209,382.2307,276.6077,477.8358,-724.3498,17.9278
8080.0000,-267.7901,372.5149,280.1805,500.8355,-714.9823,16.8887
8100.0000,-285.1201,375.2182,268.7269,474.9547,-719.9775,-6.8914
8120.0000,-257.8495,381.5181,288.0580,509.7185,-703.3294,3.7530
8140.0000,-258.0112,390.4572,282.8577,505.0691,-696.6469,3.0647
8160.0000,-259.9734,386.3712,277.9271,514.5991,-694.6517,0.7290
8180.0000,-264.9556,399.5533,271.0038,504.1691,-685.2435,-6.7959
8200.0000,-245.0322,396.2295,282.7816,536.5457,-678.9888,31.7414
8220.0000,-235.8707,412.6164,310.1446,558.2772,-652.8943,58.1405
8240.0000,-236.0992,420.0598,316.6523,566.4523,-624.3166,61.7658
8260.0000,-241.8060,424.6464,302.2585,562.3293,-615.6127,72.0977
8280.0000,-206.0988,457.0341,339.5357,599.4120,-592.5796,97.7365
8300.0000,-228.7938,439.8325,316.3634,593.3719,-594.3625,95.1320
8320.0000,-229.1569,463.9574,337.4193,617.3597,-570.8644,119.8538
8340.0000,-213.7684,470.7903,342.5397,626.4501,-550.0649,138.0493
8360.0000,-192.0820,503.9567,355.2814,634.3167,-525.0334,183.9466
8380.0000,-217.8100,470.8175,345.6600,629.4953,-533.8627,176.9560
8400.0000,-190.1428,495.9359,352.1322,634.2411,-506.2424,194.0189
8420.0000,-207.8652,503.9000,348.7900,643.5694,-536.7844,183.8971
8440.0000,-194.0317,508.9037,352.9932,652.2073,-505.3639,205.1777
8460.0000,-195.9131,503.8845,360.9592,656.6336,-495.5962,202.7688
8480.0000,-192.9820,533.9969,353.8422,658.1442,-449.4939,227.2425
8500.0000,-180.9495,531.9521,381.1005,678.6898,-437.5366,248.6924
8520.0000,-182.9435,530.0280,376.6918,686.1042,-453.5464,244.4169
8540.0000,-177.9960,540.8945,383.2745,696.7529,-437.4852,266.5245
8560.0000,-189.9135,531.0739,373.5555,675.0360,-443.5168,250.5805
8580.0000,-151.0481,569.9170,417.4379,736.8245,-401.4750,288.4497
8600.0000,-156.8078,570.1637,392.3837,717.9689,-375.5009,286.7444
8620.0000,-149.1044,565.7010,408.5993,750.9027,-342.4333,312.3112
8640.0000,-141.7308,596.1487,416.2269,751.9212,-328.5213,337.8109
8660.0000,-149.1687,589.7101,417.7589,758.9684,-334.5307,322.1980
8680.0000,-130.6728,589.2735,413.0834,749.8499,-330.4330,336.0043
8700.0000,-138.2607,590.6000,414.9232,766.0565,-331.5461,338.0937
8720.0000,-129.5965,596.3533,408.8972,771.7684,-310.3446,340.1035
8740.0000,-123.3124,616.4142,420.0652,785.1534,-311.6718,354.9326
8760.0000,-123.5022,592.4825,449.7798,807.6931,-311.1954,355.2172
8780.0000,-86.3694,623.4545,443.2382,808.2529,-287.8560,388.8393
8800.0000,-116.4830,631.6348,437.5957,805.5948,-275.0521,364.2754
8820.0000,-86.4220,632.3098,451.3962,827.3578,-259.9777,378.7465
8840.0000,-94.4648,652.6791,456.4250,843.5023,-250.7990,384.3575
8860.0000,-97.4413,654.1306,443.5591,816.4453,-262.1562,369.6902
8880.0000,-107.4389,658.7795,467.2949,858.4152,-235.5794,382.3839
8900.0000,-75.4638,689.0787,476.7280,863.5954,-198.2928,414.6716
8920.0000,-70.3739,692.9491,481.1393,875.3068,-184.3667,414.4626
8940.0000,-59.4500,691.9487,480.9032,886.7076,-178.5136,428.6295
8960.0000,-85.3775,701.0675,477.9758,881.2036,-188.1121,416.5370
8980.0000,-80.4169,712.9219,483.0382,889.8131,-175.7335,434.6365
9000.0000,-65.4142,717.3148,499.8568,903.1024,-154.8626,441.5639
9020.0000,-61.4182,714.8016,503.2104,924.9517,-148.8995,445.6711
9040.0000,-62.4307,723.4106,497.7253,917.0073,-150.6690,447.4708
9060.0000,-34.3821,727.6395,538.3334,960.0811,-125.1453,464.6852
9080.0000,-16.4167,750.4547,542.5953,972.9080,-84.4167,480.5141
9100.0000,-35.3429,746.4691,534.4709,957.1942,-65.4027,478.7032
9120.0000,5.4461,750.5673,563.5001,1002.8307,-35.1785,506.4078
9140.0000,-14.2438,779.4360,539.5686,983.3019,-24.5108,491.8206
9160.0000,-32.5207,771.7670,536.4067,982.7399,-25.0313,475.4343
9180.0000,-22.2463,812.3923,555.6582,996.4069,7.1987,505.8600
9200.0000,-10.6000,805.9175,571.3223,1000.6570,-3.8721,498.3324
9220.0000,-0.1289,805.3371,566.7690,1003.4869,-2.9001,495.9319
9240.0000,7.3051,841.8964,588.2576,1029.5759,43.2339,507.2440
9260.0000,-29.0866,807.2534,558.8359,1007.5931,32.8216,468.0386
9280.0000,-4.6622,817.0665,566.2019,1033.5159,30.3717,478.1927
9300.0000,22.8949,849.0416,603.8640,1046.6552,39.7482,485.0500
9320.0000,-4.7220,806.1633,582.1649,1025.4767,21.5625,462.0814
9340.0000,-14.9815,801.9563,571.8791,1032.6837,14.5600,446.1267
9360.0000,1.1325,820.1990,594.1888,1037.4814,47.6524,449.0687
9380.0000,3.9502,830.9711,594.8911,1053.7009,58.4983,460.1681
9400.0000,-25.8392,804.1406,553.1922,1023.4641,24.7902,401.9500
9420.0000,10.0238,839.9003,601.8951,1063.7285,58.4121,430.2218
9440.0000,36.1275,856.3461,624.2289,1072.4902,49.9373,446.9166
9460.0000,-5.9132,793.8442,586.8509,1043.7126,29.3062,393.3125
9480.0000,-7.8381,801.2318,583.2739,1044.4950,39.9631,391.8575
9500.0000,1.1319,813.9098,599.8162,1043.6826,58.3030,385.2913
9520.0000,-3.8133,819.3634,589.3077,1043.5366,61.9754,380.8960
9540.0000,6.0130,831.8362,609.7516,1069.6371,92.2846,382.3667
9560.0000,16.0930,833.3271,619.3954,1080.5936,94.0072,388.8188
9580.0000,-17.9230,793.7939,567.6719,1047.5754,55.2833,333.3939
9600.0000,27.0998,850.2622,620.4742,1079.6619,105.0529,368.7866
9620.0000,-22.9808,803.7800,566.5895,1033.4969,90.3027,314.4193
9640.0000,-17.7379,804.2384,597.5678,1073.7549,87.0409,317.7544
9660.0000,22.9287,843.8204,630.4922,1072.4155,108.3173,342.3776
9680.0000,-36.7207,777.2980,567.6957,1004.8079,29.9186,266.8208
9700.0000,-31.0788,772.9097,568.3557,1031.3247,57.3469,267.3375
9720.0000,-8.6484,783.2337,597.7846,1062.9078,72.9299,314.8095
9740.0000,-3.1386,791.8873,607.2540,1077.2227,99.3559,319.3752
9760.0000,-6.5464,777.2206,592.9342,1058.0173,69.8913,284.8326
9780.0000,-13.2077,788.9406,599.1245,1044.1466,66.4056,271.2689
9800.0000,17.4484,808.2230,622.0416,1076.1183,102.8327,302.8264
9820.0000,44.6008,820.0758,651.9866,1102.0498,108.5422,327.2766
9840.0000,10.5713,770.1050,622.1701,1077.2212,84.7710,295.9220
9860.0000,3.4895,784.0966,626.8585,1078.9498,79.5631,290.1834
9880.0000,-2.2486,771.0265,627.3188,1071.3082,92.6617,285.9623
9900.0000,-8.5375,757.1044,618.7239,1062.8297,67.5996,266.1447
9920.0000,35.7734,813.9565,670.4380,1110.4476,103.6085,283.9553
9940.0000,33.3153,802.2321,658.6158,1091.7249,121.7893,278.1577
9960.0000,34.8527,805.8582,662.5356,1079.5022,90.4851,219.9689
9980.0000,-1.6953,782.4080,633.5029,1072.6320,99.7849,188.0928
10000.0000,-26.0128,773.6868,603.6592,1056.6040,99.3691,158.9678
10020.0000,-31.8171,766.5845,595.3766,1035.5402,60.8839,114.0586
10040.0000,-42.8740,749.4590,584.7691,1037.6794,89.3497,113.9583
10060.0000,27.0572,825.6951,659.2841,1097.5029,141.0055,172.0221
10080.0000,37.1647,803.3261,632.8802,1064.7455,128.2647,172.0561
10100.0000,-36.0383,743.7461,614.1907,1028.3907,25.0243,90.0341
10120.0000,-26.7439,779.2812,615.9398,1035.7915,61.1859,94.9871
10140.0000,-26.0616,775.9432,601.0905,1040.3153,92.1044,98.0066
10160.0000,-42.6013,745.0905,593.0577,1022.8823,62.1224,55.9819
10180.0000,-4.1614,791.0300,622.0242,1050.2789,103.0804,69.0289
10200.0000,-24.5850,761.0616,620.1115,1035.8962,85.1605,50.9424
10220.0000,-45.2402,737.1810,592.9444,1007.2443,55.2052,17.0100
10240.0000,-53.5313,744.8217,590.1618,1011.9467,67.1353,22.9334
10260.0000,-26.2701,778.3303,613.8969,1045.1987,95.1881,37.0600
10280.0000,-67.4973,759.8036,588.2175,1027.9927,103.1022,5.8213
10300.0000,-29.3223,768.4936,610.8356,1032.1589,80.1906,41.1171
10320.0000,-50.4388,747.5489,588.2550,996.9980,20.0499,-16.1121
10340.0000,-69.3687,714.6143,562.7784,972.1294,4.2326,-59.6487
10360.0000,-11.4044,780.5067,610.3116,1039.0551,90.0590,5.6340
10380.0000,-4.3815,763.7243,627.7642,1049.1406,104.2743,18.3520
10400.0000,-20.3779,755.3064,620.3198,1027.0314,98.9859,4.4788
10420.0000,-34.4212,730.7570,589.7632,1013.1261,65.1841,-1.4294
10440.0000,-39.4040,726.3197,596.3196,975.0018,54.0550,-39.5590
10460.0000,-30.4141,750.7714,604.7584,1007.1372,89.2375,25.6602
10480.0000,-2.3259,747.1735,623.3286,1011.0171,90.0640,54.2168
10500.0000,-35.4428,734.8965,592.7347,993.1373,60.1903,38.7938
10520.0000,-34.3654,716.2072,586.3443,1003.0182,86.1037,78.0371
10540.0000,-40.3970,725.9697,570.7111,982.1263,77.1704,74.9997
10560.0000,-90.4080,680.1072,543.3113,960.9643,23.0590,55.8960
10580.0000,-57.3991,706.9038,579.7148,973.1596,56.1835,100.2089
10600.0000,-24.4176,742.0502,596.3325,1004.9781,90.0913,129.7087
10620.0000,-67.3667,681.9979,563.7156,956.1694,41.1595,109.3891
10640.0000,-24.4212,723.1157,601.3522,993.9464,29.0463,142.4739
10660.0000,-42.3633,688.9530,567.7253,959.1735,4.1475,129.5880
10680.0000,-96.4270,673.1161,533.3032,941.8920,1.1011,110.3013
10700.0000,-65.3976,687.9368,565.7420,951.2071,31.0868,131.8419
10720.0000,-55.4307,718.1679,562.3215,939.8775,19.1065,138.0606
10740.0000,-62.3649,659.8229,567.7267,957.2080,-4.8017,148.9996
10760.0000,-85.4771,661.2341,549.3096,951.8774,-5.8633,149.8972
10780.0000,-63.3396,662.7618,559.7329,950.2454,7.1396,167.1846
10800.0000,-96.5120,615.2700,516.2858,915.8207,-58.9061,150.6842
10820.0000,-128.3172,633.7740,523.7161,899.2480,-53.7898,119.4261
10840.0000,-76.5543,660.2027,548.3009,921.7966,-18.9582,153.4442
10860.0000,-66.3100,666.7391,549.7333,936.2722,4.2033,173.6292
10880.0000,-66.5860,638.3796,553.3347,928.8133,-19.9766,152.2314
10900.0000,-85.2607,603.5040,533.7134,933.2830,-23.7018,164.8358
10920.0000,-92.6203,603.4116,532.3083,919.7520,-28.0039,157.0208
10940.0000,-122.2133,591.4542,507.6880,901.3048,-35.6618,122.0761
10960.0000,-107.6602,598.5251,516.3165,903.7101,-31.0506,148.8646
10980.0000,-76.2351,633.3641,545.6737,935.3376,7.3540,195.2428
11000.0000,-84.6044,626.7263,541.3545,911.7243,-32.1065,177.6956
11020.0000,-98.1941,590.2330,508.6322,889.3318,-62.4565,150.4058
11040.0000,-80.6753,604.7303,542.3682,925.7084,-16.1872,195.5010
11060.0000,-94.1582,588.1292,517.6398,891.3485,-42.3934,172.6062
11080.0000,-131.6854,559.8138,498.4089,874.6569,-63.3118,148.3971
11100.0000,-113.1878,588.0183,526.5958,894.3930,-46.2779,154.6789
11120.0000,-96.6646,583.9971,531.4258,900.6137,-43.4275,181.2270
11140.0000,-84.1295,595.9153,536.5809,905.4173,-40.2023,184.8529
11160.0000,-92.7372,590.0637,527.4388,901.5809,-55.5739,168.1301
11180.0000,-113.1345,595.8198,510.5421,877.4510,-71.1384,156.9977
11200.0000,-116.7569,592.1277,499.4804,864.5294,-66.6223,145.9625
11220.0000,-105.1308,593.7577,519.5048,886.4612,-49.0656,164.1695
11240.0000,-92.8022,590.1960,524.5097,901.5002,-25.7707,179.8859
11260.0000,-93.0944,592.7202,503.4925,873.5043,-52.9100,159.3098
11280.0000,-118.8300,548.2112,479.5070,844.4429,-80.8674,130.8283
11300.0000,-149.0182,535.6902,471.4580,841.5649,-87.8268,96.3271
11320.0000,-116.8589,570.3432,497.5251,837.3963,-64.9640,118.8179
11340.0000,-114.0202,573.6852,502.4236,862.6008,-55.7211,103.4349
11360.0000,-120.8902,564.2421,495.5900,842.3752,-79.0441,87.7703
11380.0000,-87.9850,606.5675,534.3991,872.6212,-59.6157,115.4375
11400.0000,-94.9194,596.3156,508.6426,861.3365,-89.1736,105.6959
11420.0000,-130.9788,557.5473,488.3394,839.6749,-92.5725,77.5036
11440.0000,-118.9479,584.3493,504.6533,834.3039,-99.1676,83.7281
11460.0000,-91.9531,597.5839,504.2995,836.6741,-88.5551,97.5233
11480.0000,-122.9371,569.3801,502.6936,845.2405,-93.2542,90.6575
11500.0000,-93.8621,589.6361,513.2574,843.7292,-123.5272,100.4827
11520.0000,-102.9854,597.2772,508.7550,840.2312,-83.2176,96.7057
11540.0000,-143.9058,577.6909,481.2007,784.7400,-147.4884,51.4601
11560.0000,-160.0617,565.1639,468.7670,783.1735,-155.2252,47.7171
11580.0000,-124.8329,570.7717,476.1571,795.7526,-125.5216,71.4449
11600.0000,-156.0874,535.1866,464.7612,773.1042,-160.2929,31.7164
11620.0000,-118.8467,573.8266,506.1428,814.7863,-129.5476,76.3984
11640.0000,-109.0583,583.1309,503.8130,803.1168,-128.2141,54.7612
11660.0000,-155.8154,544.8147,455.1129,747.8129,-211.6494,-6.5416
11680.0000,-189.1575,511.9704,437.8490,721.0855,-235.1387,-40.0018
11700.0000,-179.7876,540.8992,449.0804,721.8082,-228.7250,-28.6458
11720.0000,-151.0892,537.9894,471.8809,726.0645,-220.0340,-24.9094
11740.0000,-173.7747,497.9170,461.0430,713.8101,-266.8317,-39.6741
11760.0000,-120.1221,535.9406,502.9504,757.0679,-243.9772,-0.0001
11780.0000,-147.7703,495.9881,481.9806,729.8126,-282.9615,-23.8410
11800.0000,-159.1153,499.8252,470.9760,713.0685,-303.7946,-37.7665
11820.0000,-197.8557,467.9730,434.9326,659.7758,-326.1823,-72.9611
11840.0000,-190.0361,470.7182,442.0052,659.0770,-334.6414,-67.6334
11860.0000,-153.8664,498.0673,474.8900,684.7427,-329.3672,-37.0696
11880.0000,-155.0061,465.7126,455.0734,655.1187,-371.4169,-70.4349
11900.0000,-194.9273,442.1158,438.8535,636.7219,-385.5495,-90.2008
11920.0000,-191.9334,464.6917,437.1326,657.1498,-371.1983,-71.2971
11940.0000,-163.9779,479.1726,465.7799,638.6570,-380.8324,-80.3789
11960.0000,-192.8403,474.8273,433.1878,619.2015,-413.0250,-101.1197
11980.0000,-196.1239,455.0653,428.7165,592.5642,-409.1305,-122.6431
12000.0000,-167.7300,488.8082,468.2930,609.2946,-393.7368,-89.8732
12020.0000,-200.2584,444.0890,431.6372,591.4982,-438.4385,-120.8092
12040.0000,-206.6233,462.7385,420.3533,559.3321,-451.4580,-120.7076
12060.0000,-171.3778,502.0212,456.5443,600.4279,-406.7101,-81.0232
12080.0000,-171.4795,496.8622,443.4693,588.4308,-412.1762,-71.4585
12100.0000,-170.5309,490.9926,452.4615,595.2933,-412.9647,-62.2827
12120.0000,-170.3101,469.8664,455.5571,598.5665,-412.8695,-66.2009
12140.0000,-186.7294,474.9392,443.3123,574.1719,-429.2914,-102.5743
12160.0000,-204.1066,449.0380,411.6433,530.6560,-465.5511,-134.9585
12180.0000,-205.8819,460.7054,420.1848,527.0520,-473.6635,-148.8839
12200.0000,-178.9013,475.2634,452.8202,564.8027,-435.2102,-112.6463
12220.0000,-154.0929,508.5610,442.0603,544.9197,-411.9234,-88.1252
12240.0000,-210.7008,452.3401,406.9490,514.9297,-475.9564,-155.4306
12260.0000,-202.3121,447.4177,415.9099,529.7546,-476.2928,-150.5042
12280.0000,-205.4488,449.5165,406.1034,507.0879,-499.6221,-155.1492
12300.0000,-238.6080,413.1840,382.7463,508.6042,-505.5175,-159.7861
12320.0000,-192.2081,458.6834,418.2511,525.2518,-465.2975,-120.8571
12340.0000,-170.8260,490.0632,446.5990,568.4536,-432.8255,-89.0430
12360.0000,-173.9168,479.0092,425.4391,540.4365,-436.9650,-92.4758
12380.0000,-192.0645,471.7213,425.3896,541.2808,-470.1117,-105.3877
12400.0000,-190.6789,462.1260,420.6144,533.5977,-460.7489,-111.1568
12420.0000,-218.3220,440.5975,390.2083,501.0539,-483.4067,-150.7153
12440.0000,-222.4522,429.4809,377.8061,502.7896,-505.4246,-159.9653
12460.0000,-190.5776,459.2820,416.0090,535.8862,-457.6056,-122.0331
12480.0000,-185.1952,475.7762,410.0220,546.9818,-444.2161,-127.6054
12500.0000,-211.8637,469.9742,387.8213,515.7063,-477.9301,-153.3553
12520.0000,-203.9328,479.0182,416.2213,536.1373,-464.9927,-154.3842
12540.0000,-240.1044,413.7297,345.5916,473.5315,-520.0857,-201.6055
12560.0000,-215.7148,472.1454,386.3985,534.3134,-455.8571,-150.0378
12580.0000,-187.2927,471.4612,420.4509,565.3906,-419.2251,-116.8282
12600.0000,-214.5007,471.4093,392.5994,533.4894,-463.6477,-150.8118
12620.0000,-215.4932,476.3592,382.2541,533.2104,-460.4385,-151.0501
12640.0000,-197.3729,502.7222,411.7633,548.6586,-447.5154,-131.6146
12660.0000,-234.6250,472.1226,356.0794,506.0627,-476.5640,-179.2460
12680.0000,-229.1899,471.8938,375.9373,504.8063,-477.4492,-186.4414
12700.0000,-235.7686,477.8785,358.9089,503.9285,-486.5710,-213.5208
12720.0000,-222.1083,484.2417,371.0718,514.9193,-463.3775,-189.2504
12740.0000,-215.9032,511.5580,380.7789,545.8094,-442.6570,-159.6669
12760.0000,-206.9871,508.3884,389.2163,561.0806,-460.3620,-163.0693
12780.0000,-183.9483,506.3654,413.6404,572.6844,-441.5655,-173.7830
12800.0000,-216.9166,500.6046,377.3539,559.1934,-467.3166,-222.0637
12820.0000,-195.9867,518.3225,378.5362,559.6069,-443.6401,-195.8298
12840.0000,-190.8860,528.8403,393.4628,588.2737,-421.4170,-179.9200
12860.0000,-150.9514,570.1734,418.4524,623.5333,-373.4614,-147.9176
12880.0000,-198.8739,524.9918,396.5343,622.3674,-394.4374,-236.9355
12900.0000,-154.9452,557.9200,416.3484,634.4778,-360.4633,-333.0315
12920.0000,-187.9349,511.9895,366.5836,583.4252,-425.5591,-469.9668
12940.0000,-220.8907,502.8387,376.2959,589.4055,-435.3102,-578.0297
12960.0000,-203.0236,535.1733,384.6613,601.4789,-385.5945,-639.0147
12980.0000,-148.8088,563.7520,417.2695,646.3886,-328.1708,-630.0599
13000.0000,-162.1307,561.1353,401.6734,645.5047,-340.8057,-682.0346
13020.0000,-164.6201,569.8640,408.2692,635.3915,-353.9518,-728.0010
13040.0000,-187.2720,539.2319,379.6498,605.5079,-387.0074,-786.1160
13060.0000,-200.5255,535.7922,362.2995,597.3952,-371.7604,-813.9825
13080.0000,-214.4456,553.1898,354.6224,587.4907,-367.0905,-863.2692
13100.0000,-187.3258,577.8644,402.3670,624.4265,-346.5924,-831.8418
13120.0000,-149.6368,600.1581,415.5891,660.4838,-312.3058,-809.2677
13140.0000,-154.0853,584.8873,413.4209,663.4730,-324.4040,-821.7307
13160.0000,-177.8526,563.0677,392.5134,650.4626,-319.4645,-844.4033
13180.0000,-195.8804,549.9079,369.4767,617.5435,-337.0839,-876.6198
13200.0000,-155.0980,606.9988,413.4043,659.3868,-284.7038,-839.5389
13220.0000,-102.6124,652.0212,461.6225,714.6469,-243.8615,-796.4416
13240.0000,-125.2995,626.9990,452.3215,720.3268,-231.9241,-795.6740
13260.0000,-100.3707,651.1489,473.7540,750.7365,-232.5924,-779.3647
13280.0000,-90.5517,629.8719,473.2253,756.2621,-190.1863,-754.8802
13300.0000,-109.1161,653.2767,451.8521,719.7915,-202.3303,-788.2175
13320.0000,-81.7389,679.7357,474.1009,717.1766,-194.3900,-784.0079
13340.0000,-85.8757,672.5396,474.0134,756.9111,-183.0813,-774.0776
13360.0000,-96.9719,653.5102,442.9665,746.1192,-187.6501,-792.0961
13380.0000,-115.6736,663.7280,455.1176,750.0203,-183.8560,-812.9436
13400.0000,-94.1843,659.3280,465.8402,756.0059,-187.8600,-809.2803
13420.0000,-134.4775,649.7947,409.2438,710.1258,-190.6903,-836.8004
13440.0000,-93.4703,699.1860,458.6927,763.9236,-147.9789,-800.3192
13460.0000,-88.2328,692.0057,475.4212,784.2425,-139.4776,-778.7192
13480.0000,-92.6511,673.0986,464.5751,771.8216,-186.2554,-783.4702
13500.0000,-107.0743,652.1569,449.5335,758.3251,-172.2990,-795.5673
13520.0000,-125.7980,672.9102,444.4159,746.7306,-155.4041,-789.5874
13540.0000,-120.9262,645.3577,431.6678,738.4133,-188.1359,-814.4798
13560.0000,-125.9449,661.6195,440.3159,745.6471,-191.5508,-797.6132
13580.0000,-123.7280,658.4902,445.8028,766.5264,-187.9834,-781.4549
13600.0000,-122.0458,638.5254,448.2119,780.5824,-154.7005,-766.6290
13620.0000,-137.6316,630.7371,435.9080,777.5797,-151.8624,-759.4800
13640.0000,-115.1631,673.4242,447.1235,775.4963,-136.8111,-740.7178
13660.0000,-130.5773,654.8187,460.0160,780.6865,-189.7255,-759.4591
13680.0000,-119.2640,638.2150,448.0170,780.4578,-189.9172,-721.6431
13700.0000,-122.4581,662.1223,442.0891,785.7474,-152.6168,-714.4241
13720.0000,-124.2596,665.1613,442.9305,780.4133,-157.9817,-720.7121
13740.0000,-160.5122,653.0934,410.1412,751.7613,-184.5753,-753.4572
13760.0000,-147.3305,642.9514,434.8651,778.3804,-185.9843,-742.6300
13780.0000,-122.4442,660.1861,445.2294,794.7905,-151.4963,-713.4899
13800.0000,-127.2740,658.8071,444.8446,777.3228,-166.0434,-723.5848
13820.0000,-118.5135,687.3558,447.2706,782.8366,-181.3781,-691.4930
13840.0000,-119.2741,665.8607,446.7945,791.3253,-152.0468,-686.4623
13860.0000,-121.4995,654.3745,441.2986,793.8254,-141.3817,-662.5740
13880.0000,-120.2315,672.7633,453.7572,805.3281,-152.0663,-661.3810
13900.0000,-112.5932,683.4987,471.3454,808.8340,-134.4335,-651.6473
13920.0000,-123.0854,676.7089,444.7485,807.3423,-123.1172,-633.2977
13940.0000,-110.6636,688.5336,448.3555,813.8055,-90.3867,-599.7898
13960.0000,-87.0113,701.5876,475.7121,823.3788,-92.0674,-593.1770
13980.0000,-98.7510,680.6059,456.3711,810.7829,-116.3596,-603.8806
14000.0000,-122.9160,686.5889,449.6956,808.3920,-122.0876,-597.0620
14020.0000,-94.8431,687.5949,469.3817,818.7504,-91.4575,-581.0483
14040.0000,-95.8023,694.5437,471.7064,836.4592,-87.0470,-566.0219
14060.0000,-122.9633,689.6053,458.3623,815.6758,-101.5387,-571.1583
14080.0000,-120.7522,686.5601,447.7055,827.4915,-92.9548,-564.8771
14100.0000,-124.0762,683.6428,474.3731,840.6639,-100.5979,-534.2125
14120.0000,-88.6036,688.5441,477.7190,849.5410,-90.9104,-512.6981
14140.0000,-110.1892,656.5594,469.3917,833.5782,-96.5925,-541.3893
14160.0000,-95.4663,686.5419,477.7081,844.5912,-92.8414,-506.5643
14180.0000,-96.2875,690.6121,474.3857,840.5586,-86.7170,-505.4570
14200.0000,-127.3948,678.5698,467.6654,812.6216,-119.8236,-538.5094
14220.0000,-87.3997,673.6830,467.4479,825.5120,-115.6978,-504.5268
14240.0000,-128.3102,661.4380,444.6634,805.6728,-119.7758,-519.4358
14260.0000,-132.5511,653.5693,442.4071,797.4080,-124.8473,-510.6751
14280.0000,-128.2091,652.4618,441.6295,805.7405,-125.6418,-503.2978
14300.0000,-120.6402,661.5522,466.4428,811.3672,-117.9774,-475.7558
14320.0000,-153.1315,637.4868,438.6028,783.7903,-134.5077,-478.2079
14340.0000,-118.7017,654.5905,466.4836,819.3453,-120.0502,-444.7949
14360.0000,-111.0373,659.4019,474.5579,819.8545,-109.4649,-440.1539
14380.0000,-92.7650,664.7344,473.5302,813.2642,-120.1430,-411.8932
14400.0000,-96.9816,654.3961,473.5102,809.8749,-134.3394,-426.1093
14420.0000,-119.8256,627.7026,469.5924,806.2163,-143.2116,-428.9186
14440.0000,-114.9699,635.4217,469.4724,783.9224,-146.2912,-421.9712
14460.0000,-123.8213,630.7263,469.6431,775.1512,-182.2724,-444.9933
14480.0000,-123.9087,597.3387,449.3998,764.9588,-182.2015,-437.9427
14500.0000,-139.8737,615.8121,451.7067,766.1204,-192.4135,-442.0885
14520.0000,-125.8998,595.2992,469.3504,760.9945,-207.1852,-424.9482
14540.0000,-119.9367,595.7391,471.7503,759.0417,-210.5251,-412.1287
14560.0000,-118.9148,601.2385,475.2543,765.0203,-202.0169,-403.8661
14580.0000,-127.9207,565.7189,447.8204,720.0012,-246.6149,-431.1111
14600.0000,-122.8637,552.1751,455.1992,721.0303,-257.0117,-410.8564
14620.0000,-124.8923,559.8045,439.8934,715.9678,-269.6730,-420.0831
14640.0000,-122.8770,532.1656,473.1118,722.0550,-284.8793,-404.8027
14660.0000,-135.8832,517.8304,447.9666,699.9201,-314.8098,-411.1085
14680.0000,-150.9053,505.0106,447.0366,691.0937,-335.8176,-414.7920
14700.0000,-148.8565,504.9548,453.0703,686.9189,-365.9052,-412.1179
14720.0000,-156.9651,491.9759,439.9464,641.0923,-404.7494,-429.7983
14740.0000,-175.8399,464.9883,442.1262,633.8743,-424.0590,-439.0483
14760.0000,-187.9513,430.9248,410.8430,602.1083,-467.7327,-446.7478
14780.0000,-194.8443,440.1487,418.1935,592.8032,-481.1040,-466.0899
14800.0000,-200.0676,438.8050,414.7776,594.1345,-497.7117,-457.8004
14820.0000,-210.8274,403.1754,392.2694,550.7731,-551.1675,-447.0778
14840.0000,-250.1008,389.7289,374.6914,512.1136,-575.7256,-477.8356
14860.0000,-234.7749,399.2643,384.3448,514.7468,-564.2502,-456.0232
14880.0000,-245.1216,375.5094,379.5901,506.1336,-585.6299,-445.9283
14900.0000,-269.7321,356.3006,362.3827,485.7132,-613.3311,-464.9844
14920.0000,-269.1562,337.5561,355.5163,472.1366,-631.6490,-455.9818
14940.0000,-270.6971,326.2992,357.4653,473.6721,-636.3298,-420.9365
14960.0000,-273.2285,307.4177,352.4624,474.1427,-660.6816,-421.9505
14980.0000,-298.6702,271.3667,331.4831,443.6298,-665.3963,-419.8401
15000.0000,-306.3218,296.3803,319.4050,442.1461,-689.5976,-411.0872
15020.0000,-326.6353,270.4336,302.5468,417.6085,-691.3566,-414.7726
15040.0000,-319.3698,265.2510,305.3533,415.1718,-694.6760,-413.0989
15060.0000,-335.6317,240.5874,282.5628,405.5752,-722.3826,-387.7378
15080.0000,-355.4117,233.1338,261.3193,377.1738,-753.6548,-406.2418
15100.0000,-377.5192,203.5979,238.6213,354.5848,-791.3787,-418.5705
15120.0000,-351.4537,230.0741,256.2516,386.1492,-766.7242,-360.3160
15140.0000,-359.5052,205.6474,248.6468,376.5732,-768.3883,-361.5067
15160.0000,-361.5624,201.1275,236.2081,372.1840,-781.7645,-344.4000
15180.0000,-346.4491,239.7478,258.6571,388.5435,-771.3332,-311.3702
15200.0000,-366.5639,204.0746,213.2249,360.1848,-798.8208,-340.5363
15220.0000,-368.3797,187.6117,211.6489,380.5518,-784.3043,-317.2609
15240.0000,-357.6455,198.0592,213.2033,386.1649,-776.8074,-283.6218
15260.0000,-354.3286,182.6492,186.6540,359.5425,-799.2640,-293.1404
15280.0000,-363.6513,189.0829,194.1771,390.1896,-769.9218,-256.8161
15300.0000,-371.2957,182.6666,187.6529,370.5659,-784.1835,-260.9398
15320.0000,-386.7657,173.9411,177.1755,357.1651,-814.0582,-262.9945
15340.0000,-377.2186,180.6753,173.6139,364.5305,-815.1378,-256.8169
15360.0000,-416.7574,148.0394,146.1830,327.1330,-864.1491,-310.1137
15380.0000,-413.2299,134.6446,131.6073,346.5507,-846.0907,-294.6299
15400.0000,-407.8321,150.0264,144.1990,353.1290,-847.2372,-293.3395
15420.0000,-409.1461,150.7611,144.6198,363.6011,-833.9525,-281.4823
15440.0000,-400.9119,132.9253,146.2003,362.0700,-863.3372,-277.4850
15460.0000,-417.0869,124.6605,124.5759,356.6454,-873.8390,-288.2570
15480.0000,-413.9540,125.9578,132.2028,351.0095,-866.4140,-286.6415
15500.0000,-368.0674,167.6620,160.5728,388.6701,-842.7264,-242.1643
15520.0000,-380.9443,156.0660,149.2332,388.9653,-849.4991,-246.7967
15540.0000,-383.0436,157.6688,155.5302,385.7319,-866.7139,-236.9959
15560.0000,-380.9767,161.0712,152.2831,390.9324,-843.5089,-235.9396
15580.0000,-388.0401,167.6053,147.4924,401.8122,-844.5437,-228.7569
15600.0000,-391.9975,165.0963,134.3287,397.8463,-842.5994,-228.1492
15620.0000,-389.9557,156.6129,134.4377,401.8799,-847.5646,-223.5997
15640.0000,-394.0294,154.1743,150.3720,403.7685,-828.6505,-215.2311
15660.0000,-379.9478,172.5193,153.4276,411.9802,-815.4647,-199.4596
15680.0000,-363.0952,183.1168,166.4100,437.6919,-784.7850,-155.4659
15700.0000,-355.9299,194.5812,182.3765,454.0816,-780.3920,-128.2575
15720.0000,-348.0967,195.2888,176.4456,459.5963,-784.8427,-126.5120
15740.0000,-373.9380,198.5247,155.3440,440.1693,-813.3434,-143.1353
15760.0000,-366.0648,186.2038,168.4913,449.5191,-793.8379,-131.6361
15780.0000,-359.9287,209.4430,180.2921,450.2816,-769.2297,-123.0253
15800.0000,-365.0772,212.3218,163.5114,448.4111,-749.9532,-99.8033
15820.0000,-350.8685,214.4009,188.2632,479.3859,-737.1520,-84.9370
15840.0000,-336.1350,240.4327,183.5694,471.2907,-721.9553,-89.9079
15860.0000,-348.9299,217.3437,171.2223,475.5074,-732.1520,-88.8357
15880.0000,-355.0835,233.3450,166.6200,465.2060,-751.0073,-93.9555
15900.0000,-347.9316,240.3919,175.2029,465.6358,-718.1008,-89.7940
15920.0000,-308.1049,294.5180,214.6688,511.0850,-691.9706,-28.9946
15940.0000,-319.9105,297.3427,208.1746,502.7769,-709.1164,-53.7003
15960.0000,-319.0909,286.5858,199.7015,496.9477,-691.0031,-37.0065
15980.0000,-319.9165,308.2713,207.1389,498.8762,-689.9904,-36.7239
16000.0000,-287.0407,328.4865,233.7455,510.8448,-654.0294,-22.0277
16020.0000,-310.8827,321.1961,211.0761,510.0070,-667.0005,-25.6892
16040.0000,-295.0820,346.6213,225.7692,528.7294,-635.0633,-3.0495
16060.0000,-280.9349,338.2937,241.0743,549.1425,-629.9841,0.3357
16080.0000,-280.0516,352.6325,242.8046,563.6399,-602.0508,31.8752
16100.0000,-275.9049,375.1577,241.0519,564.2712,-565.9175,44.2197
16120.0000,-276.0348,380.7156,237.8441,560.5301,-600.0884,38.8241
16140.0000,-269.8593,392.2671,237.0177,574.3816,-562.8938,59.2139
16160.0000,-262.0368,392.6878,255.8577,597.4230,-568.0983,79.8808
16180.0000,-264.8867,382.2959,256.0380,598.5344,-563.8495,90.2259
16200.0000,-248.0432,414.6219,277.8737,628.2967,-522.0840,123.9109
16220.0000,-226.8809,418.1820,292.0200,636.6506,-505.7430,127.1275
16240.0000,-248.0480,413.6217,271.8758,627.2032,-514.1611,119.9837
16260.0000,-223.8525,444.2779,288.0360,632.7670,-506.7971,141.1663
16280.0000,-214.0944,443.6831,295.8766,662.1183,-474.1212,180.0504
16300.0000,-214.8523,442.2954,294.0527,659.8544,-462.6914,180.1038
16320.0000,-222.0815,454.6450,296.8678,651.0553,-506.1757,168.0718
16340.0000,-213.8188,480.3558,299.0456,665.9338,-467.6109,186.9731
16360.0000,-240.1378,435.6933,267.8402,662.9538,-439.2027,187.1249
16380.0000,-206.7444,475.3912,302.0785,702.0272,-408.5861,238.9681
16400.0000,-188.1667,498.6382,323.8481,711.9251,-419.2559,222.2160
16420.0000,-176.6770,503.3283,341.1070,727.1226,-398.4747,248.9012
16440.0000,-201.2101,471.5394,318.8556,718.8616,-408.3785,234.3303
16460.0000,-184.6790,504.3473,324.0825,719.1552,-406.4728,243.8288
16480.0000,-179.2025,537.6312,339.8233,733.8220,-396.4015,247.3666
16500.0000,-146.6313,527.4727,368.1291,750.2258,-377.3468,271.7217
16520.0000,-143.2526,545.5944,375.8433,754.7976,-354.3987,280.5253
16540.0000,-154.5582,567.3575,368.1389,757.2430,-354.3126,275.6263
16560.0000,-143.2953,565.5218,373.8385,783.7988,-347.5036,293.5619
16580.0000,-121.4647,595.4607,395.1553,791.2797,-314.1544,310.5709
16600.0000,-129.3349,594.5768,376.8126,775.7736,-309.5868,290.6741
16620.0000,-128.4463,604.4691,401.1912,807.3032,-286.1346,297.5382
16640.0000,-85.3579,635.5818,443.8250,846.7899,-247.6102,276.7475
16660.0000,-98.3582,624.6126,427.2221,841.3320,-252.0398,251.4438
16680.0000,-94.4748,639.5252,430.7758,837.7930,-244.7160,260.7574
16700.0000,-91.3221,659.5353,439.2798,849.3294,-239.9129,262.4228
16720.0000,-87.4923,664.5839,443.7646,851.8127,-225.8095,273.7772
16740.0000,-91.2661,657.5687,440.3058,859.3359,-205.8197,256.3394
16760.0000,-87.5313,660.4189,444.7482,870.8523,-183.8018,269.8583
16780.0000,-80.1524,673.7078,469.3489,893.3277,-172.7266,280.2851
16800.0000,-104.6059,653.4175,441.7028,875.8630,-155.9480,270.9113
16820.0000,-98.1370,656.6152,435.3318,874.2875,-157.6416,271.2598
16840.0000,-92.6618,667.5190,470.6965,902.8775,-144.9812,287.8807
16860.0000,-100.1087,665.7581,440.3722,868.2300,-151.6189,261.2107
16880.0000,-91.6935,714.5204,482.6598,888.9379,-131.0141,273.9344
16900.0000,-62.0748,716.7744,507.4015,921.2034,-92.5028,309.2486
16920.0000,-32.6896,735.4377,511.6523,944.9930,-68.0220,321.9334
16940.0000,-66.0603,698.6830,487.4502,921.1677,-95.4290,305.1423
16960.0000,-64.7536,707.3497,497.6106,938.0048,-69.0675,305.0044
16980.0000,-67.9747,702.6801,496.4716,922.1159,-67.4501,294.1949
17000.0000,-11.7668,744.3806,563.6260,1005.0903,6.7515,365.0434
17020.0000,-58.9774,696.7136,535.5133,978.0805,-19.3827,336.1344
17040.0000,-53.8003,720.4448,524.5858,957.1151,-25.1778,331.0813
17060.0000,-28.9289,753.7087,544.5525,987.0500,4.5929,360.1103
17080.0000,-47.7848,731.3954,533.5446,967.1780,-26.1912,336.0944
17100.0000,-49.9724,746.7347,542.5858,980.9589,-17.3748,338.1384
17120.0000,-38.8134,742.3615,530.5314,977.2251,-35.1342,320.0898
17140.0000,-33.9407,773.8179,564.6326,1002.9014,1.6206,338.1223
17160.0000,-16.7791,758.4719,571.4931,1007.2913,27.6830,359.0855
17180.0000,-33.9431,729.7894,564.6672,1012.8629,4.5955,356.0771
17200.0000,-36.8165,731.3856,559.4367,996.3278,3.7324,343.0630
17220.0000,-37.9696,748.7380,568.6862,1013.8024,7.5733,341.0616
17240.0000,-50.8126,726.3971,554.4229,976.3802,-25.1866,301.1185
17260.0000,-29.9382,728.7943,565.7260,1007.7439,-24.3681,313.0703
17280.0000,-35.7832,679.3845,564.3947,1010.4640,-30.1202,297.1617
17300.0000,-66.9470,660.6870,536.7359,978.6486,-35.4599,262.0077
17320.0000,-68.7412,677.3808,539.3561,980.5127,-35.0447,275.1293
17340.0000,-20.9919,699.7298,574.7852,1015.5832,6.4411,303.0208
17360.0000,-86.7595,655.2720,529.2962,961.5749,-38.0869,247.1670
17380.0000,-87.0235,652.7253,529.7814,956.4942,-64.5105,240.9184
17400.0000,-92.7746,647.2856,529.2695,958.6472,-59.0060,254.1289
17420.0000,-90.0652,631.7830,527.8116,930.4227,-84.6760,241.9129
17440.0000,-70.6894,632.3505,533.2729,947.7523,-94.9175,264.1646
17460.0000,-60.0724,662.6722,561.8201,954.3345,-66.7741,272.9135
17480.0000,-62.6942,627.3574,527.2457,941.8008,-97.8269,261.2149
17500.0000,-63.1191,627.7944,541.8423,953.2436,-88.8376,274.8222
17520.0000,-61.6619,639.3144,545.2339,955.9044,-60.7483,289.2178
17540.0000,-75.1407,601.7200,518.8390,906.1278,-115.8660,277.8549
17560.0000,-97.6155,618.3777,514.2280,917.9927,-96.6300,275.2685
17580.0000,-56.1646,628.7782,536.8005,921.0178,-83.1005,294.7391
17600.0000,-86.5904,619.3694,523.2766,901.0836,-112.5223,275.3040
17620.0000,-95.1922,590.7307,501.7906,894.9335,-122.1844,273.7820
17640.0000,-91.5777,598.2931,503.2870,878.1912,-118.3626,277.3887
17660.0000,-100.2636,592.7059,478.7412,868.7936,-139.3179,263.7293
17680.0000,-83.4974,602.2988,513.3152,879.2911,-147.2785,279.3720
17700.0000,-98.2945,582.7145,507.6818,860.6965,-155.4628,250.6046
17720.0000,-101.4811,554.3045,486.3743,857.4025,-156.1929,270.4452
17740.0000,-160.4198,517.5561,436.6230,785.5510,-218.6672,238.5933
17760.0000,-142.4324,548.3615,449.4289,805.5065,-217.9869,254.4804
17780.0000,-133.4756,557.5509,446.5387,806.4216,-210.7848,272.5044
17800.0000,-154.3573,534.4495,447.5235,787.6331,-236.7952,262.6278
17820.0000,-142.5328,551.5044,447.4375,799.2967,-222.0130,282.4206
17840.0000,-157.2957,534.5206,432.6171,774.7529,-247.6437,242.7092
17860.0000,-159.6341,536.4794,433.3161,776.1298,-236.2211,245.2736
17880.0000,-151.1806,535.5929,442.7199,780.9081,-219.4202,260.7603
17900.0000,-185.7281,524.4416,406.1974,742.0108,-252.3177,234.1545
17920.0000,-159.1348,535.6710,432.8513,753.0193,-257.3266,243.8064
17940.0000,-154.7966,543.2766,439.0757,760.8864,-238.5973,275.0931
17960.0000,-152.0021,537.7647,441.9752,749.1497,-255.1452,272.9856
17980.0000,-189.8848,525.2267,408.9170,722.7070,-276.7917,247.0159
18000.0000,-181.9154,533.8948,406.1261,719.2667,-253.9279,272.0770
18020.0000,-174.0501,532.0750,406.7895,743.6204,-237.0327,286.9291
18040.0000,-186.8196,532.0456,399.2667,716.3867,-240.7030,270.1407
18060.0000,-183.1708,531.9203,389.6319,715.4630,-265.1974,268.7220
18080.0000,-183.6670,538.1783,379.4000,714.5206,-260.4637,272.3162
18100.0000,-162.2641,561.6639,407.4647,725.3502,-247.4182,294.6218
18120.0000,-158.5166,561.2808,419.5800,726.6664,-223.2464,304.4055
18140.0000,-153.4329,565.4718,415.3095,736.2231,-239.6806,300.5212
18160.0000,-156.3558,574.5849,433.7445,748.7726,-245.9994,306.5771
18180.0000,-156.6175,534.3781,409.1298,749.1244,-243.8823,293.3326
18200.0000,-159.2150,566.6432,429.9190,754.8704,-233.7391,292.7294
18220.0000,-178.7471,525.2032,415.9841,750.0273,-263.0936,272.2823
18240.0000,-154.0266,537.9485,416.0623,766.9674,-238.6053,294.8079
18260.0000,-175.8981,526.9700,403.8454,736.9319,-259.3378,267.1464
18280.0000,-190.8584,496.1332,378.1883,721.0115,-278.3730,242.9852
18300.0000,-185.1079,524.7558,403.7090,732.8740,-260.5362,258.9569
18320.0000,-193.7183,501.3412,374.3259,718.0638,-283.1567,240.0629
18340.0000,-142.2477,542.4566,431.5747,772.8312,-232.6814,304.8676
18360.0000,-172.5913,526.6567,390.4442,735.1022,-273.0475,277.2303
18380.0000,-169.4126,541.2233,410.4459,750.8010,-249.8536,263.7077
18400.0000,-163.3789,552.8180,401.5353,753.1364,-246.8237,277.3546
18420.0000,-189.6048,524.0439,390.3682,721.7615,-271.9804,241.6480
18440.0000,-171.2738,540.0945,407.6375,749.1497,-249.6633,250.4229
18460.0000,-190.6882,528.7842,393.2713,740.7926,-242.2128,228.4632
18480.0000,-174.0657,553.2987,415.7122,774.1442,-236.6021,235.5368
18500.0000,-150.8202,564.4352,443.2556,808.8002,-197.2918,267.3498
18520.0000,-150.9551,564.4858,410.7325,784.1279,-191.4443,269.7272
18540.0000,-146.9820,585.3130,446.2187,807.8509,-186.3425,275.3287
18560.0000,-132.8208,602.7305,441.7562,816.0565,-149.2968,296.7581
18580.0000,-133.0897,593.0747,444.2005,807.8867,-155.5224,288.1903
18600.0000,-145.7309,596.9484,440.7689,812.0113,-149.2188,286.8405
18620.0000,-149.1881,592.8895,440.1951,810.9454,-157.5648,279.1345
18640.0000,-128.6956,602.1194,462.7663,842.9654,-153.2559,287.9381
18660.0000,-121.2402,629.7589,463.2313,838.0509,-124.5953,313.0704
18680.0000,-116.6628,607.2627,472.7039,830.8418,-139.2245,292.9770
18700.0000,-100.2293,654.5276,485.2989,862.1292,-120.5333,301.0735
18720.0000,-126.6134,651.4269,467.6357,842.7756,-111.1677,274.0323
18740.0000,-118.2835,655.3801,474.3743,865.2166,-104.6344,287.9692
18760.0000,-87.5810,668.6757,505.5914,896.7116,-90.1847,310.1158
18780.0000,-96.3170,657.2463,474.4454,868.3049,-89.6003,278.9570
18800.0000,-113.5883,670.7793,501.5269,874.6047,-85.2525,295.1319
18820.0000,-61.2577,664.2844,523.5300,925.4108,-49.4816,341.9152
18840.0000,-100.6126,657.7452,498.4122,887.4897,-80.2246,290.1322
18860.0000,-89.2246,678.1801,508.6273,902.5087,-60.4568,324.9781
18880.0000,-90.6759,658.7996,504.3141,903.3999,-95.3149,304.1057
18900.0000,-103.1854,655.0270,502.7206,917.6140,-70.4336,308.9583
18920.0000,-84.7042,692.8955,537.2004,930.3301,-60.3912,329.1052
18940.0000,-96.1519,679.0877,504.8313,914.7084,-66.2644,292.9496
18960.0000,-91.8099,681.9593,517.1011,936.2313,-23.4860,311.0236
18980.0000,-69.9872,710.1579,519.9649,919.7985,-39.2286,300.0285
19000.0000,-92.8358,690.9080,511.9640,938.1278,-29.5617,305.9711
19020.0000,-78.9615,719.1455,508.0806,924.8693,-39.1286,300.0631
19040.0000,-88.9700,684.9113,513.8528,935.0596,-28.6695,329.9277
19060.0000,-82.8022,717.1926,530.2092,951.9802,-4.0020,334.1328
19080.0000,-55.0337,758.7804,547.7770,980.9815,22.1017,358.9547
19100.0000,-88.7187,709.2892,528.2900,943.0353,-23.8548,328.1786
19120.0000,-80.1604,723.8174,529.6365,951.9153,0.9973,332.8384
19140.0000,-51.6006,754.3867,571.4211,987.1415,33.2449,378.2734
19160.0000,-65.3546,718.7429,537.5428,979.8373,18.8678,359.7061
19180.0000,-65.4739,713.4625,558.4997,978.1776,27.3123,369.3740
19200.0000,-74.4644,698.5243,540.4733,958.7876,-11.1909,346.6476
19220.0000,-66.3509,716.5743,550.5891,957.2327,-20.4682,359.4622
19240.0000,8.3712,757.3624,615.3917,1040.7764,42.5514,426.5790
19260.0000,-22.1993,753.5829,588.6745,1004.3055,11.5759,397.5369
19280.0000,-64.7220,725.3401,560.3177,967.7219,-22.4996,361.4491
19300.0000,-63.0830,708.8777,562.7465,980.3156,-23.1705,370.7073
19320.0000,-62.8337,693.1318,564.2826,983.7062,-33.6750,354.2962
19340.0000,-58.9395,676.9682,568.7728,1012.3611,-20.0528,382.7645
19360.0000,-57.9333,684.9950,568.2121,993.6525,-34.8130,384.1802
19380.0000,-52.8572,699.0604,571.8348,1002.4177,-37.9098,381.8759
19400.0000,-31.0374,723.8713,591.1914,1001.6429,-28.8749,386.0908
19420.0000,-51.7317,708.3663,569.8470,983.4593,-23.7506,379.0441
19440.0000,-47.1680,684.6588,571.1793,995.5814,-9.0125,399.9406
19460.0000,-66.6384,694.4141,568.8689,987.4799,-27.6003,381.2138
19480.0000,-40.2293,728.5231,589.1619,992.5599,-16.1960,389.8022
19500.0000,-64.5273,687.5998,559.8799,966.5073,-63.4755,348.2778
19520.0000,-64.3803,722.3812,573.1610,960.5220,-60.2523,351.7091
19540.0000,-74.4323,685.7615,560.8688,955.5122,-66.3504,341.4630
19560.0000,-83.4256,664.0734,572.1655,953.5034,-69.4220,334.5258
19580.0000,-54.2998,706.8734,590.8924,969.5745,-25.2618,359.5782
19600.0000,-74.5253,700.9537,558.1600,931.4705,-63.4504,325.4091
19620.0000,-52.2968,715.1735,578.8882,950.5984,-59.1756,353.6754
19640.0000,-53.5465,702.7868,593.1712,946.4480,-58.5774,347.3250
19660.0000,-40.2299,702.2070,599.8600,945.6155,-59.0732,357.7927
19680.0000,-71.6353,677.7184,556.2093,893.3911,-103.7267,298.1946
19700.0000,-49.1614,695.3740,600.8272,952.6807,-64.9414,337.9034
19720.0000,-31.6700,691.5317,586.2142,929.3613,-50.8261,355.0382
19740.0000,-61.1232,670.5883,561.7869,898.7046,-61.8707,328.0104
19760.0000,-66.7547,658.3497,564.2667,920.2915,-84.9188,326.9530
19780.0000,-83.0722,662.7332,540.7744,885.7454,-105.8438,299.1332
19800.0000,-94.7315,639.2905,531.2827,869.2068,-131.9349,274.7731
19820.0000,-99.0592,619.8234,534.7429,860.8109,-123.7578,268.3133
19840.0000,-81.7571,638.1798,550.2900,877.1603,-110.0440,294.6752
19860.0000,-89.0466,621.9334,534.7292,838.8823,-164.6380,266.3731
19880.0000,-110.7934,595.0555,537.2992,847.0798,-145.1193,239.5691
19900.0000,-118.0428,595.9440,514.6821,837.9457,-156.6147,201.4327
19920.0000,-122.8219,602.9417,517.3314,836.0192,-151.1633,186.5002
19940.0000,-102.9936,625.0975,530.7131,842.0286,-151.4523,191.5231
19960.0000,-119.8960,600.8795,505.3278,810.9162,-155.3104,162.4446
19980.0000,-138.9665,584.1259,498.6450,804.0864,-162.4374,147.5871
20000.0000,-118.8957,626.9109,507.3551,805.8701,-150.2752,170.3687
20020.0000,-89.9880,626.1993,516.6333,844.1375,-121.4430,213.6607
20040.0000,-101.8769,609.7573,508.4179,828.8093,-149.3220,208.3040
20060.0000,-123.9417,572.2552,505.5934,810.2002,-158.3712,187.6935
20080.0000,-125.8993,571.8343,498.3967,805.7250,-195.4345,182.3135
20100.0000,-131.9507,574.2932,470.5938,794.2775,-187.3426,153.7590
20120.0000,-121.9069,592.7313,475.3957,808.6456,-151.4468,165.2204
20140.0000,-145.9259,563.1901,478.5873,790.3548,-202.2997,133.7978
20160.0000,-125.9583,570.7718,477.4249,809.5652,-184.5212,149.1544
20180.0000,-124.8568,570.3544,481.5596,814.4130,-177.1849,147.8094
20200.0000,-144.0202,568.7652,470.4346,794.4909,-210.6442,141.1563
20220.0000,-126.8256,571.3641,476.5729,819.4996,-183.0795,158.8743
20240.0000,-120.0733,574.7293,490.4270,832.4402,-172.7313,187.1560
20260.0000,-132.8149,576.3576,474.5423,795.5283,-219.1249,149.9265
20280.0000,-124.0674,570.7367,469.4485,812.3816,-214.7519,161.0933
20300.0000,-142.7535,570.3796,464.5459,790.5887,-230.9855,133.9353
20320.0000,-152.1403,560.6005,460.4460,785.3334,-218.7912,123.0815
20340.0000,-130.7071,563.2266,468.5618,807.6417,-216.9035,125.8971
20360.0000,-135.1729,565.5927,460.4489,833.3235,-180.8667,157.0440
20380.0000,-118.6595,586.3019,475.5562,839.6874,-177.8632,177.9959
20400.0000,-157.2694,559.6180,445.4564,803.2838,-204.0086,139.9726
20420.0000,-176.5741,558.2149,427.5264,779.6548,-224.8380,111.9786
20440.0000,-155.3314,569.7506,441.4420,778.2636,-224.0672,113.8923
20460.0000,-156.5334,567.3507,441.5063,811.7034,-183.6920,131.0274
20480.0000,-141.3891,567.5911,454.4623,813.2256,-214.0929,148.8491
20500.0000,-146.4972,563.1946,429.4929,780.7105,-230.6713,155.1542
20520.0000,-181.4594,544.6719,424.4703,796.2551,-242.2073,113.7878
20540.0000,-157.4164,553.2167,437.4810,804.7115,-208.6276,160.2103
20560.0000,-139.5118,581.7316,450.4881,809.2366,-208.2569,166.8190
20580.0000,-118.3262,591.2629,477.4698,834.6881,-181.5097,193.2511
20600.0000,-130.6194,600.6584,454.5189,835.2777,-172.3356,189.7160
20620.0000,-160.2595,594.2605,438.4418,806.6892,-197.4351,160.3650
20640.0000,-153.6823,595.6688,439.5390,820.2897,-179.3701,180.6582
20660.0000,-146.1844,618.3466,452.4201,853.6602,-145.3592,217.4025
20680.0000,-120.7825,615.6016,477.5939,847.3084,-155.4765,215.5966
20700.0000,-120.1122,598.2511,472.3647,861.6474,-154.3438,217.4790
20720.0000,-122.7889,614.6100,475.6139,856.3802,-152.4368,144.4716
20740.0000,-127.0028,628.3332,465.3107,840.5915,-127.2405,154.5805
20760.0000,-127.8910,623.7193,474.6675,858.4352,-128.5272,153.3797
20780.0000,-115.9482,629.3516,479.2658,875.5438,-125.1969,185.5897
20800.0000,-132.9848,623.6945,465.7225,844.4878,-136.5274,178.3141
20820.0000,-102.8985,648.3026,486.2016,877.4673,-125.1606,193.7180
20840.0000,-118.0185,625.6757,473.7984,870.5953,-152.5654,188.2541
20860.0000,-116.8519,636.3743,476.1476,847.3823,-181.1111,184.8037
20880.0000,-95.0703,662.5356,481.8718,877.6714,-137.6619,208.2162
20900.0000,-85.7832,687.4081,505.0603,891.3392,-143.1040,211.8126
20920.0000,-88.0840,688.5742,506.9272,888.7581,-146.6314,208.1469
20940.0000,-114.7693,655.3779,478.0036,879.2474,-154.1222,207.8950
20960.0000,-111.0735,664.6294,479.0221,873.8581,-170.5755,189.1321
20980.0000,-130.7722,649.4362,465.9095,851.1240,-185.1510,154.9584
21000.0000,-108.1366,653.4695,488.0952,883.9404,-165.5857,195.1239
21020.0000,-105.7749,665.5891,484.8572,892.0523,-126.1079,191.9294
21040.0000,-96.0651,672.5327,489.1711,877.0733,-139.5920,203.0700
21060.0000,-105.7840,702.5061,499.7920,889.9122,-134.2052,187.9670
21080.0000,-76.0782,726.4851,509.2695,900.1928,-89.5201,231.1463
21100.0000,-74.7748,717.6697,507.7203,909.8412,-112.1752,221.9558
21120.0000,-92.0663,705.3516,508.3128,909.3246,-112.4333,229.1147
21140.0000,-67.7680,695.6151,508.6470,922.7108,-116.2065,230.0076
21160.0000,-94.0393,699.3184,505.3898,912.4334,-119.3145,210.1621
21180.0000,-91.8764,690.6822,498.5914,900.6024,-130.3015,177.9145
21200.0000,-61.9497,731.3311,519.4628,929.5654,-97.2448,220.2211
21220.0000,-69.8849,724.7917,525.5286,918.4915,-115.3843,193.8843
21240.0000,-86.8694,679.2946,505.5036,899.6597,-123.1970,181.2948
21260.0000,-93.0381,683.7801,497.4433,884.3576,-148.5183,161.7458
21280.0000,-82.7487,672.2789,506.5587,905.7783,-122.0737,182.3162
21300.0000,-72.0877,693.7858,506.4348,899.2607,-134.7253,186.6524
21320.0000,-77.6897,688.1984,507.5905,911.9077,-118.8523,193.4515
21340.0000,-68.1794,682.8532,502.3782,898.1553,-132.7701,181.5270
21360.0000,-63.5606,684.1810,518.6531,886.9973,-149.7137,186.6496
21380.0000,-62.3464,689.8589,527.3435,893.0364,-121.0131,191.3813
21400.0000,-32.4059,696.1104,539.6617,923.1295,-99.5342,215.7854
21420.0000,-58.4528,665.9731,537.3608,913.9405,-106.1566,217.2671
21440.0000,-61.2901,662.0292,517.6892,900.2230,-119.4596,179.9061
21460.0000,-58.5808,666.9977,535.3453,917.8515,-109.2975,214.1542
21480.0000,-65.1735,652.0355,517.6852,905.3096,-116.1920,186.1001
21500.0000,-66.7568,661.8915,537.3913,920.7717,-85.5045,209.9128
21520.0000,-75.0244,653.9884,515.6299,893.4035,-126.0743,193.1979
21540.0000,-95.8546,625.0356,498.4030,866.6798,-126.6325,179.7265
21560.0000,-79.8918,657.9689,507.6004,886.4500,-113.8707,192.4635
21580.0000,-60.0164,659.9369,529.4583,909.6515,-85.8343,205.5937
21600.0000,-99.7060,658.9491,487.5744,866.5089,-128.7192,161.6114
21620.0000,-84.1650,676.0574,530.4916,892.5791,-117.9160,173.4622
21640.0000,-71.5466,668.0715,523.5153,898.5867,-112.5457,174.7517
21660.0000,-109.2965,649.9991,491.5414,852.5307,-153.1938,111.2316
21680.0000,-63.4427,655.9120,524.4397,889.5995,-96.3876,153.9786
21700.0000,-83.4343,640.0516,508.6159,878.4847,-124.3102,130.0544
21720.0000,-93.3339,624.0034,494.3841,843.6265,-152.3315,97.0651
21740.0000,-62.5815,628.1152,517.6927,891.4836,-120.4789,134.9192
21760.0000,-84.1593,628.9743,509.3116,871.6282,-126.1280,119.2560
21780.0000,-79.7209,625.1430,494.7760,857.4612,-115.5332,125.8115
21800.0000,-83.0467,633.9336,508.1870,859.6404,-126.0227,119.3699
21820.0000,-91.8135,639.1217,505.8579,866.4597,-126.6709,121.7260
21840.0000,-94.9523,619.9564,507.0904,844.6083,-134.9835,120.3817
21860.0000,-89.8893,613.0634,503.9711,865.4828,-123.7816,123.6814
21880.0000,-122.8745,588.8698,480.9987,854.6123,-152.8879,94.5356
21900.0000,-111.9617,597.1179,477.0701,841.4965,-160.8697,94.5129
21920.0000,-127.8391,594.8257,476.8973,840.5481,-148.7516,93.5515
21940.0000,-113.0239,597.1363,475.1910,840.5516,-154.9553,91.5227
21960.0000,-108.7588,597.7991,477.7860,840.4930,-148.7025,91.5344
21980.0000,-92.0779,598.1594,481.2780,839.6163,-153.9919,94.4826
22000.0000,-96.7378,597.7711,480.6630,841.4310,-159.7296,101.5409
22020.0000,-96.0415,600.1861,472.3932,836.6830,-174.9847,98.5867
22040.0000,-92.7788,598.7332,486.5636,840.3530,-178.7294,96.5003
22060.0000,-121.1102,594.2332,467.5205,805.7302,-200.9345,63.6053
22080.0000,-90.7724,615.8154,505.4528,846.2724,-182.7140,96.4492
22100.0000,-92.0587,623.3542,486.6241,821.8218,-183.9003,91.6486
22120.0000,-101.8119,621.7400,471.3370,810.1723,-189.8225,70.3326
22140.0000,-99.9804,624.3986,471.7254,810.8883,-182.8696,82.7573
22160.0000,-85.8619,625.6792,501.2387,822.0804,-172.8794,92.2611
22180.0000,-86.9103,623.4542,498.8269,839.0206,-149.7823,117.8886
22200.0000,-85.9273,629.6167,474.1125,806.9659,-168.9737,97.1519
22220.0000,-92.8662,607.3909,475.9453,812.0925,-181.7291,84.0154
22240.0000,-120.0753,598.4801,469.0366,796.8389,-191.0435,60.9655
22260.0000,-101.7467,598.4755,482.0044,791.1918,-185.6129,61.0947
22280.0000,-129.1621,593.4322,464.9342,769.7422,-236.2026,31.8199
22300.0000,-126.6129,598.5455,466.0946,757.2850,-239.5981,32.2764
22320.0000,-125.2726,597.3572,459.8665,745.6298,-242.2893,25.6201
22340.0000,-117.5004,598.6085,469.1970,755.3841,-239.4799,30.4004
22360.0000,-120.4618,584.3289,477.7762,749.5233,-260.4138,26.4696
22380.0000,-126.3234,558.6526,461.2807,720.4818,-292.3279,3.6387
22400.0000,-157.6037,530.2639,447.6880,719.4038,-304.6104,-38.6128
22420.0000,-161.2139,528.8256,433.3348,680.5853,-335.1332,-63.1460
22440.0000,-130.7682,563.0751,463.6110,719.2883,-319.6682,-47.7901
22460.0000,-120.0210,569.9516,478.4304,712.7072,-318.9584,-43.8766
22480.0000,-118.9568,568.1309,473.5275,689.1915,-341.9198,-60.0293
22500.0000,-130.8335,566.8732,465.4802,677.7983,-351.8087,-65.7466
22520.0000,-145.1391,544.9608,431.4677,629.0497,-361.0639,-76.1284
22540.0000,-162.6040,536.0700,431.5474,625.8898,-399.6531,-122.6346
22560.0000,-165.3056,503.8281,432.3989,601.9451,-409.2823,-126.3300
22580.0000,-174.4030,507.0923,426.5903,586.9810,-424.5381,-151.4618
22600.0000,-161.5555,509.7117,420.3501,563.8359,-456.3858,-163.5454
22620.0000,-182.2437,500.2195,417.6619,548.0759,-474.3751,-193.2666
22640.0000,-179.7086,502.6453,408.2733,534.7225,-493.6578,-212.6876
22660.0000,-186.0577,495.3365,409.7294,539.1984,-505.0967,-209.1379
22680.0000,-180.9203,505.5410,412.2183,536.6490,-494.8383,-200.7929
22700.0000,-183.8538,510.3733,401.7877,501.2432,-535.9638,-216.9817
22720.0000,-194.1118,502.4624,386.1351,491.5388,-536.9609,-236.9399
22740.0000,-217.6364,475.5707,366.8442,451.3387,-571.7928,-268.9378
22760.0000,-212.3373,468.3086,381.0942,458.4253,-583.1812,-264.0989
22780.0000,-205.4667,475.6565,378.8784,457.4077,-563.6867,-269.8914
22800.0000,-214.5181,467.2352,369.0216,442.3335,-596.3557,-290.1943
22820.0000,-206.3072,474.5738,369.9337,446.5028,-593.5693,-302.8138
22840.0000,-217.6172,479.2930,377.9764,444.2973,-599.4790,-303.1906
22860.0000,-185.1749,478.7986,380.9709,427.5399,-607.4423,-311.7625
22880.0000,-208.7957,466.0965,369.9192,427.2081,-615.6391,-324.2428
22900.0000,-200.9735,485.8434,379.0281,436.6394,-595.2662,-302.7712
22920.0000,-185.9420,505.0897,382.9003,425.1454,-630.7747,-318.2121
22940.0000,-194.8891,508.8148,383.0839,420.6912,-614.1486,-323.8276
22960.0000,-219.0273,496.0816,350.8593,377.0580,-653.8488,-341.1426
22980.0000,-219.7820,475.9512,350.1101,413.7581,-635.0278,-339.9091
23000.0000,-212.1592,494.0559,353.8177,400.9998,-628.9898,-330.0599
23020.0000,-211.7129,499.9134,367.1443,413.8156,-650.9434,-319.9664
23040.0000,-198.2388,504.9935,367.8032,430.9815,-630.0507,-300.9811
23060.0000,-217.6023,501.9208,351.1577,391.8545,-664.9108,-333.0396
23080.0000,-188.3291,507.9688,375.7835,410.9260,-653.0846,-315.8872
23100.0000,-188.5148,500.9436,374.1853,410.9010,-654.8091,-319.1748
23120.0000,-203.3876,501.9900,356.7887,404.8747,-655.1103,-316.7670
23140.0000,-189.4936,517.8660,358.1765,404.8890,-657.8856,-316.3789
23160.0000,-222.3632,480.0917,333.7913,375.8742,-672.1227,-343.6435
23180.0000,-204.5016,511.8520,349.1259,382.8955,-671.8009,-319.5255
23200.0000,-177.3219,531.1306,366.8142,413.8819,-639.0951,-286.3943
23220.0000,-207.5207,497.8606,350.1473,408.8995,-651.8272,-294.7007
23240.0000,-192.3167,524.1967,351.8268,410.8843,-652.1051,-295.1853
23260.0000,-217.5433,500.7942,333.0746,409.9115,-659.9343,-303.8984
23280.0000,-193.2712,527.2512,361.8681,438.9004,-636.0408,-281.9972
23300.0000,-185.6313,534.7690,366.0621,432.8896,-636.9031,-275.1253
23320.0000,-188.2583,534.3170,366.9313,441.9152,-603.9698,-263.8119
23340.0000,-181.6671,541.6693,374.0221,449.8737,-594.0005,-257.3716
23360.0000,-192.1456,532.4100,354.9572,442.9761,-599.9401,-272.5797
23380.0000,-190.7258,532.5978,355.9302,460.8145,-586.0131,-268.5219
23400.0000,-185.0785,542.4914,369.0491,475.0219,-553.7973,-267.3306
23420.0000,-193.8585,530.4827,354.8410,471.7607,-568.1135,-283.7782
23440.0000,-186.9723,522.6847,373.1609,495.0958,-542.7663,-263.1127
23460.0000,-187.9440,530.3560,366.7764,499.6879,-538.1807,-261.0437
23480.0000,-184.8318,535.7715,378.2349,501.1939,-534.5923,-242.8663
23500.0000,-183.1334,545.1528,382.6653,504.6148,-522.4179,-241.2897
23520.0000,-189.7057,528.9542,371.3468,498.2742,-534.4573,-241.5965
23540.0000,-208.2794,534.0357,346.5246,475.4827,-533.4767,-261.5377
23560.0000,-154.4845,595.0793,391.5012,532.4089,-476.3469,-236.3473
23580.0000,-159.4608,601.8115,414.4275,564.3994,-435.5622,-215.7274
23600.0000,-142.3126,616.3472,417.6355,569.5472,-418.1214,-208.0499
23620.0000,-147.5736,595.6556,414.2852,572.2487,-429.7482,-214.9292
23640.0000,-160.1604,594.4286,410.7710,564.6926,-437.9638,-230.9071
23660.0000,-143.8192,605.4375,416.1243,572.0977,-404.9444,-230.1486
23680.0000,-179.9374,590.6324,397.9449,560.8582,-417.8231,-257.6559
23700.0000,-181.0085,598.2588,405.9710,569.9371,-400.0183,-248.4173
23720.0000,-184.7651,599.8061,401.0943,587.0228,-384.6552,-243.4769
23740.0000,-178.1889,600.0552,407.7972,596.7928,-371.2349,-212.5576
23760.0000,-187.5785,566.9524,407.2682,619.2178,-374.5701,-209.3107
23780.0000,-155.4181,604.8276,432.6275,630.5825,-345.3502,-183.7464
23800.0000,-177.2970,596.2344,415.4548,615.4308,-362.3601,-207.0878
23820.0000,-147.5893,598.6379,441.4501,666.3957,-308.5251,-157.8796
23840.0000,-155.1034,594.4498,439.6334,658.6368,-323.2247,-178.9656
23860.0000,-155.8557,601.4164,440.2703,662.1826,-326.6901,-182.0218
23880.0000,-151.8653,609.6105,443.8141,660.8658,-328.0308,-178.8227
23900.0000,-151.0589,624.2971,437.0812,673.9683,-309.8467,-156.2220
23920.0000,-148.5949,635.9178,441.0370,665.1041,-303.7859,-174.7018
23940.0000,-157.3308,626.0746,436.8788,659.7150,-310.0133,-190.3379
23960.0000,-154.3881,622.1792,437.2566,687.3845,-291.6880,-183.5669
23980.0000,-154.5428,593.8010,441.6608,700.4832,-306.1906,-186.3501
24000.0000,-143.1687,604.2853,449.4422,716.6152,-297.4992,-182.4518
24020.0000,-172.8076,590.6035,432.4661,685.2614,-323.3472,-216.4462
24040.0000,-180.9273,596.5267,421.6150,670.8708,-352.3318,-228.4023
24060.0000,-215.0579,560.3282,395.2895,628.9778,-383.4523,-257.5487
24080.0000,-196.7126,566.6700,400.8240,652.1039,-380.2272,-237.3093
24100.0000,-194.2325,565.1049,411.1104,652.7857,-404.5657,-221.5608
24120.0000,-209.5027,534.9617,411.9876,657.3164,-412.1188,-219.2993
24140.0000,-186.4798,562.9213,441.9353,692.5515,-396.7552,-196.5939
24160.0000,-183.2813,579.1730,439.1985,676.5590,-383.9376,-185.2632
24180.0000,-204.6546,557.7478,413.7336,647.3220,-428.9084,-213.6797
24200.0000,-207.0543,532.3499,419.3633,651.8107,-438.9070,-195.2299
24220.0000,-219.8810,528.6614,405.5561,650.0884,-443.0531,-194.7083
24240.0000,-227.8129,501.4645,411.5338,657.0364,-444.7302,-180.1969
24260.0000,-217.1357,509.3962,407.3906,653.8741,-444.1580,-186.6478
24280.0000,-210.6617,506.6087,414.6807,659.2508,-447.5844,-169.1545
24300.0000,-222.2887,481.3230,395.2531,634.6637,-449.2474,-166.6441
24320.0000,-242.4307,468.7182,376.8442,618.4483,-496.4799,-189.1460
24340.0000,-228.5113,473.2034,405.1079,626.4467,-477.4158,-156.7521
24360.0000,-227.2397,480.9808,401.9764,628.6163,-466.3376,-147.0907
24380.0000,-239.6807,469.9182,374.9652,601.2797,-477.5191,-150.7256
24400.0000,-247.1075,454.0244,380.0826,599.7950,-474.2928,-157.1000
24420.0000,-233.8025,470.9692,396.8666,630.1466,-476.6211,-132.6387
24440.0000,-215.9221,472.0704,412.1887,633.9585,-439.1955,-92.0961
24460.0000,-216.9985,469.7159,412.7803,642.9869,-473.6221,-96.6819
24480.0000,-224.8274,471.1640,403.2824,632.0625,-470.0161,-91.1877
24500.0000,-234.0961,450.6877,386.6967,619.8578,-476.8093,-96.6619
24520.0000,-236.6954,454.2863,388.3395,614.1681,-502.9532,-93.1544
24540.0000,-244.2733,437.6700,405.6353,629.7901,-476.8815,-98.5653
24560.0000,-251.5875,421.2736,377.3991,596.2420,-508.9600,-103.1838
24580.0000,-248.3328,431.6419,378.5982,624.6837,-503.8964,-70.5713
24600.0000,-225.4289,447.3817,390.4113,637.3513,-466.8259,-48.1975
24620.0000,-245.4693,427.6276,376.5404,626.6158,-480.9973,-59.5134
24640.0000,-236.4124,444.4029,385.4588,625.3941,-480.7891,-60.2824
24660.0000,-233.4649,442.5768,385.5665,628.6010,-471.9974,-36.4986
24680.0000,-261.3677,406.3370,357.4245,602.4200,-510.7969,-73.3061
24700.0000,-248.5223,422.6561,358.5478,604.5512,-508.0172,-64.4199
24720.0000,-253.2899,421.2609,352.4214,601.4210,-510.7819,-52.3256
24740.0000,-236.5515,438.6418,367.5753,633.5794,-485.0621,-20.3704
24760.0000,-271.3102,404.2654,340.3614,604.4083,-509.7748,-46.4567
24780.0000,-250.5648,422.7460,354.6370,611.5922,-489.0442,-19.2910
24800.0000,-239.2751,450.2167,358.3089,627.3840,-457.7714,2.4823
24820.0000,-259.5319,431.7869,346.6928,618.6078,-482.0830,-26.2788
24840.0000,-239.3028,439.1759,356.2497,632.3384,-474.7970,10.3832
24860.0000,-242.5448,440.8412,358.7500,629.6687,-477.0926,1.7435
24880.0000,-253.3708,444.0452,341.1508,631.2676,-472.8596,7.2413
24900.0000,-254.4703,441.9671,349.8477,625.7070,-482.0187,7.7353
24920.0000,-252.4387,427.7961,350.0545,654.2310,-449.8253,32.1817
24940.0000,-245.4077,441.1024,353.9665,648.8121,-460.9899,30.8748
24960.0000,-258.5669,444.7657,340.9435,627.1177,-477.9311,23.1228
24980.0000,-255.3005,433.2682,347.0633,636.8680,-463.9096,33.9031
25000.0000,-262.6950,404.5811,333.8262,656.0583,-479.0128,44.0694
25020.0000,-247.1492,437.3991,353.1513,658.9494,-469.7996,62.0473
25040.0000,-262.8057,438.4870,345.7356,654.9788,-474.1204,55.0284
25060.0000,-255.0627,447.5322,339.3020,651.0507,-480.7562,60.0835
25080.0000,-255.9075,453.2626,362.5991,647.8524,-507.2366,55.9661
25100.0000,-241.9209,442.7181,347.4301,647.1508,-490.5980,88.1332
25120.0000,-260.0854,427.0111,335.4670,624.7352,-532.3077,54.8532
25140.0000,-251.7556,451.8610,335.5390,649.2456,-517.5439,70.2378
25160.0000,-217.2188,480.9989,371.3297,687.6433,-460.4224,115.8197
25180.0000,-242.5963,467.9860,347.6991,655.3458,-481.4329,83.2962
25200.0000,-260.4138,461.7170,340.1944,653.5687,-506.5792,88.6910
25220.0000,-259.3690,448.2225,332.8220,634.4436,-500.3039,74.3925
25240.0000,-257.6067,449.5472,342.0288,631.4020,-511.7004,63.5793
25260.0000,-259.1675,460.3746,332.9599,628.5576,-535.1816,73.4610
25280.0000,-262.8412,452.3531,341.8862,637.3215,-525.8599,73.4904
25300.0000,-264.0005,468.5320,353.0826,656.6418,-505.0182,91.6120
25320.0000,-250.0402,470.1186,356.7591,660.2205,-509.9757,90.4540
25340.0000,-242.8236,464.7098,359.2186,654.7407,-505.8950,105.6867
25360.0000,-242.1965,492.0433,367.6578,654.1282,-504.0259,106.2938
25380.0000,-243.6162,470.8588,362.3324,652.8407,-484.7962,110.7823
25400.0000,-242.4152,466.7864,368.5248,656.0196,-510.2382,99.2489
25420.0000,-253.3799,435.1473,364.4851,652.9308,-486.6521,93.8231
25440.0000,-244.6510,448.6907,361.3904,661.9056,-439.3720,119.1560
25460.0000,-269.1819,442.2727,361.5827,653.0241,-482.5647,89.9360
25480.0000,-278.9218,438.5710,332.2467,625.8006,-478.4727,94.0480
25500.0000,-268.9564,444.4210,347.7276,635.1053,-482.4528,84.0114
25520.0000,-272.1064,445.4016,335.1471,628.7006,-479.5756,89.9651
25540.0000,-261.6947,452.5309,333.8277,622.1784,-473.2931,87.1831
25560.0000,-237.3693,464.1883,366.0239,632.6231,-451.6433,100.7556
25580.0000,-299.4561,434.7242,315.9306,595.2884,-501.2327,60.2544
25600.0000,-286.5948,439.1275,326.8801,624.4986,-472.7286,88.6890
25620.0000,-295.2671,438.8386,322.0708,618.3908,-483.1408,81.4172
25640.0000,-304.8630,424.8881,320.7387,613.4033,-486.8517,63.5437
25660.0000,-299.9854,421.8514,315.1943,623.4905,-478.0832,67.5736
25680.0000,-293.1083,405.8336,305.5956,622.2670,-476.9976,53.3971
25700.0000,-316.7654,400.0392,296.3396,609.6043,-470.9342,29.6606
25720.0000,-316.3262,419.6740,292.4507,593.1317,-435.9861,22.2172
25740.0000,-291.5258,426.2317,317.5001,625.7452,-432.8784,36.8689
25760.0000,-318.5724,440.6824,296.3324,588.0105,-442.1112,8.0698
25780.0000,-289.2824,451.2436,323.6117,631.9000,-403.7852,37.0336
25800.0000,-320.8084,418.5073,303.1983,627.8824,-414.1070,6.8776
25820.0000,-305.0774,440.3587,316.7393,656.0232,-377.8029,29.2433
25840.0000,-308.0531,442.5020,311.0370,654.7523,-383.1226,30.6624
25860.0000,-290.8215,444.4377,310.9352,655.1923,-349.7081,31.3929
25880.0000,-279.2651,453.3953,319.8728,661.5833,-347.1517,28.5322
25900.0000,-287.5732,467.4379,306.0910,646.3316,-369.6729,26.5920
25920.0000,-309.5032,434.3983,288.6996,627.4156,-411.1909,-7.5885
25940.0000,-305.3825,441.5859,290.2647,627.5000,-389.7636,-0.0479
25960.0000,-295.7270,474.3595,293.5242,648.2322,-372.2221,2.0987
25980.0000,-298.1237,467.5825,305.4603,650.7151,-390.7605,-7.9073
26000.0000,-294.9261,478.2841,300.3156,661.0730,-352.0945,8.8421
26020.0000,-280.8849,475.7970,303.6588,656.8925,-352.6868,10.2654
26040.0000,-273.0819,466.0928,319.1465,684.8731,-332.0990,23.6241
26060.0000,-266.6820,473.6859,327.8641,694.1025,-328.7546,39.4687
26080.0000,-275.2975,492.1270,353.9321,729.6942,-317.0500,41.4640
26100.0000,-271.5066,505.7975,354.0703,725.3344,-295.7727,67.6600
26120.0000,-286.4852,475.1317,339.7418,721.4616,-318.9959,47.2586
26140.0000,-288.3593,474.9348,331.2580,713.5182,-309.8469,33.8752
26160.0000,-255.6982,505.9907,361.5144,749.2774,-273.9973,56.0229
26180.0000,-250.1925,509.8750,368.5004,747.7584,-257.9003,62.0587
26200.0000,-267.8452,508.9415,338.2913,717.0440,-259.8914,43.7754
26220.0000,-288.0329,535.0031,356.6918,752.9641,-237.9939,35.3078
26240.0000,-260.9489,540.9815,357.1119,741.8682,-226.7948,50.6261
26260.0000,-256.8866,536.0104,356.8876,750.1614,-216.0063,61.4980
26280.0000,-245.1312,555.9037,380.9095,773.6442,-183.6489,89.4436
26300.0000,-245.7785,564.9464,372.1048,783.3848,-186.1723,97.6007
26320.0000,-239.1899,590.9481,377.6976,776.4531,-160.5757,89.2943
26340.0000,-211.7085,620.1155,398.2953,806.5815,-130.1841,122.7584
26360.0000,-199.2539,631.9760,393.5234,792.2780,-125.4620,115.1933
26380.0000,-217.6189,620.0991,404.4729,809.7529,-117.2612,83.8765
26400.0000,-188.3129,629.0056,418.3938,830.1107,-103.3804,119.0644
26420.0000,-205.5802,629.0569,402.6461,810.9183,-123.4537,91.0150
26440.0000,-191.3434,656.9537,412.2403,824.9759,-112.1946,87.9694
26460.0000,-200.5493,649.9439,412.7780,823.0819,-112.5360,90.0530
26480.0000,-192.2787,656.9849,420.1073,839.8440,-95.0740,106.8989
26500.0000,-161.5537,661.8727,444.9089,860.2174,-62.6439,129.0910
26520.0000,-167.2579,670.1619,438.9906,866.7185,-55.9606,150.9696
26540.0000,-150.5951,689.8936,454.0090,900.3420,-20.8089,162.1838
26560.0000,-161.2487,661.0756,444.9109,881.6225,-24.8061,160.8678
26580.0000,-156.6953,689.8212,443.0939,890.4131,-32.8606,160.1262
26600.0000,-155.1351,693.2220,458.8620,893.5536,-18.7236,176.9267
26620.0000,-150.7615,695.7067,462.1237,896.5056,-35.0846,166.0935
26640.0000,-144.0183,688.3568,479.8366,938.5206,-23.5436,180.0823
26660.0000,-137.8852,694.5917,471.1595,918.5369,2.7637,192.9572
26680.0000,-119.8903,716.5620,478.8546,936.4947,10.4873,203.1484
26700.0000,-148.0220,699.4427,462.0961,902.5319,-9.2843,176.8061
26720.0000,-154.7094,688.6201,452.8972,911.5020,-7.2794,176.2244
26740.0000,-149.1978,709.2773,468.0612,911.5499,-14.3574,185.7605
26760.0000,-124.4947,725.8154,495.9615,938.5295,13.7196,207.4180
26780.0000,-120.3729,717.2698,503.0076,977.5128,34.4496,223.5628
26800.0000,-86.2928,727.9786,524.0934,990.6084,39.8968,261.6016
26820.0000,-110.6017,688.0192,487.8771,956.4413,11.2743,227.3527
26840.0000,-144.1186,693.1050,470.2038,933.6696,1.0092,188.8024
26860.0000,-166.8420,690.8310,436.6993,905.3408,-7.6943,163.1496
26880.0000,-135.9073,726.3593,481.4038,948.7916,-1.8675,201.9844
26900.0000,-111.0516,754.6019,510.5627,989.2775,39.1545,233.9844
26920.0000,-138.6136,720.5786,481.5964,956.8987,8.1586,204.2543
26940.0000,-122.2843,711.5369,500.3245,960.1361,19.1142,213.7486
26960.0000,-96.3288,725.7825,503.8094,986.0651,27.2233,242.4742
26980.0000,-99.5422,714.3195,506.0997,980.9984,22.0473,238.5267
27000.0000,-96.0855,748.9158,531.0815,994.1998,35.2211,242.7075
27020.0000,-97.7822,745.0209,523.8436,1010.8754,24.0001,244.3093
27040.0000,-89.8748,753.1055,536.3175,1013.3614,38.3494,235.9967
27060.0000,-82.0100,757.9384,532.6155,1017.7143,63.9457,258.0627
27080.0000,-90.6163,739.3775,541.6211,1036.5391,32.3243,259.2213
27100.0000,-73.2865,739.6233,540.3192,1037.5339,56.9600,260.7802
27120.0000,-75.3737,743.5604,540.9150,1038.7487,63.3427,261.4761
27140.0000,-63.5265,738.4302,546.0078,1041.3936,93.9654,263.6292
27160.0000,-83.1061,725.8273,538.2374,1025.9247,61.3593,245.6760
27180.0000,-96.7301,727.2651,527.7032,1024.2035,54.9957,237.3780
27200.0000,-66.9334,744.9583,572.5440,1058.1252,78.3562,252.9377
27220.0000,-27.9186,783.0693,604.4332,1087.0371,100.0671,306.1818
27240.0000,-41.6517,766.2466,579.8598,1070.2800,74.3543,274.0664
27260.0000,-29.1269,795.8436,594.0992,1080.8746,91.0493,288.0269
27280.0000,-35.4754,799.3297,584.1661,1081.4805,101.2717,284.2678
27300.0000,-23.3765,794.6600,598.7887,1082.6798,117.1228,286.8081
27320.0000,-32.2664,797.5064,589.4963,1068.6493,121.3430,274.4473
27340.0000,-25.5589,800.4883,600.4820,1089.5038,120.1470,272.6634
27360.0000,-23.1202,784.7056,601.7890,1077.8318,123.2788,248.6774
27380.0000,-26.7123,813.4833,594.2189,1072.3478,124.1767,243.4338
27400.0000,-17.9434,814.9055,599.0909,1077.9877,131.1671,246.7814
27420.0000,-36.8540,784.2760,586.9181,1070.1890,99.1623,226.3444
27440.0000,-30.7986,785.9474,594.3626,1071.1179,126.1449,220.8874
27460.0000,-48.9837,782.1710,575.6169,1063.0526,106.2711,212.2294
27480.0000,-34.6950,781.0721,598.6514,1070.2517,122.1232,213.0494
27500.0000,6.8694,798.0233,637.3957,1126.9342,124.3167,271.1279
27520.0000,-30.5854,782.1401,614.8854,1098.3799,109.0234,230.0757
27540.0000,-28.1327,781.0088,612.1668,1097.8397,112.3286,196.0108
27560.0000,-22.5329,789.1731,608.0977,1105.4691,117.9071,190.1444
27580.0000,-63.2578,764.0079,575.9322,1048.7227,62.3802,120.8986
27600.0000,-56.4259,781.2556,565.3144,1048.5597,73.9178,126.2343
27620.0000,-34.3037,807.9925,600.7775,1068.6396,96.4406,122.8640
27640.0000,-23.4050,782.2714,600.4855,1093.6263,96.8194,150.3957
27660.0000,-42.3323,788.8662,594.5887,1064.5685,65.4675,110.7418
27680.0000,-66.3141,742.2474,567.6423,1068.6874,60.7536,118.4030
27700.0000,-70.3925,747.8190,574.4125,1069.5001,88.5840,125.6713
27720.0000,-33.3162,790.2574,593.7770,1091.7335,100.6760,154.5030
27740.0000,-3.3969,780.8875,618.3202,1127.4685,102.6576,193.5953
27760.0000,-53.2670,776.2739,582.8795,1074.7446,77.6497,161.4918
27780.0000,-34.4465,775.9220,593.2216,1077.4470,56.6513,159.5330
27800.0000,0.7836,814.3060,629.9991,1104.8088,85.5730,184.6422
27820.0000,1.4356,800.8623,627.1333,1108.3955,81.6252,207.4367
27840.0000,-0.2166,776.2132,607.0505,1075.7950,66.5372,190.6291
27860.0000,-19.4776,779.9787,616.0844,1090.3750,49.7380,187.3568
27880.0000,-40.2103,765.1938,593.0955,1068.8241,32.4982,183.7616
27900.0000,-24.5074,753.9384,608.0357,1082.3654,59.6980,200.3470
27920.0000,24.7284,798.0360,649.1429,1114.8660,86.5724,246.8227
27940.0000,29.4235,809.1535,648.0217,1101.3624,77.7105,239.2497
27960.0000,20.7097,783.0123,634.1418,1100.8492,61.4782,229.9531
27980.0000,-10.5180,754.0589,596.9860,1057.3619,44.7172,214.1485
28000.0000,-39.1956,725.9486,591.1339,1035.8048,22.4668,175.9343
28020.0000,-22.5296,775.2192,589.9869,1046.3394,54.7720,208.0208
28040.0000,9.7245,803.7869,631.1241,1065.8202,26.4208,228.0917
28060.0000,4.3950,770.3005,619.0250,1070.3324,55.7638,220.9902
28080.0000,-26.1814,741.7573,599.0850,1042.8191,31.3860,192.1556
28100.0000,-36.5531,719.3713,587.0619,1011.3296,28.7232,147.8061
28120.0000,-20.2161,753.6465,594.0182,1016.7771,8.4132,153.2552
28140.0000,-25.5760,748.3356,594.1146,1004.3373,8.7309,145.7490
28160.0000,-27.1719,721.6758,599.9623,1033.7725,27.3927,158.3615
28180.0000,-33.5689,714.5149,584.1862,1007.3403,-6.1743,142.5761
28200.0000,-67.1623,690.5379,560.8796,973.7545,-29.4802,111.5070
28220.0000,-29.5779,749.4567,601.2487,1003.3367,-25.1821,146.5385
28240.0000,-34.1599,738.4922,577.8041,995.7434,-27.4959,122.5392
28260.0000,-30.6224,752.4904,596.3088,1003.3375,-26.1785,118.3506
28280.0000,-20.1279,750.3904,599.7274,991.7402,-24.5233,127.6369
28300.0000,-72.6813,683.5961,552.3969,945.3275,-81.1673,49.2423
28320.0000,-63.1221,725.4205,568.6204,951.7095,-65.4988,45.7554
28340.0000,-66.7516,712.7291,558.4723,952.3363,-83.1459,37.1045
28360.0000,-59.0728,704.2624,563.5038,971.6960,-86.6129,60.8379
28380.0000,-58.7328,703.6397,570.6002,978.3450,-89.2055,63.0652
28400.0000,-61.0557,665.3426,539.3849,939.6533,-120.6391,28.8471
28420.0000,-96.7551,658.6584,532.6956,911.3708,-160.1853,1.0463
28440.0000,-96.0174,639.2126,529.2645,894.6257,-179.6241,-1.9384
28460.0000,-93.8481,632.7797,532.8098,896.3682,-193.1984,3.9511
28480.0000,-85.9990,638.1785,537.1456,895.6042,-208.6794,9.9409
28500.0000,-103.8738,599.7528,521.9399,863.3623,-246.1915,-12.9314
28520.0000,-119.9215,597.1226,513.0369,861.5938,-235.7317,-5.9295
28540.0000,-123.8860,580.8320,496.0240,820.3643,-276.2213,-23.9932
28560.0000,-129.9423,573.1685,493.9145,815.5406,-292.7273,-36.8493
28580.0000,-115.9699,566.8819,500.1512,815.3680,-328.2243,-27.0818
28600.0000,-130.8903,563.0249,504.7915,781.5577,-356.7750,-55.9102
28620.0000,-174.0729,521.8721,457.2185,752.3274,-396.2464,-83.0169
28640.0000,-210.8561,501.0557,442.6643,710.5298,-454.7125,-133.9022
28660.0000,-181.0769,510.7583,451.3621,721.3120,-434.2234,-97.9841
28680.0000,-206.8134,465.9646,426.5154,678.4851,-477.8249,-127.9279
28700.0000,-181.1035,475.9048,453.4934,702.3347,-469.1788,-79.9464
28720.0000,-212.8261,470.9136,408.3758,637.4416,-517.8384,-126.0493
28740.0000,-250.1660,430.9026,383.5948,608.3307,-566.2150,-163.8980
28760.0000,-227.7159,441.0075,411.2492,633.4459,-558.9161,-150.0875
28780.0000,-172.2010,483.9045,441.7182,632.3598,-525.2545,-90.8362
28800.0000,-217.7160,444.9662,385.1151,599.4084,-569.8779,-130.1771
28820.0000,-212.2419,439.9093,400.8402,599.3625,-578.2352,-128.7087
28840.0000,-221.7083,427.9979,387.9760,589.3716,-587.8909,-127.2026
28860.0000,-215.2764,445.9183,409.9657,596.3762,-597.2100,-137.5845
28880.0000,-239.7245,395.8985,374.8557,561.3657,-628.9889,-158.3442
28900.0000,-263.2849,373.8476,350.0888,567.3524,-627.2281,-169.5341
28920.0000,-215.6493,408.8180,375.7284,587.3556,-616.9668,-153.4569
28940.0000,-279.3004,356.9477,323.1954,531.3630,-664.1918,-213.3883
28960.0000,-204.6678,414.7368,381.5992,602.3323,-592.0494,-146.6557
28980.0000,-221.2624,406.0092,352.3383,561.3973,-632.1565,-165.2744
29000.0000,-242.6733,394.7391,340.4347,547.3165,-649.0394,-186.6891
29020.0000,-251.2607,381.1692,318.4751,545.4028,-625.0647,-183.0890
29040.0000,-264.7587,346.6398,310.3119,532.2867,-654.0455,-197.8621
29060.0000,-262.2135,332.2554,307.5969,529.4152,-652.0754,-212.9383
29080.0000,-228.7474,362.4784,331.1437,558.2880,-643.1609,-184.0346
29100.0000,-250.1589,356.3030,308.7473,541.4586,-640.9785,-200.7270
29120.0000,-241.7945,358.3847,318.0230,551.2523,-626.1951,-182.1407
29140.0000,-249.0965,358.4177,295.9131,535.4494,-656.9515,-204.6547
29160.0000,-280.8671,356.2532,264.8375,505.2360,-653.1837,-220.3762
29180.0000,-239.0525,389.6252,304.0591,542.4780,-610.9730,-167.4551
29200.0000,-246.9657,377.0311,294.7016,541.2287,-597.2486,-179.4932
29220.0000,-245.9298,396.7759,294.2241,534.4846,-600.8643,-174.3262
29240.0000,-251.0838,384.9934,299.5215,537.1687,-614.3192,-167.6118
29260.0000,-273.8323,383.0136,274.3741,504.5380,-623.7535,-196.0953
29280.0000,-272.1664,378.6418,275.3487,515.1483,-627.4136,-194.8222
29300.0000,-259.7210,385.2029,285.5258,519.5665,-614.7593,-194.0079
29320.0000,-245.2837,388.5649,304.1923,540.1437,-594.4697,-158.0299
29340.0000,-240.6285,387.4208,306.7201,564.5975,-567.6349,-149.8509
29360.0000,-239.4333,410.2836,322.0272,570.1091,-533.4781,-119.0698
29380.0000,-213.4966,425.6925,307.8831,563.6160,-549.5764,-125.6331
29400.0000,-262.5572,407.0365,273.8408,531.0798,-576.6187,-158.2990
29420.0000,-214.3782,444.8909,334.0804,583.6243,-525.5380,-91.5321
29440.0000,-238.6943,434.8454,306.6737,567.0799,-535.6346,-110.3342
29460.0000,-268.2581,414.0990,286.2130,541.6531,-551.3792,-131.4256
29480.0000,-221.8091,447.5239,304.4987,570.0521,-508.7900,-102.4822
29500.0000,-210.0905,466.3604,320.4187,592.6564,-500.2773,-102.3460
29520.0000,-233.9376,435.2931,298.3189,567.0507,-494.8571,-118.5943
29540.0000,-220.9432,469.6410,316.5716,599.6865,-477.2156,-90.2194
29560.0000,-238.0948,473.0432,310.1673,595.0631,-492.9653,-92.6457
29580.0000,-241.8552,456.9813,306.7495,604.6959,-479.1088,-89.2266
29600.0000,-238.2274,447.6619,301.9964,596.0459,-471.9710,-74.6446
29620.0000,-227.7369,471.2078,308.8952,603.7082,-461.0241,-60.0818
29640.0000,-245.3024,473.4773,299.8572,593.0085,-477.1335,-66.7202
29660.0000,-221.5939,507.5420,328.0779,630.7463,-429.9097,-28.0969
29680.0000,-223.4054,496.1407,319.7092,629.0284,-440.2191,-26.7125
29700.0000,-220.5054,504.8089,325.1860,646.7153,-412.8314,-15.0171
29720.0000,-194.4759,534.9116,343.5798,665.0468,-377.2435,8.1890
29740.0000,-218.4209,504.0669,323.3142,627.6985,-410.7744,-16.0320
29760.0000,-222.5426,501.6260,325.4803,655.0778,-402.2679,-22.7272
29780.0000,-206.3756,477.3888,334.3975,654.7153,-414.6776,14.7885
29800.0000,-197.5746,525.4896,357.4129,706.1383,-369.3039,56.2288
29820.0000,-197.3832,536.5707,373.4810,694.6904,-362.6163,44.7583
29840.0000,-210.5780,529.2914,351.3425,686.1671,-380.4001,39.3331
29860.0000,-215.4129,537.7505,349.5345,673.6544,-373.6047,24.6923
29880.0000,-181.5383,556.0348,382.3047,718.1876,-333.4076,71.3513
29900.0000,-220.4169,555.8267,368.5779,729.6143,-336.4738,50.6325
29920.0000,-160.5054,594.9564,409.2972,762.2899,-301.3953,99.5369
29940.0000,-171.4977,599.9597,397.5582,750.5541,-302.4537,96.5765
29960.0000,-126.3868,630.9003,438.3252,785.3513,-262.4335,121.5863
29980.0000,-150.5279,624.1462,418.5581,793.4903,-250.4329,122.5072
30000.0000,-144.3218,588.7917,421.3512,779.4235,-288.4919,116.7104
30020.0000,-149.6499,602.0970,414.4924,781.4296,-233.4424,138.3906
30040.0000,-144.1719,616.8530,420.4392,793.4974,-233.3616,126.8703
30060.0000,-116.8196,635.1627,452.4262,836.3625,-200.4541,171.2158
30080.0000,-160.0319,623.8626,425.5648,793.6041,-220.3965,115.0945
30100.0000,-124.9618,639.1063,450.3104,838.2505,-203.5927,159.0020
30120.0000,-126.8125,644.8600,442.6912,807.7332,-188.3014,146.1967
30140.0000,-144.1892,647.0027,439.1809,825.1200,-180.5903,141.8750
30160.0000,-116.6207,682.0059,466.8606,859.8864,-129.1340,171.4050
30180.0000,-123.3455,657.8699,433.9997,828.9998,-162.6674,134.6476
30200.0000,-95.3446,688.1223,473.0321,885.0193,-117.9827,201.6194
30220.0000,-98.5930,682.7966,472.7997,885.8685,-97.7509,186.4932
30240.0000,-77.1398,713.3864,482.2892,895.1894,-95.8763,212.8586
30260.0000,-97.8313,711.5245,481.5692,903.7334,-96.8677,147.2904
30280.0000,-41.8287,749.4729,539.5436,944.3475,-28.7073,144.0762
30300.0000,-94.1303,689.3873,477.3378,893.5966,-95.0212,67.9575
30320.0000,-119.5596,697.7183,483.8113,914.5437,-56.5670,18.2458
30340.0000,-41.4044,744.1178,543.0450,960.4054,0.7434,69.7466
30360.0000,-93.2784,687.0302,488.1012,885.7158,-92.3643,-34.3886
30380.0000,-34.6402,741.8512,550.7394,982.2518,-17.4471,6.5164
30400.0000,-53.9952,737.3192,545.4337,956.9494,-43.1280,-18.1153
30420.0000,-97.8860,699.5474,501.4208,900.0320,-68.6455,-88.6392
30440.0000,-86.7885,745.5880,519.7513,953.1317,-11.8952,-79.9600
30460.0000,-32.1487,761.3552,563.1014,983.8709,19.1186,-34.8914
30480.0000,-27.4737,755.8865,553.1163,962.3335,-2.7109,-68.6853
30500.0000,-30.3804,750.9016,560.7391,986.6768,5.8618,-94.1193
30520.0000,-25.2328,761.3539,569.4553,1013.5511,33.4067,-86.4362
30540.0000,-42.6686,748.5854,565.4074,981.4879,11.5884,-118.3209
30560.0000,-32.0628,751.5446,567.8029,1010.7476,20.7294,-116.2380
30580.0000,-35.8103,745.2960,567.0862,979.2789,6.3846,-124.5311
30600.0000,-64.8573,734.9098,542.1276,950.9235,-8.9468,-176.0680
30620.0000,-40.9969,749.9738,571.7927,1005.1440,13.1090,-162.7758
30640.0000,-20.7605,783.2148,601.4292,1027.0935,45.1660,-141.9178
30660.0000,-36.1048,759.8101,565.4803,972.9686,-6.9979,-221.9397
30680.0000,-62.6509,743.4805,564.7469,969.2548,12.4009,-229.7446
30700.0000,-42.2323,779.4628,571.2115,975.8085,27.6442,-220.0348
30720.0000,-50.5008,742.7719,563.9955,978.3891,2.7036,-240.6406
30740.0000,-35.2646,775.2039,580.9332,993.6702,31.4932,-243.1196
30760.0000,-58.5021,747.0168,565.2805,980.5137,4.9214,-246.5583
30780.0000,-91.3212,708.9948,527.6631,944.5557,-30.6819,-283.2285
30800.0000,-62.4995,728.3324,559.5146,969.6619,7.1407,-259.4278
30820.0000,-66.3249,740.6530,564.4681,961.4510,1.0115,-262.3721
30840.0000,-61.5096,732.5439,561.7203,964.7432,3.3749,-265.3850
30860.0000,-45.2553,748.3989,565.2575,982.3464,2.7792,-244.3726
30880.0000,-59.5525,716.8053,570.8932,959.8310,-28.3376,-260.3495
30900.0000,-56.2517,722.2766,567.0859,981.2693,2.5843,-227.4526
30920.0000,-58.6215,716.0126,566.0704,977.9186,-5.1687,-243.3850
30940.0000,-50.0989,741.0403,585.9918,976.1974,-3.5489,-222.4288
30960.0000,-54.7299,738.0948,566.1735,969.9713,22.9286,-217.3778
30980.0000,-28.9943,758.0051,592.9064,990.1769,32.2902,-187.3797
31000.0000,-45.9045,742.2179,578.2289,973.9832,4.0862,-214.3680
31020.0000,-63.8238,716.8419,565.8071,970.1418,-8.8348,-220.3105
31040.0000,-50.0157,746.3237,577.2816,980.9824,15.1594,-208.5147
31060.0000,-54.6638,741.6609,567.8193,970.1619,4.9578,-219.1998
31080.0000,-58.2347,726.4926,571.2905,978.9772,9.3310,-210.5308
31100.0000,-28.4792,754.5126,596.7894,1008.1852,61.8085,-181.1451
31120.0000,-48.4470,728.5770,565.2748,961.9416,8.4460,-219.6161
31140.0000,-74.2325,717.5666,567.8363,954.2214,13.8141,-225.0133
31160.0000,-56.6491,771.6654,568.2551,948.8745,11.5048,-214.7422
31180.0000,-56.0471,764.5272,589.8734,952.2886,27.6644,-217.8238
31200.0000,-57.8811,731.6766,566.1944,963.8196,27.5655,-204.8823
31220.0000,-15.8091,775.4443,612.9622,987.3769,59.6426,-180.7176
31240.0000,-60.1201,744.6683,569.0921,949.7592,25.6299,-215.0416
31260.0000,-70.5124,736.3940,561.0790,940.4518,8.6129,-238.5200
31280.0000,-59.3632,769.7744,565.9824,939.6349,32.6000,-229.3033
31300.0000,-60.2827,740.3687,569.2150,948.5924,24.6227,-239.3593
31320.0000,-49.6191,748.6771,568.8275,957.5226,44.6324,-219.4880
31340.0000,-66.0853,733.3864,558.3343,954.7072,25.6328,-242.1350
31360.0000,-65.7974,726.7410,566.6780,947.3678,28.5940,-261.6373
31380.0000,-59.8173,719.4551,557.5064,928.8624,20.7106,-272.9657
31400.0000,-70.0537,751.6255,562.4839,932.2452,23.5681,-292.8788
31420.0000,-59.5709,715.5204,563.7110,956.0432,31.8515,-276.7142
31440.0000,-55.2712,737.6327,598.3154,963.0498,31.4403,-275.1288
31460.0000,-97.3501,711.5938,536.9138,900.2126,-3.0481,-337.5433
31480.0000,-58.5095,725.6102,569.0834,925.8433,12.3426,-326.3029
31500.0000,-84.1294,714.6431,536.0873,896.4173,-3.9209,-334.3490
31520.0000,-87.7181,716.5932,540.9069,916.6893,8.2715,-329.5674
31540.0000,-67.9891,749.5922,583.3044,963.6411,46.1109,-285.1315
31560.0000,-43.8889,748.4082,594.6806,963.4890,49.0957,-281.7127
31580.0000,-88.7566,704.6597,555.5327,913.8134,-9.6049,-340.8347
31600.0000,-61.1119,712.4296,565.4762,918.2843,5.9825,-352.9902
31620.0000,-60.5598,743.7954,570.7549,929.0380,26.4619,-337.6495
31640.0000,-55.2579,739.2365,591.2602,954.0870,27.7705,-325.2394
31660.0000,-28.3434,769.9936,630.9694,998.2443,48.7382,-312.4179
31680.0000,4.4884,755.0941,607.0679,989.9038,45.5967,-284.4096
31700.0000,-58.2032,751.0049,563.1721,944.4718,34.9077,-338.2386
31720.0000,-90.6419,721.0628,538.8228,891.6623,-7.5102,-372.6259
31740.0000,-74.0686,724.2307,546.3708,914.6629,29.0633,-350.9964
31760.0000,-60.7454,733.8896,566.6649,942.4526,30.1524,-336.7808
31780.0000,-24.9438,744.3152,602.5726,955.8725,27.3118,-304.7645
31800.0000,-52.9150,732.7298,559.4715,934.2567,26.9164,-329.0273
31820.0000,-47.7841,737.5057,565.7390,922.0709,19.6216,-351.6202
31840.0000,-97.0310,689.5089,527.2609,880.0023,-27.2407,-386.3128
31860.0000,-78.6788,707.6389,535.9182,889.3233,-40.0514,-380.3972
31880.0000,-58.1575,723.3691,560.0891,919.7837,-5.5377,-348.4527
31900.0000,-52.5385,721.9567,567.0984,932.5407,-1.8012,-326.1946
31920.0000,-100.3110,677.1415,524.9356,872.5869,-67.8559,-381.7244
31940.0000,-84.3726,698.0759,537.2374,887.7097,-34.4302,-356.0075
31960.0000,-88.4589,687.8820,534.7624,869.3387,-52.1515,-353.8421
31980.0000,-85.2616,688.3259,526.3876,871.9254,-63.1861,-341.8491
32000.0000,-58.5379,704.6182,568.6439,905.1711,-41.3731,-301.0152
32020.0000,-68.1319,698.4949,548.5056,888.0707,-52.9985,-312.7009
32040.0000,-69.6429,691.4438,539.5491,890.0194,-51.6875,-312.1972
32060.0000,-85.0579,685.7499,533.5969,868.2297,-54.7290,-318.4686
32080.0000,-90.7995,667.2851,544.4180,866.8091,-67.9672,-319.3018
32100.0000,-72.9508,669.0425,541.7053,883.4185,-58.4369,-302.3841
32120.0000,-58.8660,693.9608,567.3337,924.6341,-22.2128,-270.4659
32140.0000,-96.8447,656.1521,511.7735,864.5839,-42.1549,-321.2225
32160.0000,-89.9910,684.7599,506.2402,860.4847,-31.4144,-308.6786
32180.0000,-77.7892,691.4277,511.8372,852.7159,-25.8936,-306.0739
32200.0000,-82.0375,692.5084,535.1955,874.3369,-14.6679,-292.7968
32220.0000,-59.6842,716.7269,544.8794,893.8920,6.2519,-286.9655
32240.0000,-89.1489,680.3427,511.1552,861.1856,-12.9105,-316.9048
32260.0000,-108.5980,659.7835,501.9149,832.9879,-38.4582,-339.8284
32280.0000,-85.1782,690.1132,504.1437,835.0822,-33.1076,-337.0076
32300.0000,-93.5451,683.0501,500.9150,842.0946,-53.2938,-334.7434
32320.0000,-94.2855,667.9944,499.1494,833.9663,-59.3697,-341.0948
32340.0000,-92.5662,665.2863,507.8896,825.1964,-59.0639,-352.6082
32360.0000,-129.2926,647.7424,478.1450,810.8422,-59.5428,-393.2341
32380.0000,-94.4870,665.4183,498.8655,837.2896,-31.8609,-354.5886
32400.0000,-93.3208,669.7090,499.1989,834.7971,-33.6352,-365.2208
32420.0000,-95.4805,668.5255,500.8573,842.3555,-33.8267,-369.5326
32440.0000,-91.3153,674.5825,510.2249,836.7209,-24.8247,-377.3289
32460.0000,-129.5289,648.5269,469.7983,801.4095,-64.6237,-420.5243
32480.0000,-116.3146,652.3946,473.2495,809.6265,-45.9270,-416.3790
32500.0000,-98.5039,660.5636,480.7359,827.4631,-30.5133,-411.4018
32520.0000,-89.2851,673.4341,492.3381,825.5852,-31.9963,-394.3603
32540.0000,-87.5568,665.7468,504.6683,847.4961,-32.5467,-376.3788
32560.0000,-62.2433,695.3270,515.4087,865.5495,-27.0933,-368.4558
32580.0000,-107.5784,628.7166,469.5954,808.5045,-67.5147,-410.4822
32600.0000,-135.2397,643.3256,466.4437,798.5223,-88.1900,-444.4067
32620.0000,-99.6661,669.7405,497.5060,812.5224,-54.4576,-423.4517
32640.0000,-96.0891,655.3051,474.5314,797.5047,-86.2449,-440.4245
32660.0000,-94.7320,657.5621,483.3963,801.5416,-93.4290,-443.4867
32680.0000,-64.0300,668.4833,511.6459,837.5034,-60.1877,-403.4478
32700.0000,-108.8360,639.5632,488.3180,812.5327,-119.4816,-432.4867
32720.0000,-124.9036,600.4490,449.7162,766.4665,-125.2282,-465.3846
32740.0000,-147.9478,592.4610,464.2278,773.5336,-160.4593,-481.5104
32760.0000,-120.8325,622.6432,463.8172,762.4673,-150.1718,-472.3944
32780.0000,-150.1017,586.3595,445.1292,747.5211,-184.5710,-491.5645
32800.0000,-117.6830,595.6911,471.9164,747.4706,-210.1996,-491.3156
32820.0000,-144.2667,561.1512,439.0315,709.5084,-257.5888,-533.6617
32840.0000,-156.5491,541.8198,429.0126,690.4700,-281.1601,-552.2991
32860.0000,-152.3950,562.9844,433.9144,685.4544,-268.5835,-554.7541
32880.0000,-143.3994,564.9054,443.0757,684.4739,-295.1579,-565.2063
32900.0000,-159.6047,546.8677,416.8202,657.4448,-341.7278,-597.8077
32920.0000,-183.2384,520.2188,418.1634,636.4661,-375.1590,-628.1132
32940.0000,-152.7094,511.6642,427.7803,630.4147,-386.7016,-656.8600
32960.0000,-186.1087,499.2676,411.2211,620.4614,-403.0740,-662.0527
32980.0000,-161.8407,503.5243,423.7004,606.4136,-407.8284,-658.9572
33000.0000,-164.9274,500.4203,417.2761,596.4490,-442.1440,-662.0107
33020.0000,-172.0412,502.3700,422.6627,583.4164,-442.8477,-681.9772
33040.0000,-183.8067,469.5237,412.3073,562.4315,-484.0811,-691.0306
33060.0000,-190.1516,481.2674,401.6023,523.4171,-505.8163,-705.0068
33080.0000,-242.6390,428.8087,369.3362,454.3761,-596.1471,-763.9614
33100.0000,-207.3172,442.0802,399.5888,477.3946,-595.9302,-741.1028
33120.0000,-228.4999,399.8820,373.3545,434.3488,-639.0952,-781.8795
33140.0000,-208.4376,399.9100,408.6000,450.4373,-651.9022,-758.1824
33160.0000,-245.4008,371.9474,374.3485,407.3369,-704.1353,-800.8193
33180.0000,-284.5546,327.6696,342.6027,350.4168,-765.9567,-857.2484
33200.0000,-261.3143,336.1844,358.3224,362.2549,-754.1919,-836.8315
33220.0000,-267.7131,342.6576,340.6198,312.4291,-792.8820,-863.3194
33240.0000,-289.2411,320.1726,326.2751,309.1848,-807.2350,-903.8827
33260.0000,-296.7333,305.5221,321.6499,295.4797,-833.9037,-921.3085
33280.0000,-298.1493,298.3347,318.2183,278.1507,-877.2862,-937.8571
33300.0000,-326.8318,278.3408,289.6966,247.5267,-896.9153,-960.3336
33320.0000,-338.1043,262.3610,275.1085,228.0628,-926.3719,-973.8915
33340.0000,-367.9077,204.3300,231.7525,181.5348,-979.8952,-1003.3246
33360.0000,-372.1163,221.3928,256.0447,193.9912,-984.5199,-1004.8270
33380.0000,-331.9396,239.3340,279.8605,218.6145,-975.7407,-968.3027
33400.0000,-348.0967,226.4175,258.9409,186.9476,-1024.5598,-986.8615
33420.0000,-390.9337,181.1549,227.9258,158.6627,-1080.7986,-1011.3853
33440.0000,-382.0671,183.4121,224.8341,152.8543,-1088.6831,-992.9034
33460.0000,-393.9625,183.1294,218.0259,155.7272,-1070.6783,-980.3568
33480.0000,-383.0737,183.4183,217.7242,148.7944,-1106.7585,-966.8812
33500.0000,-353.9473,214.1888,263.1610,188.8055,-1097.6573,-932.3639
33520.0000,-341.0511,168.4817,234.6271,150.7544,-1135.8492,-941.8705
33540.0000,-383.9471,163.1945,207.2629,137.8351,-1168.5924,-943.3741
33560.0000,-405.1041,159.4745,196.4728,108.6448,-1178.8837,-953.9593
33580.0000,-409.8966,165.2219,184.3804,86.8659,-1211.4833,-958.2537
33600.0000,-404.1454,160.4487,180.3530,86.6027,-1205.9821,-933.9745
33620.0000,-387.8630,169.2439,192.5028,103.9199,-1176.4259,-908.3138
33640.0000,-326.1928,217.3901,252.2500,180.5865,-1126.9867,-810.8915
33660.0000,-343.7655,179.2562,199.6278,116.9665,-1216.4474,-836.2189
33680.0000,-394.2913,199.3964,207.1339,125.5366,-1180.0303,-836.9611
33700.0000,-333.7122,231.3051,240.7509,173.9944,-1124.3379,-773.2145
33720.0000,-346.3893,224.2545,215.0250,145.5202,-1129.0582,-770.0305
33740.0000,-318.6086,257.4517,246.8734,170.0218,-1123.3101,-740.1017
33760.0000,-299.4186,264.2378,247.9225,205.5690,-1082.0239,-681.9553
33780.0000,-303.5184,250.5259,258.9547,223.9854,-1062.2509,-647.0905
33800.0000,-357.5447,209.1923,194.7991,161.5429,-1125.0906,-700.0555
33820.0000,-359.4514,232.4833,190.0264,155.9786,-1104.3394,-687.0733
33840.0000,-366.6154,236.0395,177.7191,141.5700,-1107.0768,-681.1024
33860.0000,-350.3216,248.6497,205.1002,167.9082,-1095.3282,-642.0439
33880.0000,-316.6872,263.0844,233.6707,207.6698,-1061.9683,-594.0265
33900.0000,-337.2546,244.6920,221.1565,193.8567,-1073.4301,-599.0685
33920.0000,-348.7816,246.1102,213.6473,185.7589,-1081.8727,-602.9981
33940.0000,-363.2590,259.6846,181.1799,179.7577,-1073.5161,-599.0783
33960.0000,-324.7970,292.0825,214.6186,226.8583,-1011.7781,-543.9908
33980.0000,-328.1362,294.7757,218.2222,235.6669,-1011.5497,-530.0736
34000.0000,-312.8646,292.0536,232.6032,264.9840,-987.7125,-493.9658
34020.0000,-328.0782,274.7028,219.2120,251.5472,-1007.6965,-500.9911
34040.0000,-304.9375,301.0026,245.6320,287.1260,-983.6147,-460.9667
34060.0000,-327.0316,300.8040,213.1834,262.4176,-963.8855,-474.0692
34080.0000,-329.9800,303.9739,210.6312,257.2555,-960.3999,-470.9451
34100.0000,-314.9930,315.7624,228.1488,275.2328,-924.9468,-443.0609
34120.0000,-279.0174,350.9849,277.7197,337.4738,-889.2480,-408.8414
34140.0000,-265.9632,349.8307,262.1016,345.0955,-871.0957,-384.0745
34160.0000,-305.0518,332.0495,238.7670,324.6425,-887.0967,-390.8351
34180.0000,-294.9643,333.8774,241.0462,332.8909,-866.2986,-377.0692
34200.0000,-282.0869,362.9480,258.8317,354.8500,-830.9510,-355.7885
34220.0000,-236.9133,407.7975,290.9527,391.7405,-793.3683,-307.1890
34240.0000,-233.0443,409.9712,302.9521,429.0615,-753.7180,-280.7183
34260.0000,-212.9037,415.7789,312.8757,446.5736,-768.5681,-265.1617
34280.0000,-244.0254,389.0569,276.0395,440.2573,-751.5463,-280.6529
34300.0000,-239.9264,409.7691,293.7183,451.3535,-713.7638,-256.2415
34320.0000,-227.0632,439.0891,302.2044,475.4829,-688.3187,-244.5571
34340.0000,-225.9374,440.8113,305.6091,480.1380,-680.9144,-227.3024
34360.0000,-211.0379,445.0901,323.3082,473.6781,-690.1531,-224.5090
34380.0000,-238.9405,410.7279,309.4656,492.9674,-665.0356,-221.3160
34400.0000,-249.0157,415.0551,288.4583,476.8776,-658.9727,-249.4638
34420.0000,-250.9473,430.8111,301.3219,496.7710,-627.1933,-236.3643
34440.0000,-217.9764,442.1429,326.6154,521.1027,-623.8341,-243.4953
34460.0000,-206.9335,442.7596,339.2033,538.6335,-602.2448,-271.4188
34480.0000,-209.9840,436.1823,326.7474,536.2535,-603.7190,-302.4511
34500.0000,-218.9478,440.7557,311.0872,527.4631,-606.3206,-341.4788
34520.0000,-179.9385,503.1501,346.8705,570.4326,-532.6126,-311.3927
34540.0000,-181.9661,504.6996,358.9708,613.3621,-481.4187,-320.4703
34560.0000,-152.9276,504.1452,366.0118,628.5714,-479.5343,-284.3185
34580.0000,-171.9798,509.6941,361.8532,626.2367,-482.4646,-306.4869
34600.0000,-193.9271,473.0849,348.0936,621.6959,-479.4658,-327.3718
34620.0000,-178.9666,506.7104,351.7416,628.1296,-442.5389,-306.4988
34640.0000,-182.9273,528.2337,349.2379,621.7995,-427.4142,-319.2947
34660.0000,-130.9795,564.7108,385.6469,677.0876,-392.5390,-271.4785
34680.0000,-139.9095,543.1559,372.2921,680.8733,-413.3689,-278.3645
34700.0000,-159.9835,541.8268,352.5770,685.0722,-401.4802,-309.4330
34720.0000,-145.9589,570.1954,383.3737,695.9159,-354.4142,-284.3023
34740.0000,-121.8917,571.9412,391.5459,729.0652,-321.3947,-272.4532
34760.0000,-122.9050,570.1656,391.4295,722.9396,-312.3542,-258.3799
34780.0000,-118.9255,576.9781,407.5126,741.0813,-309.4141,-254.3541
34800.0000,-128.9776,574.0874,398.4550,758.9370,-299.3882,-245.3523
34820.0000,-161.8322,565.9366,369.4925,722.0835,-320.2542,-266.3419
34840.0000,-127.0114,595.9273,400.4366,748.9065,-274.5172,-239.3850
34860.0000,-96.7480,623.2048,417.5524,792.2042,-219.0932,-190.1953
34880.0000,-96.0589,621.8925,431.3896,797.8080,-221.6426,-183.5348
34900.0000,-84.6778,656.2167,444.6483,834.3472,-186.0587,-142.1289
34920.0000,-96.1408,650.6703,428.3280,834.7095,-176.7275,-147.5837
34940.0000,-87.6009,656.3670,440.7246,838.4665,-178.8237,-125.9916
34960.0000,-83.2279,684.5816,443.1967,868.6053,-150.8166,-96.6473
34980.0000,-55.4680,691.5652,471.8609,878.6111,-128.6406,-64.8282
35000.0000,-57.3180,721.4841,470.1010,886.4722,-124.0370,-56.7450
35020.0000,-55.3433,711.8535,475.0141,885.7834,-102.4826,-50.6937
35040.0000,-56.4347,714.3203,474.9077,900.3041,-96.1930,-30.8625
35060.0000,-27.2198,740.9334,502.2021,927.9870,-60.2205,-0.5442
35080.0000,-29.5375,751.0274,498.7496,933.1641,-37.4039,13.8183
35100.0000,-28.0911,746.1166,502.4003,953.1645,-17.0495,33.5043
35120.0000,-23.7124,750.8334,508.5734,956.9763,3.3490,60.7154
35140.0000,-20.9814,764.4246,530.6094,986.3676,4.1365,60.7080
35160.0000,9.1136,783.6848,531.3545,1004.8126,27.1024,94.5402
35180.0000,-32.8372,753.4982,500.8577,960.5297,-11.5401,57.8155
35200.0000,-29.9589,761.5668,505.0924,974.6105,40.9098,75.3894
35220.0000,2.2236,802.7135,540.1276,1000.7298,51.5207,115.0482
35240.0000,-32.1106,776.3091,510.8426,984.4407,67.7405,92.2622
35260.0000,0.4951,789.9560,533.3767,1021.9526,78.7979,138.1826
35280.0000,-3.2452,774.1006,525.5904,1003.2630,53.4956,131.0809
35300.0000,-27.3609,782.2104,522.6302,1016.1187,101.9911,127.3377
35320.0000,-28.4024,779.8462,532.3047,1023.0638,71.2551,123.8359
35340.0000,-35.2655,781.4235,529.9229,1008.3193,63.2574,123.5331
35360.0000,-10.5589,780.6425,534.0248,1046.8953,107.0218,155.7242
35380.0000,4.7794,820.6511,544.1964,1062.4777,159.5162,189.7224
35400.0000,-23.6781,786.4297,530.7680,1034.7312,101.8436,146.5822
35420.0000,-29.0128,799.7344,531.4485,1021.6161,94.6844,139.8475
35440.0000,-31.7769,811.3251,537.4981,1036.5826,85.6256,146.4144
35460.0000,-28.9088,794.9361,533.7337,1030.7150,99.8421,156.0040
35480.0000,-28.8298,795.0563,535.2411,1036.4960,122.4545,152.2218
35500.0000,-3.8232,808.2216,546.9653,1065.8264,157.0997,205.1242
35520.0000,-4.9061,802.0480,563.0388,1089.4418,167.3385,209.1744
35540.0000,-56.7717,742.2356,528.1886,1031.8732,119.1559,157.2360
35560.0000,-31.9911,783.8035,531.7975,1060.3774,153.1555,180.9893
35580.0000,-67.7118,762.4589,523.3855,1048.9340,129.3476,154.2565
35600.0000,-33.0357,788.6707,559.6161,1079.3395,180.9570,215.9248
35620.0000,-29.6715,777.5159,534.6265,1077.9994,166.4739,207.3155
35640.0000,-32.0551,775.6143,541.3962,1069.2881,147.7961,192.8891
35660.0000,-31.6723,778.5872,537.7835,1069.9894,158.6379,212.3609
35680.0000,-29.0479,782.5249,559.2567,1093.3011,180.6935,218.8640
35700.0000,-24.6452,788.6044,568.9404,1077.9968,183.6879,219.4315
35720.0000,-24.0807,778.4849,556.0876,1066.2789,167.6720,213.8275
35740.0000,-27.6787,778.6812,543.0840,1068.9569,168.7562,209.4424
35760.0000,-29.9952,802.5524,564.9842,1074.3562,182.6166,212.8182
35780.0000,-35.7850,774.6905,537.1534,1062.9014,158.8670,185.4186
35800.0000,-34.9756,774.4649,543.9077,1061.3844,148.4229,176.7973
35820.0000,-27.8249,757.5604,556.2077,1048.8104,120.8159,154.3270
35840.0000,-32.8558,756.5689,544.8727,1035.4502,127.4230,151.8586
35860.0000,-29.9266,769.6520,549.2342,1060.7335,139.9360,161.3040
35880.0000,-32.7526,765.5839,555.8404,1035.5437,120.4409,154.9958
35900.0000,-27.0495,748.4764,565.2231,1047.5936,143.8997,160.1684
35920.0000,-33.6551,732.5780,558.8525,1034.6313,120.4189,147.0054
35940.0000,-36.2183,722.4994,551.2370,1013.4662,96.8688,118.0108
35960.0000,-31.4896,725.7045,562.8949,1019.7889,106.4209,148.1595
35980.0000,-49.3653,719.4000,556.1562,1013.3320,93.8395,123.8991
36000.0000,-22.3624,717.8259,551.9681,1002.9135,100.4849,134.3105
36020.0000,-34.5320,719.2750,563.0628,1007.1806,96.7607,129.7547
36040.0000,-36.1967,712.9677,554.0564,976.0433,65.5421,110.4813
36060.0000,-30.6600,718.1719,568.9845,994.0182,64.6804,122.5620
36080.0000,-31.9989,708.1150,564.1705,982.2230,81.6180,119.6322
36100.0000,-22.8581,724.0127,564.8423,973.8666,78.6189,105.4542
36120.0000,-1.8178,731.1670,571.2806,975.3166,58.6131,110.8127
36140.0000,-30.0232,718.8759,568.7112,961.6942,58.5280,93.2228
36160.0000,-9.6645,730.3393,567.4655,962.4661,61.7106,107.9555
36180.0000,-1.1845,732.6730,570.5488,948.5629,65.3695,110.0968
36200.0000,-31.4783,728.4716,555.5952,927.6266,36.8393,69.1291
36220.0000,3.5232,752.4597,583.3989,949.4056,71.3152,98.9031
36240.0000,-32.3250,729.6138,558.7401,912.7404,56.9371,56.3203
36260.0000,-27.5216,722.4185,558.2344,922.2543,52.0985,61.6931
36280.0000,-12.1615,741.7474,592.9708,951.8940,61.0575,87.5495
36300.0000,-5.7378,719.2463,556.0046,895.1137,31.9446,74.5693
36320.0000,-38.9785,712.0093,560.1741,897.0280,29.1954,44.6637
