t,AF3,F7,F3,F4,F8,AF7
0.0000,-168.0662,536.7842,311.6396,678.6595,-296.0807,-973.1354
20.0000,-177.7274,522.0654,311.3360,676.3146,-294.7189,-936.6558
40.0000,-175.0339,514.8333,305.6777,680.7428,-304.1215,-952.1013
60.0000,-180.7262,507.0620,300.2881,672.2449,-306.7254,-986.7087
80.0000,-153.1319,503.8836,311.7264,673.6786,-279.0862,-959.0778
100.0000,-142.6903,531.0652,323.2351,685.2531,-246.6355,-924.6964
120.0000,-125.0872,531.9151,329.7859,683.6976,-280.1330,-931.0482
140.0000,-164.7042,488.9235,320.1928,670.2292,-287.5911,-949.7224
160.0000,-130.1158,508.0274,324.7961,683.7200,-264.2401,-929.0335
180.0000,-151.6391,530.9897,316.1726,679.1702,-250.5459,-950.7405
200.0000,-148.1036,536.0486,320.8488,680.8231,-255.2771,-937.0189
220.0000,-117.6558,536.9495,345.1622,684.1469,-227.4055,-910.7239
240.0000,-143.0520,539.0674,325.8764,680.8546,-240.3132,-953.0062
260.0000,-156.7043,536.9235,322.1162,674.1054,-268.4420,-968.7758
280.0000,-180.0285,530.1157,295.8977,670.8918,-297.4328,-991.0107
300.0000,-148.8110,557.9569,328.0884,687.0825,-256.3323,-948.7892
320.0000,-143.9819,535.0297,329.9397,687.9224,-229.4495,-935.9740
340.0000,-121.8153,564.8817,319.0580,682.0369,-258.2435,-943.8037
360.0000,-125.9226,554.0544,322.9428,677.9738,-271.5526,-962.9701
380.0000,-127.9151,515.8375,325.0500,681.9862,-288.1223,-957.8241
400.0000,-156.8155,497.1289,317.9603,671.0446,-302.7256,-958.9443
420.0000,-176.9699,497.8902,308.0342,676.9285,-324.0118,-979.8619
440.0000,-173.7145,505.1490,318.9802,677.0457,-294.8036,-956.9123
460.0000,-140.0641,531.8555,323.0128,672.9053,-235.9032,-908.8597
480.0000,-181.6563,481.1074,311.9680,671.1594,-306.9232,-942.8749
500.0000,-230.1664,474.8134,286.0253,659.8260,-329.8425,-989.9235
520.0000,-219.5461,485.0478,282.9507,663.2017,-304.9983,-1002.8605
540.0000,-224.3613,494.9160,301.0112,667.7829,-279.7366,-988.9719
560.0000,-206.4404,506.0884,311.9663,677.2294,-290.0409,-971.7932
580.0000,-239.4861,491.9359,288.0244,649.6966,-319.6561,-1011.0382
600.0000,-242.2882,485.0276,284.9599,646.3457,-337.1343,-1022.7511
620.0000,-256.6378,482.8580,274.0289,644.6309,-333.6232,-1025.1161
640.0000,-221.1094,554.0286,297.9394,667.3586,-272.1371,-999.6711
660.0000,-187.8269,570.9034,315.0454,672.5906,-269.5099,-970.1727
680.0000,-186.9518,590.0100,316.9233,665.4417,-271.1902,-962.5724
700.0000,-176.9371,594.0007,313.0733,666.4894,-269.4617,-962.2534
720.0000,-199.7491,594.0620,301.9144,639.4667,-282.2626,-967.4859
740.0000,-202.1584,595.9282,299.0894,638.4029,-309.5349,-989.3696
760.0000,-185.5782,596.0845,315.9005,645.5710,-276.2581,-951.3668
780.0000,-182.3504,620.9311,334.0990,648.3394,-268.5227,-967.4756
800.0000,-152.3011,667.0027,330.8665,652.6138,-245.2903,-942.2495
820.0000,-158.5146,625.0125,328.1528,653.2847,-246.4566,-934.5751
840.0000,-186.1824,618.0794,316.8365,641.7235,-251.3026,-957.1283
860.0000,-186.7704,647.9820,328.1790,648.2302,-245.4680,-951.7194
880.0000,-173.9112,666.9959,332.8362,645.7375,-211.2815,-922.9747
900.0000,-168.9694,653.9677,337.1846,649.2179,-212.5156,-901.8329
920.0000,-167.7861,644.9811,331.7955,639.7380,-228.1975,-925.8448
940.0000,-180.1241,694.0374,333.2285,647.1957,-251.5447,-943.9928
960.0000,-173.5264,720.0920,332.7769,651.8555,-253.2112,-930.7080
980.0000,-150.3478,741.0415,335.2483,649.1397,-250.6005,-911.1137
1000.0000,-184.4060,720.0950,316.7212,643.8692,-274.1032,-941.5764
1020.0000,-190.5552,722.0197,323.2625,651.0878,-273.6271,-946.2770
1040.0000,-175.1657,713.0502,329.7226,648.8992,-247.0605,-930.4213
1060.0000,-160.6759,683.0167,335.2978,653.0454,-251.7510,-935.4182
1080.0000,-151.9679,699.0607,331.6848,663.9219,-265.0354,-935.2894
1100.0000,-192.8206,688.0403,315.3162,641.0430,-291.8297,-967.5685
1120.0000,-178.8541,667.0088,322.6496,657.8981,-293.9255,-956.1625
1140.0000,-173.0588,667.9412,330.3563,667.0746,-269.8635,-940.6827
1160.0000,-184.7469,679.0974,334.6363,656.9609,-268.8574,-948.0300
1180.0000,-197.1231,677.9904,332.3724,658.0129,-276.9837,-963.8129
1200.0000,-182.6174,678.0113,346.6248,657.9017,-297.7401,-948.9251
1220.0000,-189.2888,722.9636,332.3975,652.0748,-282.0889,-937.9056
1240.0000,-198.5050,751.0869,317.5816,646.9495,-273.5897,-952.8273
1260.0000,-212.3067,733.9702,312.4100,656.0455,-292.2110,-967.0095
1280.0000,-206.4739,745.0991,320.5605,658.9174,-253.5550,-952.7512
1300.0000,-187.4408,774.0456,325.4556,660.1222,-237.2625,-941.0700
1320.0000,-166.3929,775.1100,334.5413,670.8792,-242.4280,-932.6711
1340.0000,-152.4927,778.0063,344.4792,664.1107,-223.4138,-904.1093
1360.0000,-153.2834,790.0440,349.5060,664.8116,-227.3064,-914.6166
1380.0000,-145.4771,780.0582,334.4801,664.1423,-242.4501,-918.1519
1400.0000,-183.3327,764.0712,337.5025,651.8537,-259.2869,-933.5892
1420.0000,-154.5294,781.1589,338.5143,660.2105,-244.5369,-915.1718
1440.0000,-185.3558,776.9600,330.4647,649.7368,-266.2298,-945.5930
1460.0000,-160.4419,778.0806,333.5394,662.2374,-248.6326,-930.1769
1480.0000,-168.3975,777.9979,342.4566,668.7539,-243.0894,-894.5861
1500.0000,-151.4459,745.1082,329.5453,662.2837,-250.7224,-896.1340
1520.0000,-186.4529,714.9211,317.4315,659.6505,-288.0298,-955.6532
1540.0000,-179.3409,708.1938,334.5605,665.3502,-270.7355,-930.1001
1560.0000,-183.5026,692.8747,322.4122,671.6825,-268.9154,-942.7011
1580.0000,-185.2993,691.2510,330.5944,670.3981,-286.8439,-946.0496
1600.0000,-179.5741,669.7394,325.3927,667.5737,-290.9094,-954.7783
1620.0000,-193.1420,626.2421,314.6193,657.4283,-293.9186,-963.9765
1640.0000,-205.7282,621.7193,316.3616,659.5016,-329.8585,-978.8851
1660.0000,-206.0931,629.2960,298.6153,658.4257,-318.9208,-977.8730
1680.0000,-183.8320,635.6547,307.3280,665.4888,-284.7995,-951.9929
1700.0000,-185.9480,627.4529,312.6443,667.5348,-273.9578,-945.7477
1720.0000,-157.9254,631.6398,319.3174,673.4574,-271.7214,-925.1063
1740.0000,-166.8005,616.5166,323.6715,674.5680,-283.0131,-939.5952
1760.0000,-197.0863,581.5836,302.2868,666.4279,-295.7561,-956.2660
1780.0000,-206.6691,582.4964,302.7052,670.6503,-291.0602,-950.4514
1800.0000,-205.2966,580.4366,300.2618,671.3822,-282.6969,-957.4335
1820.0000,-212.4286,600.6435,311.7440,674.6619,-310.1216,-953.2797
1840.0000,-196.4145,595.4363,309.2456,664.2592,-285.6914,-939.5980
1860.0000,-208.3426,591.7388,302.7609,665.7383,-305.1325,-958.1046
1880.0000,-241.6355,559.3550,291.1953,642.2350,-349.7422,-994.8158
1900.0000,-256.1522,551.7423,286.7837,648.6949,-355.1776,-1024.9606
1920.0000,-231.7343,560.2457,298.1934,661.2632,-308.7267,-975.9729
1940.0000,-214.9657,566.7541,316.8080,658.7296,-327.1106,-977.7532
1960.0000,-175.8807,565.2050,347.1720,670.1974,-305.7044,-944.1430
1980.0000,-180.8157,578.8925,332.8303,660.8389,-313.1872,-936.5447
2000.0000,-180.0633,583.0933,333.1342,657.1510,-323.6567,-931.3379
2020.0000,-177.6536,584.9203,328.8791,638.7843,-304.1532,-928.3483
2040.0000,-182.2234,589.0186,320.1118,640.1481,-309.7224,-945.5208
2060.0000,-192.4900,577.9199,325.9004,636.8177,-308.1619,-955.1783
2080.0000,-186.3775,599.9832,314.0834,645.1390,-324.6528,-942.7028
2100.0000,-202.4052,571.0217,315.9081,643.8083,-315.1638,-954.9883
2120.0000,-200.4922,590.9623,315.0644,652.1110,-297.7148,-958.9011
2140.0000,-190.3179,577.0234,314.9511,655.8927,-308.1497,-944.8147
2160.0000,-215.5883,570.0220,305.0248,646.1638,-323.6738,-986.0821
2180.0000,-216.1266,563.0599,297.9753,642.8727,-351.1245,-981.6323
2200.0000,-214.6923,564.9744,303.0138,645.1299,-339.7483,-977.2500
2220.0000,-213.9992,561.0520,301.9826,648.8128,-342.0744,-979.4550
2240.0000,-210.7874,566.8581,300.9892,647.1151,-354.8236,-984.4382
2260.0000,-220.9385,561.0695,303.0161,643.8113,-340.0210,-992.2822
2280.0000,-209.8708,562.9083,307.9616,642.1232,-342.8348,-981.6065
2300.0000,-215.8212,555.0988,314.0388,641.8170,-330.9437,-966.0992
2320.0000,-206.0346,539.9201,311.9531,640.1488,-323.8620,-958.7713
2340.0000,-196.7461,563.1106,311.0492,640.8577,-302.9221,-947.9404
2360.0000,-219.0822,558.9314,301.9162,633.1826,-319.9123,-968.9380
2380.0000,-191.6542,567.0463,317.0684,618.7619,-291.8230,-945.7822
2400.0000,-202.1398,559.9002,317.9350,616.2213,-279.9884,-934.0695
2420.0000,-215.6296,559.1407,305.0664,603.7417,-322.7095,-954.6298
2440.0000,-184.1938,573.9073,336.9246,620.1995,-305.1506,-938.2294
2460.0000,-177.5614,567.0183,322.0788,617.7808,-298.6512,-928.4567
2480.0000,-183.2440,542.9313,302.9013,610.2139,-336.2332,-948.3871
2500.0000,-206.5848,537.1143,303.0836,612.7592,-322.5067,-961.3365
2520.0000,-208.3157,537.9185,303.9104,611.2743,-322.3173,-932.5231
2540.0000,-217.5037,527.0480,302.0764,613.6829,-323.3965,-954.1866
2560.0000,-229.2616,519.8635,305.9006,616.2990,-317.4232,-950.6741
2580.0000,-200.4862,538.0392,313.0760,642.7230,-287.2839,-928.0504
2600.0000,-216.3182,534.9422,312.8892,631.3230,-319.5574,-923.7961
2620.0000,-202.4661,533.9614,317.0884,635.7196,-325.1416,-916.8993
2640.0000,-217.3558,533.8582,319.9065,634.2635,-307.7690,-937.9518
2660.0000,-189.4748,527.0160,324.0696,636.6437,-311.0594,-918.7656
2680.0000,-184.3961,536.9782,330.9160,643.3405,-294.8731,-899.0615
2700.0000,-219.4143,505.0129,309.0765,640.6785,-313.9212,-929.6400
2720.0000,-179.3904,534.9423,323.9055,637.3192,-301.0464,-909.1945
2740.0000,-183.4020,535.0519,334.0731,642.6442,-269.6528,-894.4966
2760.0000,-165.4401,519.8538,326.9113,647.3335,-282.1414,-894.3141
2780.0000,-190.3046,527.0629,326.0764,643.5792,-269.4880,-907.3665
2800.0000,-191.4096,533.8297,328.9377,646.3984,-268.3644,-915.4483
2820.0000,-192.2945,516.0844,330.0547,647.6223,-319.3696,-931.2635
2840.0000,-190.5223,496.8380,331.9480,648.3945,-288.4623,-930.5638
2860.0000,-176.2837,537.1653,331.0539,655.6329,-267.2832,-901.1387
2880.0000,-187.5295,527.7864,324.9346,648.4016,-280.5913,-910.6793
2900.0000,-180.2718,532.1770,328.0560,643.5543,-258.1003,-908.0202
2920.0000,-183.5319,530.7113,325.9472,657.3694,-257.7971,-915.7885
2940.0000,-162.2518,542.1660,334.0606,659.5897,-216.9452,-884.9059
2960.0000,-158.5184,536.7456,329.9347,656.4286,-240.9002,-898.8793
2980.0000,-160.2127,539.2239,339.0519,656.5652,-258.8272,-911.8294
3000.0000,-171.6339,530.5764,326.9274,654.3481,-283.0375,-918.9860
3020.0000,-173.1587,539.2954,328.0478,656.5729,-259.7066,-911.7492
3040.0000,-180.6095,533.5006,324.9329,654.3470,-257.1897,-919.0638
3060.0000,-190.1286,529.4323,329.0659,644.5908,-303.6007,-946.6895
3080.0000,-190.6857,525.5341,327.9311,661.4229,-310.3297,-935.1382
3100.0000,-180.1428,532.5060,331.0638,670.6373,-289.4659,-915.6167
3120.0000,-179.6489,526.4048,329.9214,654.3461,-260.3965,-908.1733
3140.0000,-166.1429,544.5482,331.0699,655.6335,-290.3896,-902.5694
3160.0000,-179.6771,540.3129,331.9319,650.3755,-243.4412,-909.2298
3180.0000,-171.0324,557.6921,329.0964,645.6423,-255.3183,-899.5248
3200.0000,-154.6658,561.2764,330.9109,648.3877,-260.5437,-905.2404
3220.0000,-181.0516,532.7910,309.0954,637.6271,-280.2273,-921.5196
3240.0000,-151.7879,566.0868,318.8841,647.3375,-244.5600,-883.2468
3260.0000,-147.0299,559.9251,323.1157,650.6584,-265.2275,-907.4971
3280.0000,-146.7955,562.9938,324.8682,648.3692,-246.6120,-882.2529
3300.0000,-143.9831,561.9490,324.1203,649.6270,-244.1433,-889.4914
3320.0000,-156.7883,555.9528,325.8538,641.3789,-263.6746,-898.2495
3340.0000,-154.8912,534.0778,330.1606,642.6553,-279.1080,-885.4954
3360.0000,-153.8249,532.7629,325.8223,646.3702,-248.6616,-873.2209
3380.0000,-159.8786,540.1516,327.1811,646.6265,-267.1812,-883.5369
3400.0000,-150.9655,555.7473,327.7837,651.3599,-272.6175,-882.1840
3420.0000,-186.8731,528.3054,311.2163,644.6566,-274.0974,-913.5812
3440.0000,-198.9765,517.6216,299.7455,640.3098,-316.6167,-932.1616
3460.0000,-180.7831,510.3430,317.2563,643.6305,-283.1330,-900.6220
3480.0000,-193.0018,502.5675,315.7094,643.3157,-310.6884,-908.0975
3500.0000,-201.7434,478.4968,306.2827,641.6607,-303.2049,-920.6906
3520.0000,-189.1491,475.4499,317.6975,647.2681,-303.6438,-910.0374
3540.0000,-159.6323,504.5507,330.3177,645.7350,-270.1399,-871.7148
3560.0000,-160.1502,500.3617,335.6520,646.3123,-277.5397,-871.9427
3580.0000,-168.5994,490.6527,323.3690,641.6975,-269.1605,-896.7834
3600.0000,-144.2495,510.2036,341.6196,646.2860,-265.5986,-877.8915
3620.0000,-141.4728,516.8055,345.4038,650.7807,-261.2599,-869.8368
3640.0000,-180.3477,501.1474,321.5632,613.2330,-279.5081,-909.8486
3660.0000,-177.3792,498.8196,337.4469,611.7464,-272.2049,-890.9110
3680.0000,-165.4607,501.0720,331.5447,608.2010,-283.4964,-885.7807
3700.0000,-171.2529,515.8701,331.4722,606.7818,-278.2553,-919.9913
3720.0000,-163.5465,531.9849,340.4972,611.1858,-247.4741,-894.7156
3740.0000,-176.1701,525.9835,331.5032,605.8797,-284.2909,-916.0384
3760.0000,-160.6353,536.9541,336.4904,614.0699,-280.4276,-901.6689
3780.0000,-151.0164,573.0461,340.5380,617.9059,-255.3342,-907.0770
3800.0000,-157.7332,591.9128,339.4699,623.0813,-241.4250,-901.6226
3820.0000,-153.9291,569.0240,333.5439,618.8986,-265.3738,-916.1336
3840.0000,-160.8596,562.9297,331.4542,631.0515,-267.4806,-935.5860
3860.0000,-181.8537,559.1343,321.5545,616.9708,-272.2880,-942.1821
3880.0000,-210.0570,525.8234,299.4120,615.9896,-279.4047,-960.5621
3900.0000,-172.6776,566.0969,327.5764,613.0669,-267.3745,-934.2005
3920.0000,-153.1729,559.8925,343.4022,614.8890,-261.4618,-926.5261
3940.0000,-153.5361,548.1822,331.6062,622.0982,-261.3594,-905.2000
3960.0000,-157.2352,534.8793,330.3946,626.8038,-277.4116,-926.5201
3980.0000,-169.3785,542.2147,326.6193,627.1715,-273.2766,-905.2039
4000.0000,-190.4597,527.8243,317.3940,622.7680,-245.4474,-903.5110
4020.0000,-167.3282,539.2231,322.6146,631.3063,-262.3353,-894.2000
4040.0000,-175.5085,556.8840,328.3908,623.6327,-266.5155,-902.5153
4060.0000,-184.2017,539.2141,321.5979,635.3538,-256.3135,-916.2060
4080.0000,-185.6950,548.8848,328.3961,628.5521,-259.5255,-915.5408
4100.0000,-197.0389,535.1310,311.6024,639.4037,-249.2598,-918.1868
4120.0000,-235.8127,531.7878,305.3800,634.4991,-276.4944,-955.5869
4140.0000,-227.8806,518.1252,312.6102,647.5143,-276.2079,-950.1750
4160.0000,-205.9703,530.8657,322.4063,643.3761,-275.5058,-931.5937
4180.0000,-196.7744,540.1035,322.5887,651.6661,-238.1913,-903.1234
4200.0000,-214.0309,542.8642,312.4067,640.3576,-234.5222,-928.6251
4220.0000,-239.6965,538.0235,304.5805,633.7361,-275.1629,-946.1071
4240.0000,-216.1449,564.9268,311.4492,635.2651,-267.6198,-919.6468
4260.0000,-223.6079,567.9880,310.5312,641.8381,-253.2035,-906.0667
4280.0000,-221.2796,542.9700,312.4487,639.1411,-240.5648,-921.6941
4300.0000,-210.4394,549.9943,317.5269,645.8927,-227.1247,-887.0253
4320.0000,-210.4158,560.1272,327.4838,654.0521,-248.6064,-904.7163
4340.0000,-189.3392,533.9130,328.5005,654.0042,-257.1967,-900.0047
4360.0000,-183.4567,539.1332,334.4944,669.9969,-246.5995,-883.7464
4380.0000,-210.2608,525.8511,322.4744,663.0578,-248.1708,-912.9755
4400.0000,-185.5543,533.2080,328.5401,665.8550,-261.6351,-896.7823
4420.0000,-186.2567,528.7857,343.4667,656.1568,-292.1996,-906.9590
4440.0000,-184.6237,519.2777,332.5554,667.7586,-296.5988,-903.8024
4460.0000,-192.1175,523.6974,332.4354,659.2532,-290.2174,-918.9394
4480.0000,-185.6908,528.3129,322.5949,665.7031,-266.5935,-899.8125
4500.0000,-200.1038,529.6143,315.3982,654.3198,-295.2598,-936.9359
4520.0000,-177.7001,543.3301,335.6105,662.6143,-294.5260,-895.8147
4540.0000,-198.0525,511.5980,331.3693,659.3851,-289.3005,-878.9221
4560.0000,-219.7706,492.4337,306.6171,650.5724,-334.4609,-920.8140
4580.0000,-218.0267,528.5176,333.3412,655.3868,-297.3956,-916.9529
4600.0000,-181.7917,507.4454,329.6481,656.5558,-299.3949,-893.7742
4620.0000,-195.9913,532.3942,321.3058,649.4863,-329.4742,-919.9998
4640.0000,-215.8047,543.5070,321.6700,663.4952,-290.2908,-901.7455
4660.0000,-185.0101,562.3574,331.3046,668.4880,-289.5656,-893.0247
4680.0000,-186.8505,546.6733,332.6967,651.4860,-287.1656,-894.6846
4700.0000,-197.9680,515.2985,330.2813,648.5069,-307.7283,-901.0838
4720.0000,-184.8527,561.6737,330.7133,652.4059,-285.0592,-892.6312
4740.0000,-180.9567,560.3552,329.2927,657.5853,-280.7514,-891.1265
4760.0000,-207.8932,534.6865,328.7248,650.4041,-276.9291,-887.5773
4780.0000,-204.9867,544.2761,316.2644,644.5704,-279.8788,-897.1985
4800.0000,-194.8282,562.7197,324.7114,652.3890,-252.8496,-875.5026
4820.0000,-203.9827,548.1787,317.2772,653.5309,-248.0141,-871.2602
4840.0000,-234.8477,527.8317,308.7053,642.3961,-265.7614,-889.4341
4860.0000,-226.9093,532.1202,306.2865,645.4984,-262.1845,-894.3481
4880.0000,-236.8665,539.8164,312.6780,644.4873,-247.5760,-889.3552
4900.0000,-225.9007,539.1651,313.2926,656.5201,-244.2736,-878.4168
4920.0000,-213.8358,525.8400,317.6891,649.5140,-279.4185,-897.2769
4940.0000,-227.9154,554.0930,325.3196,646.4856,-252.4336,-875.5007
4960.0000,-185.8768,567.8330,333.6668,662.4765,-243.2870,-872.1858
4980.0000,-177.9510,579.0781,336.3397,658.4303,-230.5236,-856.5771
5000.0000,-217.8422,525.8612,323.6256,652.5162,-248.1575,-897.1136
5020.0000,-202.9970,529.0863,331.3673,646.4056,-246.6975,-901.6823
5040.0000,-186.8634,570.8357,341.6206,650.5776,-219.0569,-863.0187
5060.0000,-177.9565,555.1594,340.4045,647.3965,-241.8170,-901.7664
5080.0000,-191.8853,526.8061,331.6057,644.6838,-245.8790,-924.9614
5100.0000,-178.9643,528.1417,346.4398,646.3104,-241.9581,-904.8373
5120.0000,-178.7930,535.8958,341.5712,646.7251,-243.7309,-922.8765
5140.0000,-173.9564,554.1202,340.4568,644.2692,-243.1051,-913.9357
5160.0000,-152.8409,567.8082,351.5280,652.7292,-208.6090,-909.7968
5180.0000,-147.0164,543.1385,351.4948,643.1710,-245.2331,-925.9985
5200.0000,-179.7723,524.8575,338.5049,643.8262,-257.5049,-964.7514
5220.0000,-177.0107,535.1481,345.5159,643.1101,-251.3751,-974.1053
5240.0000,-192.8288,520.7574,339.4783,639.9241,-267.4173,-972.6942
5260.0000,-184.0784,507.1909,338.5246,641.0643,-247.4715,-976.1614
5280.0000,-183.7476,516.7913,330.4436,640.9324,-270.2098,-980.6375
5300.0000,-176.0571,536.2832,338.5529,636.0017,-271.5247,-980.2104
5320.0000,-178.6704,534.6951,329.4170,637.0389,-308.2163,-993.5845
5340.0000,-175.0955,533.3252,344.5806,644.9037,-272.6270,-972.2672
5360.0000,-157.6133,546.7397,356.4174,648.0439,-263.1228,-959.5243
5380.0000,-173.1477,533.3484,344.5919,647.8612,-282.7313,-973.3151
5400.0000,-176.5623,532.5968,341.3888,635.1754,-294.0314,-993.5021
5420.0000,-200.2437,493.3219,324.6023,631.8611,-304.8331,-990.3456
5440.0000,-189.5730,508.6338,336.3825,631.1689,-322.9503,-1006.4761
5460.0000,-201.3289,520.3664,321.6024,630.7687,-306.8993,-1001.3862
5480.0000,-153.4878,538.6152,333.3788,622.2548,-287.9250,-980.4318
5500.0000,-176.3736,537.3945,318.6310,629.6809,-273.8478,-988.4042
5520.0000,-189.3997,542.5286,325.3810,633.2435,-276.8652,-980.4033
5540.0000,-199.4946,529.4277,317.6183,638.6954,-298.9372,-1007.4381
5560.0000,-183.2537,540.4580,327.3867,637.3467,-298.8969,-1012.3946
5580.0000,-193.5821,518.4529,323.6072,638.6563,-293.9418,-1012.4597
5600.0000,-192.1904,496.4072,314.4052,636.3446,-282.8512,-1010.3835
5620.0000,-183.7528,503.5428,318.5934,638.6143,-281.9122,-1008.4825
5640.0000,-212.0682,497.4586,316.4189,635.4404,-289.8694,-1026.3688
5660.0000,-203.8967,492.5753,319.5566,632.5408,-299.9395,-1030.5112
5680.0000,-222.8758,473.3816,304.4305,629.4309,-303.9315,-1020.3511
5700.0000,-218.0353,507.5646,320.5443,635.5314,-306.9178,-1015.5130
5720.0000,-188.7261,500.3662,326.4592,640.4995,-277.8997,-1004.3269
5740.0000,-194.1692,503.6558,314.5027,635.4982,-278.8182,-1009.5373
5760.0000,-182.5167,501.2932,328.5189,643.4556,-274.9257,-986.2840
5780.0000,-178.3568,539.6870,332.4853,643.4916,-287.7971,-987.5538
5800.0000,-184.3321,534.2773,323.5408,640.5559,-272.9710,-996.2562
5820.0000,-192.5279,539.7176,318.4297,637.4292,-274.7048,-1016.5947
5840.0000,-208.1821,531.2498,310.5916,624.5351,-278.0548,-1001.2427
5860.0000,-220.7829,524.6732,294.3541,629.3896,-295.6999,-1027.6385
5880.0000,-205.9626,558.2560,301.6432,629.5592,-291.1587,-1017.2124
5900.0000,-229.9249,524.6992,285.2896,620.4126,-311.6450,-1045.6660
5920.0000,-227.7820,538.2589,291.7100,635.6112,-300.2751,-1031.2002
5940.0000,-206.2102,539.7859,309.2495,625.3950,-272.4622,-987.6765
5960.0000,-203.5329,543.1516,293.7628,624.5872,-278.3150,-996.1475
5980.0000,-188.4356,546.7431,310.1721,626.4190,-243.3889,-979.7129
6000.0000,-188.3240,544.2049,310.8293,622.6168,-242.4233,-987.1050
6020.0000,-183.6458,543.7729,317.1241,640.3684,-256.3186,-965.7477
6040.0000,-191.1068,532.1299,311.9078,635.6527,-276.5070,-970.0588
6060.0000,-196.8304,528.8203,319.0534,635.3537,-250.1933,-961.7677
6080.0000,-194.8157,500.2025,310.9591,635.6673,-277.6160,-960.0336
6100.0000,-183.0802,517.8068,307.9818,622.3161,-266.1219,-953.8002
6120.0000,-194.5920,513.2537,316.0260,627.6590,-299.7761,-989.0132
6140.0000,-177.2730,504.7410,305.9137,624.2817,-286.9714,-964.8432
6160.0000,-196.3870,517.2244,314.1107,633.6204,-274.8244,-978.9703
6180.0000,-178.4877,528.7510,326.8361,641.3471,-268.9094,-960.8712
6200.0000,-179.1881,531.2513,327.1754,630.7133,-283.9645,-966.9438
6220.0000,-173.6649,566.7547,326.7550,634.2478,-287.7463,-962.9203
6240.0000,-180.9765,573.2952,314.2730,625.7358,-278.0377,-970.8895
6260.0000,-182.9119,569.6831,328.6967,628.2830,-301.6696,-988.9608
6280.0000,-151.8277,599.4315,334.3625,633.6869,-271.1321,-949.8657
6300.0000,-155.0449,591.6198,329.6027,641.2839,-238.5059,-941.9630
6320.0000,-149.6248,596.5125,340.4449,645.7867,-216.3166,-923.8333
6340.0000,-183.2859,593.5684,311.5347,626.2564,-267.4646,-975.0013
6360.0000,-175.3901,597.5639,312.5181,638.7429,-235.3612,-950.8160
6380.0000,-166.4566,598.3810,318.4409,646.2344,-217.3346,-947.0126
6400.0000,-181.2695,560.6957,314.5919,645.8426,-247.5041,-950.8031
6420.0000,-163.6060,563.3295,320.3420,658.1809,-217.2510,-931.0333
6440.0000,-160.0979,598.7392,326.6931,650.8798,-206.5876,-933.7875
6460.0000,-152.7863,575.1617,326.2692,647.1103,-217.1683,-944.0426
6480.0000,-149.0012,590.9753,326.7773,649.8739,-235.6430,-944.7850
6500.0000,-147.9019,578.9623,343.1846,648.1054,-242.0711,-937.0683
6520.0000,-152.7809,573.0754,334.8675,653.8824,-229.6915,-947.7656
6540.0000,-141.9978,571.8608,339.1110,655.0447,-233.9929,-938.0814
6560.0000,-130.7344,564.2748,336.9510,656.0024,-233.7553,-943.7474
6580.0000,-163.1249,537.7239,325.9969,644.9943,-254.9960,-973.1085
6600.0000,-168.6440,565.4216,327.0527,651.9918,-243.8043,-952.7308
6620.0000,-169.2530,567.4175,325.8953,647.9662,-255.9746,-950.1200
6640.0000,-150.5747,574.5761,332.1363,652.0356,-254.8685,-954.7305
6660.0000,-155.2467,573.3228,326.8147,656.8835,-230.8766,-929.1122
6680.0000,-154.4183,571.8149,326.2261,646.1435,-244.8547,-951.7093
6700.0000,-155.3126,565.0959,322.7067,655.8899,-229.8643,-939.1238
6720.0000,-187.4460,566.0278,317.3057,647.1401,-238.8594,-934.7040
6740.0000,-183.4252,587.8434,304.6234,646.7733,-257.9349,-939.1331
6760.0000,-178.3468,596.2818,319.4247,632.1941,-238.8570,-954.6987
6780.0000,-192.4155,573.6274,315.5300,623.6922,-230.8740,-947.1476
6800.0000,-190.2616,538.5046,321.5199,627.2560,-213.8612,-922.6510
6820.0000,-155.4459,569.4473,334.4328,626.6505,-213.9612,-908.1478
6840.0000,-175.2615,578.6702,321.6054,627.3139,-221.8665,-949.6533
6860.0000,-181.5182,558.2213,309.3326,623.5712,-244.9748,-962.1935
6880.0000,-185.2877,524.9610,304.6906,620.4037,-238.7508,-936.6072
6900.0000,-156.4916,560.9922,329.2545,625.5781,-235.9986,-927.2006
6920.0000,-140.2286,558.1980,349.7925,635.4770,-245.7059,-920.5673
6940.0000,-167.5517,508.7470,328.1637,624.4725,-292.1075,-949.2320
6960.0000,-208.2087,503.3870,312.8533,616.5778,-311.7021,-981.5610
6980.0000,-212.4930,540.4626,309.0900,626.3885,-280.1492,-972.2732
7000.0000,-205.3025,543.5443,294.9410,632.5931,-242.5441,-942.5040
7020.0000,-201.5137,548.2737,323.0251,637.3570,-230.2102,-952.3099
7040.0000,-151.2386,572.7987,348.0098,649.6442,-223.5256,-895.4443
7060.0000,-158.4451,538.1711,330.9756,642.2916,-247.3216,-916.3363
7080.0000,-197.3166,524.9009,313.0391,637.7316,-274.3591,-942.3987
7100.0000,-194.4065,535.9648,310.9171,643.1682,-258.4412,-950.4109
7120.0000,-179.3646,578.1674,322.0855,643.8356,-253.3127,-930.3366
7140.0000,-199.3835,568.8224,309.9033,644.1427,-239.4924,-946.4705
7160.0000,-210.3910,563.2432,313.1059,648.9025,-246.1979,-945.2772
7180.0000,-188.3629,559.7201,320.8871,653.0427,-240.5929,-935.5311
7200.0000,-181.4899,527.3496,319.1183,659.9044,-235.0842,-925.2122
7220.0000,-181.2680,562.5979,322.8720,655.0571,-238.6779,-907.5837
7240.0000,-184.5602,552.4696,315.1105,647.9805,-237.9852,-941.1342
7260.0000,-187.2285,556.5270,308.8769,660.0052,-239.7693,-913.6575
7280.0000,-185.6362,555.5463,322.1182,668.0393,-239.9001,-917.0441
7300.0000,-183.1384,530.3725,323.9038,650.8918,-242.8835,-906.7433
7320.0000,-191.6406,520.6893,303.0960,652.1424,-263.8671,-926.9704
7340.0000,-194.0324,540.3657,326.9313,665.8489,-264.0236,-916.8337
7360.0000,-187.7797,514.6541,296.0538,653.1338,-295.7480,-959.8889
7380.0000,-188.0229,538.2726,314.9537,658.8228,-287.0720,-946.9415
7400.0000,-178.8188,538.7244,319.0135,671.1886,-267.7150,-905.7907
7420.0000,-187.9396,521.2644,317.0089,656.8105,-300.1879,-956.0330
7440.0000,-188.9605,535.7521,311.9297,658.1956,-290.5920,-937.7189
7460.0000,-186.8523,529.2508,310.0902,651.7852,-280.1984,-933.1057
7480.0000,-183.0067,533.7309,317.8687,647.2737,-277.4897,-924.6179
7500.0000,-158.7005,559.2737,326.1686,650.7299,-259.3061,-910.1679
7520.0000,-170.1300,548.7825,325.7722,643.2286,-248.4804,-895.5446
7540.0000,-164.6561,547.2228,310.2786,636.7590,-267.3663,-905.2382
7560.0000,-196.1449,538.7074,317.6751,628.2289,-279.4005,-920.4631
7580.0000,-183.5762,523.3369,312.3738,639.7809,-252.3650,-906.3156
7600.0000,-170.2961,523.7150,330.5811,641.2337,-256.4224,-901.3926
7620.0000,-165.4925,533.3062,330.5052,643.7636,-259.4232,-901.3987
7640.0000,-161.3198,502.6238,311.4475,631.2180,-291.3800,-911.3113
7660.0000,-175.3684,534.4395,317.5930,637.7478,-275.3794,-910.4713
7680.0000,-145.4153,519.5516,316.3489,639.2079,-267.4186,-891.2375
7700.0000,-184.3509,480.4262,306.7074,626.8298,-298.4435,-918.5502
7720.0000,-199.4928,503.4721,301.2108,626.1455,-308.4133,-940.1975
7740.0000,-182.2605,484.4382,317.8326,628.8600,-304.4574,-900.6002
7760.0000,-171.5147,496.4815,306.0827,637.1349,-276.3411,-892.1260
7780.0000,-176.1525,498.4874,311.9545,642.8839,-294.4174,-884.6340
7800.0000,-151.6849,535.4028,328.9652,645.0031,-267.4310,-864.0701
7820.0000,-147.1192,526.6630,322.1065,643.9868,-296.3985,-889.6731
7840.0000,-158.6904,533.3023,315.8436,635.9644,-286.4183,-876.0486
7860.0000,-151.0827,522.6568,305.2155,634.0560,-266.3805,-863.6833
7880.0000,-149.8107,518.2767,329.7301,642.8723,-268.5173,-836.0970
7900.0000,-183.9994,482.7549,303.3425,645.1796,-301.3148,-869.6868
7920.0000,-204.8793,474.1951,287.6064,632.7859,-345.5728,-890.0505
7940.0000,-208.9659,487.7314,286.4437,626.2088,-331.2135,-851.6635
7960.0000,-214.9108,473.1687,282.4680,618.7264,-302.6379,-851.0522
7980.0000,-206.8918,474.8892,293.5395,618.2825,-278.1245,-837.7276
8000.0000,-225.0359,464.0072,280.3683,604.5653,-324.6758,-862.0927
8020.0000,-227.8359,463.9480,277.6544,604.4264,-329.0601,-871.6107
8040.0000,-239.0804,469.9127,275.2744,595.4935,-345.8213,-868.1517
8060.0000,-213.6978,484.9551,280.7487,618.4969,-292.9994,-840.6361
8080.0000,-192.0853,526.8999,305.1877,631.4299,-282.8442,-820.2545
8100.0000,-176.6395,534.0545,293.8174,628.6023,-279.8825,-781.5607
8120.0000,-196.1621,512.8380,279.1299,620.2859,-287.9505,-823.3179
8140.0000,-196.5810,528.1566,282.8901,626.7293,-285.7979,-813.5016
8160.0000,-150.2887,537.7459,301.0558,643.2010,-254.0620,-770.3774
8180.0000,-173.4824,541.2664,301.9477,632.8743,-241.6857,-775.4066
8200.0000,-149.3503,541.7438,299.9891,638.0925,-239.1201,-771.4581
8220.0000,-180.4609,537.2739,294.0004,633.9174,-255.6295,-791.3281
8240.0000,-178.3882,509.6110,288.9392,636.9487,-261.2758,-802.5664
8260.0000,-187.4200,502.4277,288.0399,639.0256,-292.5143,-819.2330
8280.0000,-174.4334,532.4939,307.9013,643.8292,-273.3077,-799.6724
8300.0000,-149.3477,562.4269,320.0958,645.1631,-262.4459,-773.1084
8320.0000,-196.5168,525.4733,306.8631,636.7559,-311.4943,-814.7786
8340.0000,-165.2822,500.5385,315.1235,640.2513,-322.3146,-813.0317
8360.0000,-189.6505,505.4045,305.8568,635.7228,-312.5934,-814.8964
8380.0000,-180.2001,541.6541,315.1433,636.3757,-294.2587,-810.9158
8400.0000,-183.6714,548.2601,318.8385,647.6244,-269.6670,-778.9970
8420.0000,-167.1655,535.7576,315.1566,651.4570,-251.1650,-762.7689
8440.0000,-189.7898,529.1304,306.8091,647.5503,-275.6662,-790.1279
8460.0000,-237.0704,503.8188,273.1600,635.4899,-326.0817,-838.6783
8480.0000,-233.8074,508.1069,292.8227,639.4645,-311.8250,-841.1897
8500.0000,-222.0312,525.9312,298.1700,644.5178,-288.0193,-818.5636
8520.0000,-202.8890,535.9929,318.8110,643.3719,-255.8373,-797.3320
8540.0000,-216.9422,532.0158,313.1636,613.6194,-292.9726,-821.4602
8560.0000,-215.9190,505.8765,317.8311,628.3260,-309.9157,-817.4443
8580.0000,-217.9029,501.1408,312.1708,615.6345,-320.9239,-837.3901
8600.0000,-229.9536,513.7838,311.8239,618.2891,-307.9190,-864.4666
8620.0000,-230.8152,530.1963,316.1555,619.6303,-298.9394,-864.2378
8640.0000,-228.0793,541.6587,308.8284,617.3219,-288.8696,-881.5346
8660.0000,-241.8256,526.3452,298.1650,613.7029,-294.9400,-871.1772
8680.0000,-244.1065,538.5596,291.8324,617.3087,-301.8981,-876.5975
8700.0000,-222.7842,534.4647,307.1340,619.6497,-276.9184,-869.1266
8720.0000,-218.1105,508.4191,282.8147,613.2463,-311.9052,-871.6547
8740.0000,-243.7824,497.4974,280.1366,615.6826,-320.9586,-908.1111
8760.0000,-225.1406,538.3545,295.8192,617.3201,-304.8177,-893.6788
8780.0000,-208.6870,532.6295,305.1385,624.6312,-291.0615,-876.0855
8800.0000,-222.1352,508.2265,301.8192,615.3591,-292.7144,-875.6871
8820.0000,-240.7601,496.7170,299.1417,620.6440,-315.1186,-907.1036
8840.0000,-252.0798,474.1811,283.8241,614.3494,-327.5964,-902.6783
8860.0000,-222.8054,545.8243,323.1619,631.6467,-284.2603,-864.1290
8880.0000,-207.0924,535.1193,311.8364,629.3903,-289.4696,-859.6173
8900.0000,-246.7834,478.7773,301.1557,627.5455,-320.3970,-892.2101
8920.0000,-269.9760,466.0636,276.8189,613.4019,-353.3741,-912.5579
8940.0000,-256.9009,501.9079,289.1431,613.5245,-345.6200,-916.3009
8960.0000,-260.9460,497.0047,298.8220,622.5154,-302.1602,-889.4537
8980.0000,-233.9698,512.9540,300.1379,623.4687,-296.7942,-857.3792
9000.0000,-213.7860,493.9952,316.8517,625.5979,-293.9260,-844.3146
9020.0000,-250.0784,464.8724,290.1312,611.4127,-331.0018,-894.5333
9040.0000,-249.6573,494.9637,307.8608,619.6375,-303.6996,-872.1664
9060.0000,-246.2894,509.9491,311.1095,627.2817,-271.1955,-836.7346
9080.0000,-248.5160,510.9984,304.8625,627.7325,-248.4271,-831.0797
9100.0000,-246.4477,502.8715,299.0845,619.1819,-276.4713,-849.8279
9120.0000,-245.4237,536.0274,302.8931,619.7977,-293.1577,-863.8338
9140.0000,-255.5722,495.8986,277.0669,609.0961,-326.7805,-884.0282
9160.0000,-289.1905,510.1097,284.8844,618.8461,-324.8527,-910.6691
9180.0000,-242.8003,530.7628,314.0641,626.0844,-261.1177,-841.2906
9200.0000,-198.9860,512.0987,287.9149,621.9604,-272.5153,-849.4286
9220.0000,-264.0307,480.6840,279.0428,612.9741,-325.3986,-901.4573
9240.0000,-238.7733,506.2048,297.9644,628.1000,-312.2900,-881.2156
9260.0000,-207.2450,508.5830,323.0147,639.8623,-282.7254,-843.6599
9280.0000,-226.5773,507.3771,302.9899,630.1811,-260.9286,-844.9700
9300.0000,-267.4178,484.5529,276.9521,611.7363,-286.0756,-891.9185
9320.0000,-266.2495,458.4634,290.0401,614.2452,-314.5097,-901.7529
9340.0000,-263.7319,467.3346,294.9298,621.6349,-292.4243,-901.1498
9360.0000,-218.0457,500.5593,318.0955,629.3511,-264.2557,-864.5125
9380.0000,-214.9006,488.2802,313.8845,636.5385,-280.7111,-886.3608
9400.0000,-208.7352,479.6275,317.1351,625.4923,-279.8539,-868.2819
9420.0000,-215.1635,473.2044,309.8093,625.4877,-277.0302,-882.5961
9440.0000,-219.5424,488.8412,312.1997,626.6310,-269.5160,-890.0799
9460.0000,-192.3897,505.0114,315.7563,614.3436,-284.3603,-879.8050
9480.0000,-205.3200,507.9788,308.2422,615.6907,-271.2162,-881.8824
9500.0000,-208.7321,494.9564,308.7030,626.2244,-269.7298,-874.9971
9520.0000,-179.0194,508.1161,323.3322,625.8000,-282.9377,-882.6863
9540.0000,-181.9226,532.7415,307.6230,626.1217,-276.9493,-867.1840
9560.0000,-173.7651,573.1805,310.3730,615.8912,-279.6520,-892.5267
9580.0000,-177.1040,567.6775,301.5485,620.0803,-261.2697,-862.3332
9600.0000,-192.5390,549.3857,306.4756,615.9917,-293.4105,-876.3482
9620.0000,-185.3588,532.5089,310.4757,617.9075,-295.5105,-889.5063
9640.0000,-177.3620,506.4396,309.5569,615.0502,-288.1804,-857.2168
9660.0000,-161.5219,524.5105,315.3884,622.8177,-271.7839,-836.6843
9680.0000,-160.1789,535.4891,299.6252,613.1644,-276.9237,-871.1011
9700.0000,-148.7121,567.3601,314.3237,618.7672,-258.9387,-829.7699
9720.0000,-153.9914,525.6368,303.7262,608.2515,-238.7529,-810.0809
9740.0000,-127.8424,557.3536,314.2353,615.6589,-226.1263,-816.8399
9760.0000,-118.8770,569.7077,327.8017,618.3293,-242.6265,-807.0367
9780.0000,-145.9606,542.2240,305.1438,609.6412,-243.1854,-808.8895
9800.0000,-179.8082,509.7215,293.9041,615.3829,-256.5596,-813.0068
9820.0000,-119.9956,570.1677,330.0651,609.5741,-233.2432,-783.8901
9840.0000,-150.6938,567.7589,325.9724,621.4780,-247.4818,-780.0200
9860.0000,-134.1196,568.2287,329.9872,613.4792,-266.3782,-790.8661
9880.0000,-130.6602,561.7909,331.0392,638.5170,-239.4388,-781.0685
9900.0000,-97.1256,587.1243,335.9211,638.4351,-229.3835,-780.7999
9920.0000,-112.6561,605.8088,339.1116,637.6144,-242.4651,-780.1324
9940.0000,-105.0568,590.2541,332.8468,631.4136,-235.2477,-784.7272
9960.0000,-86.7413,594.7775,338.1947,637.6473,-215.5553,-780.2196
9980.0000,-126.0254,593.2664,320.7755,614.4061,-225.2455,-806.6401
10000.0000,-72.8117,656.7075,338.2562,623.6118,-209.6207,-778.3204
10020.0000,-58.9978,688.2811,347.7055,633.3489,-172.1069,-735.4911
10040.0000,-46.8424,686.6811,349.3198,619.6635,-182.6748,-753.4441
10060.0000,-63.8405,653.2772,338.6656,626.3575,-185.9205,-747.3718
10080.0000,-49.9525,666.6557,350.3543,626.6434,-188.8417,-782.6035
10100.0000,5.1447,715.4097,360.6194,641.3681,-176.8361,-724.2179
10120.0000,-29.0450,681.5408,335.4199,634.6557,-183.0061,-773.7535
10140.0000,-3.5639,686.4215,350.5608,634.4047,-187.5558,-783.0728
10160.0000,-4.1489,651.5677,336.4405,619.6310,-216.2943,-786.9266
10180.0000,-27.4494,625.4866,333.5107,623.3837,-213.4172,-816.9354
10200.0000,-15.3723,655.4316,322.4664,619.6009,-234.4693,-814.1142
10220.0000,-18.3408,645.5345,321.4913,620.4080,-225.2160,-818.7702
10240.0000,-2.4593,634.3148,335.5239,630.5010,-182.6593,-777.2577
10260.0000,-8.1084,622.6648,324.4719,630.4647,-222.9661,-811.5933
10280.0000,-11.6781,666.2780,335.5486,619.5059,-233.9288,-812.4229
10300.0000,-6.9266,683.7425,335.4490,636.5538,-235.6658,-822.4402
10320.0000,-31.8688,691.1854,334.5555,621.4333,-248.2082,-826.5861
10340.0000,-33.7898,692.9237,321.4344,625.5784,-246.4436,-828.2831
10360.0000,-53.0656,688.1070,317.5635,629.3860,-266.3937,-822.7341
10380.0000,-27.5828,719.9196,334.4109,637.6264,-210.2208,-809.1312
10400.0000,-14.2242,724.0343,338.6039,637.3405,-242.6661,-800.8577
10420.0000,-50.4251,693.0987,329.4083,625.7111,-258.9984,-794.9822
10440.0000,-40.3504,702.8896,332.5999,615.1899,-244.9072,-790.9839
10460.0000,-8.2212,722.1287,353.3968,618.8029,-223.7857,-751.8427
10480.0000,-37.5084,719.9221,323.5899,609.1697,-221.1715,-760.0854
10500.0000,-35.0951,718.2594,351.4086,615.8615,-216.5401,-757.7277
10520.0000,4.1710,737.7988,351.6047,616.0749,-214.3593,-727.1637
10540.0000,-11.9274,740.3186,346.4020,617.9191,-230.2974,-725.6436
10560.0000,-13.8950,744.7816,349.6064,619.0152,-208.5409,-701.2471
10580.0000,-36.8007,717.3246,335.4135,614.0367,-212.1554,-721.5460
10600.0000,-50.0361,714.6962,335.5956,612.8976,-231.6625,-747.3403
10620.0000,-64.6128,704.4732,329.4224,610.1567,-259.0009,-754.4849
10640.0000,-38.0971,689.6334,338.5813,617.8138,-237.8571,-755.4124
10660.0000,-35.5381,688.4937,333.4202,620.2374,-254.8397,-753.4352
10680.0000,4.6040,719.5909,350.5379,624.7176,-227.9696,-719.4611
10700.0000,-24.3539,688.5672,337.4601,609.2773,-281.6755,-763.3767
10720.0000,-22.3459,697.5169,340.5239,617.6620,-273.1139,-762.5266
10740.0000,-6.2579,718.6402,349.4917,611.3295,-243.5755,-761.3498
10760.0000,18.4723,727.4742,360.5059,625.6095,-200.2394,-723.5497
10780.0000,-20.1276,717.6312,329.5191,612.4395,-246.4904,-761.3032
10800.0000,-23.5566,700.3645,332.4611,615.5404,-244.3241,-774.6029
10820.0000,5.8119,748.8054,351.5615,622.5110,-229.3398,-750.2489
10840.0000,-0.6111,724.2185,346.4246,624.4356,-234.3783,-756.6294
10860.0000,-2.9614,709.7625,328.5832,618.5141,-252.3554,-782.2401
10880.0000,-1.7169,738.2516,344.3934,611.4489,-205.4775,-771.6830
10900.0000,-15.9321,741.8940,334.6429,598.5702,-211.2615,-777.1672
10920.0000,-24.8298,742.1288,343.3283,594.3045,-208.5604,-781.7466
10940.0000,-20.7950,755.0109,342.6829,585.6936,-218.2321,-785.1279
10960.0000,-22.8843,757.0051,332.2820,592.2747,-186.5582,-770.8032
10980.0000,-31.7683,746.0032,345.7455,587.7335,-209.1465,-789.0389
11000.0000,-72.0360,708.0059,324.2234,589.2042,-245.6567,-819.9077
11020.0000,-46.6675,743.1157,329.8104,584.7634,-216.1084,-796.9412
11040.0000,-71.1240,712.8022,316.1536,584.1512,-266.7837,-829.0246
11060.0000,-60.5688,722.2841,335.8855,582.8265,-266.0703,-806.8367
11080.0000,-66.1764,723.7103,332.0772,584.1074,-295.8147,-818.1343
11100.0000,-58.4766,740.3276,345.9521,588.8184,-253.9747,-782.6932
11120.0000,-69.2715,719.6526,325.9940,582.0746,-290.8772,-821.2673
11140.0000,-58.4087,724.4002,342.0416,595.9459,-255.9034,-775.5515
11160.0000,-57.3746,719.5481,339.9269,593.0690,-257.9753,-789.3941
11180.0000,-78.3428,688.5040,333.1078,586.9279,-269.8582,-798.4054
11200.0000,-93.4569,702.4624,328.8423,588.9654,-278.0039,-805.5705
11220.0000,-64.2890,726.6340,345.2023,609.9956,-240.6997,-780.2222
11240.0000,-94.5379,715.3840,339.7659,596.0008,-266.1692,-806.7446
11260.0000,-115.1986,692.7687,328.2717,602.0192,-264.6635,-835.0665
11280.0000,-109.5941,723.1774,334.6866,607.9382,-260.2573,-818.9543
11300.0000,-85.1496,720.8682,349.3510,611.1261,-222.5386,-785.8187
11320.0000,-67.6430,734.0864,340.6041,603.8336,-206.3504,-778.1649
11340.0000,-93.1313,704.9340,332.4242,599.1010,-242.3719,-811.6271
11360.0000,-99.6750,709.0034,338.5131,597.8445,-244.4601,-812.3782
11380.0000,-97.9969,720.0873,325.5060,596.2226,-242.2409,-788.3958
11400.0000,-92.8098,730.9243,340.4583,597.7952,-239.6050,-769.6074
11420.0000,-105.9793,716.1072,321.5743,594.1984,-252.1184,-771.1383
11440.0000,-88.8417,718.8860,333.3650,589.7252,-256.7725,-740.8194
11460.0000,-107.9325,716.1887,327.6530,592.2663,-261.0016,-747.9008
11480.0000,-110.9129,714.8717,337.3110,585.7067,-250.9103,-730.0559
11500.0000,-118.8619,711.2137,331.7202,593.3566,-264.8615,-710.6588
11520.0000,-108.9442,716.7189,331.2394,600.6550,-238.0283,-716.2797
11540.0000,-91.8705,724.3095,348.7673,594.3578,-243.6437,-685.4044
11560.0000,-93.9890,713.6854,348.1867,596.5392,-246.1994,-699.4925
11580.0000,-95.7785,720.3882,345.8514,606.4814,-231.4786,-691.1915
11600.0000,-95.0179,693.6682,351.1267,602.5277,-254.3585,-663.6896
11620.0000,-95.7633,697.3299,343.8833,602.4736,-259.4129,-689.9849
11640.0000,-148.0280,679.6600,310.0424,581.4356,-290.4957,-704.9125
11660.0000,-125.8148,686.3424,325.9510,586.5820,-275.2107,-697.7890
11680.0000,-118.9658,680.6010,346.0305,603.3735,-261.6523,-682.0742
11700.0000,-120.8158,676.3979,335.9738,597.5681,-277.1147,-665.6348
11720.0000,-96.0177,685.6309,348.9698,606.3537,-234.6910,-620.1863
11740.0000,-134.8191,654.3862,339.0118,606.6677,-262.0721,-649.4960
11760.0000,-111.9823,684.6895,341.9414,593.2889,-265.8755,-637.3082
11780.0000,-150.9555,683.3049,333.0421,588.6819,-241.9247,-621.3813
11800.0000,-122.8894,694.6454,348.9059,590.3323,-247.9225,-608.3766
11820.0000,-127.9954,680.2798,336.0651,587.6754,-248.8654,-598.2899
11840.0000,-128.8618,714.7825,344.9049,609.2709,-243.9655,-568.4127
11860.0000,-129.0636,714.2118,345.0914,604.6860,-241.7976,-568.2233
11880.0000,-103.7515,746.7516,361.9023,609.2453,-218.0427,-532.4287
11900.0000,-132.1586,713.2146,347.0986,609.7112,-248.7813,-566.2007
11920.0000,-150.7330,684.8502,329.8642,590.2548,-260.0923,-568.4570
11940.0000,-158.1935,690.1942,336.1049,585.7606,-273.7151,-597.2257
11960.0000,-155.5518,694.8272,332.8652,599.2101,-239.0323,-582.4205
11980.0000,-151.3601,698.1413,352.0982,587.7435,-255.7876,-572.2725
12000.0000,-162.4789,690.9403,332.8687,581.1895,-260.0506,-599.3462
12020.0000,-154.3971,694.0078,343.1159,586.7974,-271.7739,-596.3825
12040.0000,-158.3299,689.9241,337.8684,597.2307,-256.9969,-597.2435
12060.0000,-174.5371,687.9638,336.0883,586.7919,-256.8933,-614.5062
12080.0000,-183.2402,664.0246,331.9053,601.2021,-268.9595,-613.1156
12100.0000,-164.7058,679.8992,335.0637,584.7056,-276.9048,-609.6583
12120.0000,-189.1386,652.1234,327.9064,585.2765,-280.8142,-630.9564
12140.0000,-147.8579,662.8563,345.0619,586.7598,-272.9868,-619.8586
12160.0000,-171.8952,658.1588,330.9354,585.3032,-294.7599,-632.7647
12180.0000,-187.0214,655.7454,320.0278,582.6703,-292.1343,-653.0793
12200.0000,-166.8228,646.1314,332.9531,580.3339,-255.6543,-617.5461
12220.0000,-123.1269,674.7039,346.0134,577.6370,-234.2003,-583.2857
12240.0000,-151.6714,652.2874,340.0052,578.2921,-252.5375,-614.3067
12260.0000,-123.2830,662.7067,350.9828,587.6066,-254.3674,-591.5278
12280.0000,-155.4259,623.2658,331.0259,575.4014,-283.3842,-622.0460
12300.0000,-167.4867,632.6474,328.9506,587.5710,-246.4594,-622.8007
12320.0000,-150.3386,673.3010,341.0503,583.3661,-264.3115,-629.7711
12340.0000,-126.6336,691.5636,345.9192,588.5665,-271.5560,-599.0777
12360.0000,-108.1491,684.3353,358.0938,586.4262,-241.1328,-598.4807
12380.0000,-148.8199,668.5742,339.8733,576.5402,-227.6612,-619.3727
12400.0000,-109.9841,690.3537,360.1619,573.4498,-234.9884,-594.1745
12420.0000,-96.9064,687.5523,364.8295,581.4973,-248.8498,-603.6637
12440.0000,-120.7855,686.4331,349.1747,578.4894,-205.9119,-603.8972
12460.0000,-124.1097,699.4904,351.7700,578.4438,-239.9236,-628.9544
12480.0000,-120.6260,705.4711,367.2368,574.5642,-293.8259,-634.6140
12500.0000,-124.2855,683.5475,363.7209,583.4007,-290.0526,-639.2557
12520.0000,-119.4619,675.4810,360.3061,580.6404,-245.7120,-627.3213
12540.0000,-120.4172,715.4700,363.6728,582.3309,-224.1689,-630.5309
12560.0000,-111.3580,743.5369,355.3297,586.6183,-265.6934,-638.0388
12580.0000,-127.6178,686.5056,346.6129,601.3655,-231.1596,-653.8163
12600.0000,-98.1166,687.4617,363.3839,607.6917,-215.6026,-621.7577
12620.0000,-131.8016,655.3859,343.5506,596.3358,-255.2857,-645.0831
12640.0000,-119.9836,691.5410,366.4473,595.7305,-253.5515,-654.5156
12660.0000,-112.9476,692.4495,352.4977,591.3135,-242.2884,-642.3293
12680.0000,-133.7868,645.5338,353.5306,587.7328,-258.5161,-684.2659
12700.0000,-125.0654,657.3694,353.4379,588.2811,-231.2971,-667.5828
12720.0000,-121.6797,661.5904,350.5911,595.7589,-223.5005,-657.0222
12740.0000,-119.1761,657.3439,360.3578,592.2396,-237.3242,-672.8040
12760.0000,-124.5461,657.5500,348.6683,592.7476,-240.4141,-692.8191
12780.0000,-118.3147,669.2736,361.2967,606.2955,-227.3108,-687.0154
12800.0000,-109.4332,670.6119,360.7506,604.7256,-224.3882,-687.6300
12820.0000,-128.4900,663.2712,352.2240,600.2619,-226.2835,-717.2068
12840.0000,-119.2722,682.7220,357.8069,609.7172,-222.5154,-714.4807
12860.0000,-127.6015,654.2749,362.1544,610.2783,-236.2745,-703.3527
12880.0000,-124.1725,665.6638,364.8573,616.6840,-222.5426,-712.3265
12900.0000,-134.7584,659.2495,357.0939,610.2912,-226.2209,-727.5032
12920.0000,-120.0407,671.8028,374.9068,614.6851,-223.5864,-714.2050
12940.0000,-106.7931,681.2216,387.0381,616.3522,-208.2205,-687.5878
12960.0000,-149.9210,659.7586,353.9648,609.6511,-229.5603,-737.1211
12980.0000,-126.8999,669.0925,386.0022,611.3849,-205.1584,-715.7047
13000.0000,-115.8456,665.7984,377.0356,587.6341,-195.6445,-681.0070
13020.0000,-160.9676,628.1219,357.9407,582.3558,-237.0699,-736.7819
13040.0000,-159.8162,618.8621,375.0595,585.6168,-249.7415,-753.9781
13060.0000,-118.0049,659.9714,383.9162,594.3747,-198.0133,-711.8277
13080.0000,-150.7000,615.9506,352.1115,582.5591,-233.7760,-761.9516
13100.0000,-169.1365,601.8900,343.8673,575.4492,-283.9568,-805.8943
13120.0000,-160.7094,599.0477,367.1284,589.5054,-258.8980,-777.9395
13140.0000,-123.1239,630.8719,368.8445,598.5096,-229.8508,-746.8818
13160.0000,-134.6353,621.1556,387.1629,600.5068,-252.9548,-749.9374
13180.0000,-99.1073,654.6996,386.8193,600.5302,-241.8188,-753.8776
13200.0000,-136.6298,629.2651,365.1749,586.4022,-270.9601,-800.9745
13220.0000,-154.2371,626.5977,356.7984,586.6076,-296.8062,-815.8970
13240.0000,-144.6660,651.3877,359.1732,604.3839,-258.0759,-813.9993
13260.0000,-119.1335,666.5555,377.8277,605.6124,-271.6852,-800.8470
13280.0000,-127.6837,688.4699,385.1754,612.3647,-250.1064,-811.0572
13300.0000,-115.1990,663.4376,385.8391,610.6517,-243.6619,-778.7822
13320.0000,-118.6387,658.5798,374.1688,609.3160,-256.1457,-805.0958
13340.0000,-161.1218,624.2043,368.8516,603.7033,-277.6205,-838.7561
13360.0000,-116.6685,656.7932,391.1410,610.3193,-233.1233,-803.1562
13380.0000,-137.0304,652.1962,374.8996,607.6977,-262.6406,-819.6738
13400.0000,-120.7612,663.8465,385.0869,604.2501,-243.1928,-806.2518
13420.0000,-100.9688,655.0627,406.9366,614.6989,-222.6231,-803.5921
13440.0000,-127.8603,619.9562,370.0233,606.2216,-247.1962,-834.3212
13460.0000,-120.9100,642.8467,382.9932,596.7830,-217.6275,-834.5620
13480.0000,-94.8496,655.1416,379.9873,604.2303,-216.2010,-827.3684
13500.0000,-99.8188,657.7740,381.0648,606.7938,-232.5882,-857.4377
13520.0000,-90.0082,673.3341,384.9107,609.2217,-217.1862,-848.3784
13540.0000,-96.8203,670.6675,380.1178,615.7528,-206.6532,-843.3718
13560.0000,-101.0636,659.3597,368.8427,606.2111,-214.1482,-868.4545
13580.0000,-86.6501,656.4269,379.1933,617.7233,-180.6180,-854.3024
13600.0000,-87.1869,683.5389,383.7531,613.2164,-198.0602,-856.4946
13620.0000,-113.5986,658.3262,370.2920,613.7374,-215.7650,-870.2651
13640.0000,-122.2666,671.7191,380.6766,620.3216,-190.9723,-852.5322
13660.0000,-98.4237,661.1765,379.3414,612.6675,-221.8506,-879.2377
13680.0000,-82.3440,681.7806,383.6003,621.3026,-175.9580,-846.5586
13700.0000,-78.4042,691.0698,399.4404,625.6489,-164.8818,-834.2582
13720.0000,-95.4274,666.9548,384.5229,615.3997,-208.8595,-872.6006
13740.0000,-95.2939,686.9899,376.5093,619.5604,-194.9535,-871.1827
13760.0000,-104.5771,682.0471,382.4487,622.4343,-211.7662,-872.6161
13780.0000,-93.1772,678.8534,385.6129,616.5865,-208.0756,-875.1555
13800.0000,-120.6542,656.2148,375.3418,620.5171,-215.6675,-864.6157
13820.0000,-97.1157,670.7270,385.6921,615.4792,-197.1636,-849.1434
13840.0000,-106.7637,662.3115,381.2679,632.5707,-208.5238,-856.6074
13860.0000,-117.9291,653.6405,374.7808,620.4080,-212.3261,-861.1423
13880.0000,-91.8690,666.4809,397.1858,623.5925,-205.3871,-836.6670
13900.0000,-123.8898,648.5197,369.8541,619.2853,-197.4285,-849.1699
13920.0000,-118.9026,628.5234,368.1165,613.6716,-208.2664,-872.5892
13940.0000,-120.8032,651.4356,375.9313,624.2012,-212.6002,-865.2050
13960.0000,-118.9710,638.5322,368.0517,616.7841,-232.0670,-884.5557
13980.0000,-126.7624,659.3834,363.9868,613.1583,-249.7584,-903.2585
14000.0000,-105.0644,690.5995,373.9594,616.8799,-206.9587,-873.5129
14020.0000,-110.7241,684.3280,367.0488,615.0408,-214.9199,-880.3038
14040.0000,-93.1568,679.6453,375.9232,633.0209,-198.7960,-845.4566
14060.0000,-121.6244,654.2742,361.1015,615.9799,-227.0108,-889.3465
14080.0000,-118.1565,659.6858,368.8437,627.0814,-202.6560,-877.4390
14100.0000,-111.6265,660.2408,366.1483,625.8795,-201.1836,-866.3735
14120.0000,-121.2030,653.7114,356.8168,612.1777,-213.5561,-887.4088
14140.0000,-91.5793,684.2838,373.2126,618.7045,-206.3313,-880.4130
14160.0000,-85.2375,681.6859,390.7553,628.3167,-213.4018,-893.3733
14180.0000,-59.4678,672.3502,381.2504,628.6127,-203.4556,-882.4429
14200.0000,-87.2847,659.6435,378.7397,619.3515,-214.2771,-886.3373
14220.0000,-85.4852,691.4037,387.2869,628.5221,-213.6198,-908.4853
14240.0000,-63.2682,696.6632,381.7201,620.4811,-213.1278,-919.3191
14260.0000,-93.5051,690.4077,381.3115,617.4884,-211.7479,-913.4998
14280.0000,-79.2825,696.5886,380.6815,632.5449,-179.9349,-901.3074
14300.0000,-77.4932,710.4744,392.3408,633.3583,-188.7879,-898.4936
14320.0000,-74.3748,707.4837,380.6536,636.6768,-198.8810,-906.3125
14340.0000,-116.4021,668.5981,352.3375,621.3032,-202.9251,-931.5126
14360.0000,-128.3648,692.3224,371.6383,615.7058,-203.7836,-943.3110
14380.0000,-90.4615,690.7150,388.3469,640.2935,-183.9949,-916.5207
14400.0000,-93.3841,693.1529,377.6410,625.7679,-182.6365,-943.3195
14420.0000,-126.4601,684.8696,367.3465,616.1735,-238.1099,-962.5223
14440.0000,-107.3546,683.0889,375.6642,614.7831,-229.5735,-983.3491
14460.0000,-85.4298,715.9964,380.3340,637.1616,-179.2338,-933.4752
14480.0000,-130.3816,680.9011,357.6529,620.8646,-238.5252,-982.3888
14500.0000,-98.4108,697.1313,379.3364,628.0656,-211.2790,-948.4330
14520.0000,-93.3737,691.7477,370.6967,623.9159,-211.5083,-953.4272
14540.0000,-112.4878,660.3377,376.3099,626.0553,-233.2704,-973.3953
14560.0000,-124.3284,654.6306,370.7261,621.9606,-227.4032,-980.4861
14580.0000,-100.4338,691.4860,381.2771,623.0139,-218.3696,-953.3197
14600.0000,-125.3423,662.4545,383.7398,623.9540,-238.4238,-954.5652
14620.0000,-88.4771,692.7405,403.2434,640.0829,-225.4134,-950.2533
14640.0000,-95.2528,669.2241,389.7972,621.9844,-251.4171,-929.6036
14660.0000,-120.4601,657.8802,378.1915,627.0591,-240.3520,-975.1782
14680.0000,-95.2499,693.0814,400.8385,635.9499,-222.3604,-941.7201
14700.0000,-83.4568,689.9976,395.1563,635.0881,-228.3043,-957.0658
14720.0000,-59.2398,722.9369,402.8740,645.9417,-207.4300,-944.8032
14740.0000,-82.4678,703.2009,399.1228,640.1003,-183.2876,-940.9727
14760.0000,-86.2806,695.7288,393.9222,644.8893,-183.3872,-948.8956
14780.0000,-98.4534,703.3914,380.0422,630.1213,-205.3049,-985.8777
14800.0000,-76.2284,686.5781,391.9735,645.8942,-217.5196,-960.0234
14820.0000,-61.4605,653.5578,374.9926,638.0775,-206.2713,-939.7578
14840.0000,-88.2864,651.3746,368.0355,643.8796,-185.4823,-956.1268
14860.0000,-91.5458,653.7026,360.9245,645.1917,-215.2431,-958.6575
14880.0000,-58.2165,690.2148,389.0926,649.7889,-179.5187,-937.2176
14900.0000,-71.5191,666.8973,381.8891,646.1791,-201.1361,-962.5361
14920.0000,-91.3022,661.1139,367.1612,640.7774,-239.6356,-994.3478
14940.0000,-90.5257,645.0306,381.8149,647.2637,-210.0847,-962.4285
14960.0000,-71.2987,682.9750,391.2166,643.7411,-235.7048,-963.4454
14980.0000,-90.5324,662.1494,376.7181,643.2580,-261.0426,-983.3434
15000.0000,-106.2842,656.7836,377.2917,635.6731,-243.7992,-984.5479
15020.0000,-108.5153,656.2974,376.6502,632.3673,-239.8949,-989.2307
15040.0000,-150.3469,615.6356,360.3746,625.6155,-287.9131,-1049.6903
15060.0000,-113.5313,654.3724,377.5989,636.3860,-240.7922,-988.1263
15080.0000,-89.3223,655.5958,387.4344,645.5590,-230.9739,-990.7709
15100.0000,-124.4849,662.4861,383.5350,631.4446,-271.6672,-1035.0422
15120.0000,-88.3161,662.4625,398.5142,642.4832,-238.0882,-975.8528
15140.0000,-119.4434,638.5241,380.4630,640.5662,-269.6656,-1038.9480
15160.0000,-107.3494,664.4103,381.5663,632.4178,-237.1977,-1028.9775
15180.0000,-91.4654,659.6482,399.4055,639.5873,-227.4542,-1004.8381
15200.0000,-80.3314,666.3589,411.6203,650.3815,-225.2835,-1003.0540
15220.0000,-84.3958,645.7324,399.3590,642.6656,-230.3451,-1005.7482
15240.0000,-136.3627,626.2311,367.6619,636.3558,-246.4576,-1041.1501
15260.0000,-98.3743,664.7902,381.3158,636.6866,-228.2473,-1059.7129
15280.0000,-102.3798,637.1875,376.7174,644.2184,-205.5494,-1021.2026
15300.0000,-148.4229,626.8150,356.2760,626.7502,-260.2063,-1047.6299
15320.0000,-124.4074,631.1661,377.7410,636.2281,-249.6781,-1034.2737
15340.0000,-120.3507,642.8931,384.2535,642.8567,-238.0233,-1023.5436
15360.0000,-158.4304,619.1503,357.7795,630.1210,-268.7537,-1050.3577
15380.0000,-118.3168,642.9288,375.2187,637.9160,-244.9348,-1029.4926
15400.0000,-113.4062,665.0440,386.7873,641.1030,-247.9042,-998.3864
15420.0000,-105.3131,626.9373,381.2180,641.9399,-226.7754,-993.4177
15440.0000,-146.5037,620.0486,343.8031,616.0389,-284.9957,-1067.4625
15460.0000,-153.3661,627.9150,370.2053,618.0300,-264.7808,-1050.4080
15480.0000,-151.4552,623.0083,368.8075,616.9215,-281.0917,-1063.5159
15500.0000,-153.3571,593.0109,373.1776,628.0883,-273.6110,-1049.3787
15520.0000,-175.4993,598.9453,354.7973,615.9172,-280.1765,-1085.5494
15540.0000,-196.2590,585.9928,337.1977,617.1135,-312.6015,-1100.3593
15560.0000,-196.5359,581.9385,356.7662,625.8659,-313.3479,-1084.5742
15580.0000,-159.2388,629.0628,376.2294,642.1647,-266.5110,-1036.3098
15600.0000,-154.5236,610.9855,374.7309,621.7624,-279.3478,-1048.5845
15620.0000,-149.2580,605.9999,370.2858,624.1890,-315.3429,-1057.2836
15640.0000,-143.5883,610.9628,377.6917,630.7697,-269.4045,-1036.6141
15660.0000,-152.2581,621.0824,373.3027,627.2548,-260.3188,-1046.2559
15680.0000,-126.6048,624.9265,384.6666,635.7275,-238.5047,-1004.6100
15700.0000,-150.2260,593.1265,364.3839,624.2849,-259.2424,-1029.2267
15720.0000,-126.6280,619.8871,376.6059,640.6782,-219.6253,-1006.6343
15740.0000,-126.1747,624.1284,386.4506,637.3509,-227.0932,-1007.2015
15760.0000,-125.6342,628.8306,378.5198,645.6348,-239.6439,-1004.6394
15780.0000,-148.1963,623.0748,382.5061,641.4445,-224.1327,-990.2010
15800.0000,-135.5871,619.8449,371.4610,646.5473,-216.7458,-981.6254
15820.0000,-147.1834,607.1873,372.5970,642.4218,-211.0391,-982.1863
15840.0000,-152.5915,618.8629,371.3727,631.5082,-234.7391,-995.6388
15860.0000,-131.2025,634.1241,368.6629,632.4490,-252.0048,-1011.2089
15880.0000,-133.5875,617.7632,370.2775,630.5388,-247.8180,-1002.6426
15900.0000,-163.1690,606.1564,357.7516,615.4901,-271.9075,-1021.2009
15920.0000,-166.6848,597.7686,347.1721,608.4366,-274.8252,-1039.6510
15940.0000,-160.1355,610.2433,350.8627,611.5540,-257.9291,-1021.1968
15960.0000,-164.6934,596.7738,337.0789,610.4832,-280.8980,-1042.6677
15980.0000,-144.1325,629.2911,358.9634,619.5008,-250.8586,-995.1773
16000.0000,-143.6805,604.7697,353.9880,618.3928,-271.9070,-1001.6412
16020.0000,-172.1750,596.3086,344.0566,616.5934,-291.8277,-1035.1896
16040.0000,-157.6671,604.7399,353.8738,632.4392,-237.9678,-969.6310
16060.0000,-125.1182,610.3277,360.1837,629.5261,-265.8268,-998.1751
16080.0000,-125.6992,601.7284,378.7799,637.4343,-263.0645,-983.6388
16100.0000,-141.0845,596.3669,351.2845,629.5403,-268.7745,-1009.1605
16120.0000,-167.7444,570.6064,333.6556,634.4077,-284.0591,-1027.6514
16140.0000,-166.1201,578.3183,345.3828,640.5787,-306.7501,-1013.1740
16160.0000,-129.7440,605.6295,364.5612,639.4047,-283.0853,-1008.6471
16180.0000,-131.1220,567.3340,345.4817,639.5417,-274.6400,-996.1703
16200.0000,-148.7629,603.5794,352.4499,635.4430,-296.1513,-993.6387
16220.0000,-183.0851,557.3134,329.5910,625.5757,-324.6151,-1025.1689
16240.0000,-157.7286,569.5906,340.3316,636.3878,-314.2426,-1022.6630
16260.0000,-112.0774,606.3655,357.6991,646.6155,-243.5746,-956.1335
16280.0000,-123.7647,596.6065,355.2401,639.4095,-240.2043,-953.6580
16300.0000,-132.0814,574.4413,335.7613,628.5836,-304.5873,-1003.1407
16320.0000,-161.7945,555.5681,329.1315,626.3972,-353.3342,-1038.7274
16340.0000,-154.9715,564.4186,343.8888,640.5618,-302.5301,-988.0928
16360.0000,-135.7898,594.5294,355.0434,639.4222,-306.3837,-981.7397
16380.0000,-145.9883,553.4382,353.9798,634.5175,-307.4672,-1004.0539
16400.0000,-158.8594,552.5109,333.9226,637.4423,-314.4864,-1009.8013
16420.0000,-130.9720,599.5115,350.0585,635.5518,-302.3920,-991.0093
16440.0000,-143.9022,559.4417,345.8505,639.4282,-280.4749,-993.8265
16460.0000,-120.8773,590.4433,371.1728,651.5928,-261.2913,-955.9338
16480.0000,-134.8986,588.4821,352.7750,638.3851,-274.5630,-962.8799
16500.0000,-140.8560,576.4858,350.2390,639.5129,-265.2066,-967.8940
16520.0000,-117.9336,601.5029,353.6799,632.4448,-270.6553,-964.9250
16540.0000,-89.8312,604.6143,370.3281,635.5457,-264.0881,-953.8262
16560.0000,-128.0464,588.4409,349.6082,626.4034,-269.8758,-983.0057
16580.0000,-131.8102,596.6287,329.4046,621.5814,-308.9790,-1006.7762
16600.0000,-142.0683,587.3438,336.5215,618.3890,-303.9716,-1010.0779
16620.0000,-124.7167,597.6165,351.4731,637.5245,-312.8689,-995.7076
16640.0000,-93.1642,608.3568,366.4799,635.4654,-283.0388,-974.1404
16660.0000,-140.6375,587.6009,337.5331,619.5016,-302.7130,-1003.6282
16680.0000,-129.2245,590.3922,343.4042,622.4432,-309.2451,-998.2419
16700.0000,-134.5407,595.6399,345.5908,615.5437,-305.5793,-1007.5461
16720.0000,-122.2281,596.3585,345.3514,622.4429,-317.2817,-993.2934
16740.0000,-132.5785,603.6711,348.6436,633.5681,-313.3696,-985.4778
16760.0000,-134.2788,598.2433,345.2888,623.3754,-343.5035,-1009.3914
16780.0000,-157.4325,561.7227,327.7050,616.5974,-339.2716,-1009.3859
16800.0000,-159.3945,564.2502,342.2373,620.4421,-339.6593,-1011.4990
16820.0000,-143.3755,569.7668,344.7647,617.5501,-325.0623,-991.2701
16840.0000,-159.4651,572.2324,343.2003,627.4140,-299.8344,-976.5673
16860.0000,-126.3224,605.7922,343.7885,610.5800,-294.9249,-981.1941
16880.0000,-155.5122,568.2731,329.1628,618.3423,-323.9479,-1007.6542
16900.0000,-150.2825,573.7598,348.8181,619.5558,-285.7459,-993.1235
16920.0000,-81.5593,636.1951,370.1505,619.3730,-246.1006,-939.6733
16940.0000,-143.1879,588.8259,351.8331,624.5649,-297.6334,-986.0588
16960.0000,-135.6248,578.1873,348.1412,615.4001,-306.3063,-992.7692
16980.0000,-184.1187,551.7634,314.8329,613.6337,-309.5015,-1021.0010
17000.0000,-189.8153,528.1804,312.1161,610.3879,-334.4300,-1031.8545
17020.0000,-162.0203,566.8284,338.8646,623.6421,-320.2894,-1009.9503
17040.0000,-165.8517,559.1629,331.1172,623.3095,-316.6075,-1007.8815
17060.0000,-142.9516,582.8469,347.8694,623.6494,-296.2049,-979.9001
17080.0000,-174.8833,553.1906,331.1127,617.3530,-329.6700,-1001.9293
17100.0000,-192.8406,534.7622,322.8355,612.6171,-342.1012,-1016.8815
17120.0000,-171.0320,566.2521,344.1533,624.3396,-289.7657,-977.9243
17140.0000,-133.7440,598.7076,356.8313,631.6811,-272.9330,-944.8458
17160.0000,-114.9893,607.3272,369.1721,638.3020,-258.8869,-921.8995
17180.0000,-135.6852,604.7678,357.8275,638.6612,-287.8761,-959.8599
17200.0000,-180.1165,566.3497,325.1619,614.3396,-320.9290,-986.9138
17220.0000,-197.6685,548.6036,311.7726,609.5896,-344.8425,-1029.9210
17240.0000,-164.1870,604.4658,350.1924,635.3877,-301.0402,-994.8836
17260.0000,-152.5453,603.5491,331.7588,623.6445,-299.7609,-962.9224
17280.0000,-191.2024,588.5148,330.2410,624.3560,-314.1330,-1016.8421
17300.0000,-152.5063,599.5057,346.7317,639.5789,-295.7044,-947.9882
17320.0000,-157.2632,617.5613,354.2789,647.3897,-306.1586,-941.7502
17340.0000,-184.5265,609.3303,320.6727,633.6252,-342.6999,-992.0714
17360.0000,-214.3306,587.6538,302.3221,618.3350,-341.1594,-1011.7076
17380.0000,-186.4910,565.1994,309.6252,625.5956,-360.6440,-1007.1636
17400.0000,-189.4444,587.7674,316.3718,631.3619,-346.1635,-981.5983
17420.0000,-183.4381,593.1777,350.5742,636.6246,-346.7379,-1000.2766
17440.0000,-160.4131,596.9957,356.4206,644.3975,-328.0672,-964.4594
17460.0000,-185.4149,571.9797,356.5200,639.5347,-305.8020,-973.4075
17480.0000,-213.4351,559.1209,329.4923,636.3936,-337.0130,-1004.3263
17500.0000,-210.3153,560.8230,334.4569,637.5378,-341.8760,-979.5664
17520.0000,-183.4788,569.3422,361.5531,644.4368,-306.9347,-947.1248
17540.0000,-179.3544,572.5850,352.3997,641.5746,-297.9753,-948.7354
17560.0000,-188.5104,564.5075,345.6280,639.4540,-305.8209,-964.9553
17580.0000,-187.3794,539.4003,347.3383,635.5206,-317.0337,-986.9285
17600.0000,-188.5140,565.6592,337.7075,627.4924,-326.6344,-1003.7813
17620.0000,-162.3442,601.2692,356.2342,638.5183,-295.2328,-966.1188
17640.0000,-184.4907,571.8408,335.7989,635.5327,-336.5025,-990.5880
17660.0000,-210.3187,544.0152,334.1469,626.5148,-349.4384,-1017.3473
17680.0000,-177.4436,574.0799,344.8947,635.5533,-331.3159,-1005.4039
17700.0000,-168.3969,567.8489,360.0776,637.4425,-299.5921,-987.5259
17720.0000,-155.4118,565.3165,358.9820,636.5090,-316.2018,-993.2211
17740.0000,-166.4159,554.5998,344.9739,634.4064,-328.7498,-979.7177
17760.0000,-163.4231,529.5360,345.0669,625.5782,-350.9850,-1006.0252
17780.0000,-185.4460,537.3884,340.8983,626.4659,-345.0145,-1038.9402
17800.0000,-164.3992,544.7017,347.1588,629.5541,-323.6941,-1014.8419
17820.0000,-144.4505,572.2239,363.7800,644.3785,-309.2441,-991.1103
17840.0000,-129.3894,568.9414,373.2341,644.5664,-289.4898,-962.6412
17860.0000,-153.4162,554.9431,352.6956,638.4247,-330.4187,-1016.2862
17880.0000,-147.3662,570.0720,351.3177,640.6097,-318.2406,-989.5022
17900.0000,-153.4240,577.8585,356.6337,643.4280,-332.6394,-1006.4236
17920.0000,-152.3818,562.2191,366.4056,642.5869,-298.0729,-978.3626
17940.0000,-130.5416,569.6724,372.5386,644.3638,-303.9130,-963.5466
17960.0000,-98.2634,576.3716,383.5056,648.5393,-256.8478,-931.2263
17980.0000,-117.4672,578.5043,363.4433,649.3622,-271.0319,-936.6255
18000.0000,-120.2736,576.5237,376.5823,646.5635,-245.5827,-935.1243
18020.0000,-112.5393,575.3796,376.3741,643.4122,-260.3305,-941.7173
18040.0000,-133.3505,565.6349,366.6818,643.5479,-276.3370,-972.0719
18060.0000,-123.4901,596.3315,376.2868,647.3788,-262.5500,-939.7603
18080.0000,-99.2683,593.8395,379.7673,645.6194,-238.1301,-942.0267
18100.0000,-128.5030,555.2065,363.1695,645.3995,-261.7616,-967.8047
18120.0000,-126.3503,540.8193,360.8510,640.6138,-289.9657,-983.0471
18140.0000,-118.4178,567.0907,371.1069,660.3990,-227.8833,-938.7906
18160.0000,-107.3820,547.9315,374.9459,659.5844,-242.7520,-940.0551
18180.0000,-122.3830,530.1044,364.0068,652.3793,-248.1157,-956.7452
18200.0000,-122.4442,529.8821,372.0269,654.5893,-267.6333,-972.1375
18220.0000,-108.3253,503.0772,382.9246,666.4354,-245.2745,-946.6483
18240.0000,-122.5232,507.8604,374.0980,663.5548,-261.4615,-964.2383
18260.0000,-110.2470,505.1309,361.8614,648.4140,-237.3953,-948.5211
18280.0000,-131.6816,495.8556,357.1884,656.5687,-266.3463,-967.3851
18300.0000,-96.0445,504.1164,367.8018,662.3771,-259.5674,-935.3540
18320.0000,-129.8161,500.8045,379.2472,674.5892,-241.1767,-953.5656
18340.0000,-88.9436,504.2092,384.7600,671.4430,-227.5826,-895.1231
18360.0000,-110.9636,502.6199,379.3036,673.5493,-248.1031,-916.7673
18380.0000,-125.7980,503.3601,360.6738,661.4432,-281.7018,-941.9218
18400.0000,-131.1463,492.5677,351.3485,666.5729,-279.0110,-928.0175
18420.0000,-78.5446,501.4731,387.6270,670.3967,-253.7838,-891.6349
18440.0000,-110.3101,470.4192,369.3923,664.6051,-260.9981,-921.2722
18460.0000,-106.4003,472.6909,371.5846,652.3630,-243.8107,-893.3624
18480.0000,-118.4664,473.2390,348.4391,653.5762,-285.9327,-921.5674
18500.0000,-125.1868,477.7738,382.5432,665.3679,-248.8426,-920.0753
18520.0000,-101.6908,470.0678,366.4689,650.6685,-279.9087,-912.8711
18540.0000,-121.9512,440.0420,357.4998,649.3093,-295.8722,-937.7748
18560.0000,-116.0029,443.8023,351.5200,652.6716,-285.9181,-929.1827
18580.0000,-129.7453,458.1914,340.4572,647.3023,-306.8945,-983.4752
18600.0000,-97.2575,475.6279,366.5353,655.7211,-274.9091,-926.5157
18620.0000,-125.4562,470.4936,325.4483,647.2695,-294.8334,-953.1258
18640.0000,-145.4899,450.4055,341.5531,647.7371,-272.9324,-959.8596
18660.0000,-118.1324,481.7358,340.4213,646.2883,-267.8161,-946.7806
18680.0000,-119.7271,483.1877,340.5864,646.7366,-255.0450,-924.1833
18700.0000,-112.8336,507.9151,339.4205,651.2490,-294.7206,-939.4501
18720.0000,-102.0004,479.9697,347.5867,642.8153,-273.0556,-933.5102
18740.0000,-92.5567,480.1528,353.4128,659.1266,-277.6154,-920.1377
18760.0000,-132.3209,462.7689,340.6154,650.8904,-270.1078,-940.8116
18780.0000,-117.3327,472.3646,341.3926,646.1468,-298.5977,-930.8468
18800.0000,-88.5440,504.5212,345.6132,643.8629,-260.2740,-900.0845
18820.0000,-119.1052,462.5215,347.3883,646.0892,-265.5493,-913.5881
18840.0000,-104.7731,475.2516,335.6003,646.9434,-267.3622,-904.3309
18860.0000,-95.8503,485.8007,338.3655,643.9423,-258.4619,-888.3442
18880.0000,-39.0127,539.1766,371.6617,669.0071,-222.4039,-837.5717
18900.0000,-66.6688,487.9070,361.3727,650.9487,-239.3421,-868.1286
18920.0000,-138.1751,436.9633,318.6474,633.1257,-332.4517,-941.7345
18940.0000,-129.4316,469.0558,335.3519,645.8737,-271.2621,-940.0135
18960.0000,-62.3213,505.8257,358.6464,660.1934,-273.4529,-883.8254
18980.0000,-94.2921,477.2051,341.3366,648.7090,-243.2613,-862.8961
19000.0000,-101.4844,463.5907,341.6512,647.2562,-284.5116,-910.9259
19020.0000,-113.1586,453.3975,332.3213,653.6245,-263.2703,-898.8310
19040.0000,-96.6568,475.5769,338.6697,651.4075,-281.5336,-923.9703
19060.0000,-82.1090,497.5032,354.3018,665.6100,-272.1655,-899.8207
19080.0000,-80.7416,471.4263,333.6929,654.4225,-283.5623,-906.9656
19100.0000,-94.0199,479.5067,343.2711,652.4954,-291.1945,-922.8551
19120.0000,-91.7365,479.3839,337.7293,650.5545,-274.5473,-911.9193
19140.0000,-86.0703,472.6072,327.2432,648.3400,-309.2659,-944.9579
19160.0000,-133.7336,451.3779,308.7562,643.6718,-301.5737,-930.8005
19180.0000,-154.0794,421.5521,309.1859,638.2396,-320.2202,-973.1072
19200.0000,-97.6990,484.3849,330.7854,644.7084,-281.5088,-901.6580
19220.0000,-109.2149,477.5078,333.1694,648.1401,-276.2534,-923.2661
19240.0000,-134.5887,443.4020,316.8327,650.8517,-298.4941,-918.4513
19260.0000,-118.2974,440.5108,322.1167,646.0604,-310.4008,-924.4901
19280.0000,-126.3767,461.5251,337.9172,654.9217,-293.3923,-904.1837
19300.0000,-102.4897,468.4183,338.0458,650.0155,-283.4194,-867.7308
19320.0000,-122.1654,438.5207,329.9853,649.0738,-281.2785,-873.9008
19340.0000,-108.7263,457.3394,318.9829,637.8459,-275.4813,-854.0042
19360.0000,-99.0187,468.6282,336.0244,644.1647,-253.2150,-832.6585
19380.0000,-87.9673,461.2933,333.8941,642.7551,-275.6002,-831.3967
19400.0000,-82.6600,471.7371,335.1213,649.2534,-275.0616,-805.3123
19420.0000,-124.2633,436.0422,310.8327,641.7241,-292.7523,-844.6751
19440.0000,-100.3390,512.9144,346.2044,650.2855,-221.0007,-806.9486
19460.0000,-94.5288,505.9737,330.7661,647.5867,-247.8700,-785.0792
19480.0000,-71.0257,516.0651,357.2854,651.3997,-214.8609,-769.5700
19500.0000,-80.9330,492.7644,349.6729,660.5280,-233.9699,-772.4628
19520.0000,-105.6268,463.2581,335.3774,655.4363,-248.7100,-805.2033
19540.0000,-89.3741,490.5572,352.5867,670.4637,-210.1363,-769.8289
19560.0000,-99.1793,473.4826,315.4636,643.5160,-224.5156,-777.8189
19580.0000,-102.7806,527.4427,374.4855,672.3837,-196.2294,-749.1947
19600.0000,-48.7645,495.6782,355.5795,669.6154,-207.4585,-779.4507
19620.0000,-62.2189,517.2014,353.3587,665.3484,-192.3500,-765.5867
19640.0000,-91.3446,487.8622,355.6877,671.6448,-219.3730,-773.0837
19660.0000,-88.7227,475.0210,351.2672,664.3609,-212.5182,-770.9501
19680.0000,-92.8825,474.0630,345.7682,662.7209,-251.2410,-786.7381
19700.0000,-119.1696,467.7704,331.1543,654.3259,-261.6454,-809.3010
19720.0000,-99.3374,467.2087,329.8708,644.7257,-263.1712,-806.4229
19740.0000,-130.7114,469.6088,331.0558,656.2836,-260.7369,-793.6016
19760.0000,-120.8946,478.3965,345.9586,653.7028,-244.0482,-761.1211
19780.0000,-110.1640,474.4539,352.9753,661.2714,-243.7609,-751.8448
19800.0000,-92.4680,508.6039,356.0670,667.7684,-220.0188,-731.8466
19820.0000,-123.6166,470.3209,339.8862,657.2083,-237.8170,-751.0970
19840.0000,-114.9250,476.7224,356.1544,660.6876,-239.9148,-749.6317
19860.0000,-93.0962,471.1288,330.7993,640.2370,-263.9134,-761.2924
19880.0000,-135.4928,448.8838,333.2163,654.7257,-264.9524,-786.4672
19900.0000,-124.5196,471.9453,336.7329,654.3176,-261.9244,-765.4578
19920.0000,-95.0281,488.0135,355.2909,657.7172,-245.8948,-753.3038
19940.0000,-78.8862,505.9020,356.6846,673.3229,-213.8977,-738.5550
19960.0000,-121.6657,477.1418,333.3482,659.6553,-243.9105,-758.2152
19980.0000,-92.3604,478.7568,350.6222,672.3288,-234.8103,-744.6264
20000.0000,-128.3130,471.2728,330.3940,654.6036,-260.9998,-783.1722
20020.0000,-128.7375,468.6149,339.5731,669.4581,-231.7488,-757.6717
20040.0000,-89.9538,476.3820,350.4442,653.5039,-243.0189,-740.1456
20060.0000,-93.0654,478.5787,357.5562,645.4595,-208.7160,-733.6416
20080.0000,-130.5742,438.4197,326.4497,645.4177,-257.1376,-779.2022
20100.0000,-164.3515,417.5199,309.5080,638.5458,-278.5931,-786.6146
20120.0000,-141.3699,445.5297,323.4632,647.4211,-252.2372,-768.2701
20140.0000,-124.5737,445.4727,330.4930,649.6657,-233.4627,-746.5078
20160.0000,-144.1760,440.5134,331.4892,658.2849,-258.3745,-765.3846
20180.0000,-154.8196,413.4176,324.4954,647.6725,-271.3294,-781.3760
20200.0000,-136.9809,427.4750,329.4479,657.2590,-244.4771,-754.5460
20220.0000,-129.9209,423.4836,333.5370,652.7626,-255.2427,-785.1995
20240.0000,-145.9171,422.4290,330.4255,653.1075,-259.6762,-783.7527
20260.0000,-188.0180,406.5237,303.5817,644.9340,-314.1191,-812.9847
20280.0000,-167.7794,440.4524,311.3772,648.0092,-269.7703,-793.9843
20300.0000,-143.0075,464.5724,318.6252,645.9760,-285.8695,-782.7307
20320.0000,-177.8117,439.4467,317.3160,652.9105,-311.0628,-811.2355
20340.0000,-110.0250,472.6429,340.7240,662.1150,-254.7054,-743.4615
20360.0000,-158.8328,440.3316,319.2406,642.8151,-298.2182,-790.4890
20380.0000,-129.9733,450.7095,336.7857,654.1891,-279.4640,-764.1935
20400.0000,-158.9358,430.1912,313.1448,655.7381,-296.4129,-778.7801
20420.0000,-155.8932,435.7451,316.8771,649.2859,-289.2898,-759.8941
20440.0000,-148.1078,438.0960,315.0266,648.6556,-278.5757,-769.0840
20460.0000,-128.6837,450.9345,319.9947,665.4280,-261.1168,-757.5891
20480.0000,-130.2037,443.9395,310.9227,648.5615,-257.8278,-745.3918
20500.0000,-152.4981,438.0443,304.1190,649.4814,-276.8611,-784.2844
20520.0000,-113.4426,448.8264,332.8091,665.4548,-243.9740,-746.7010
20540.0000,-137.1656,460.1826,309.2417,658.5334,-265.7566,-791.9865
20560.0000,-150.7349,441.7334,312.6534,657.3372,-259.2091,-785.0460
20580.0000,-130.9342,449.3458,309.3867,652.6830,-269.4701,-763.6531
20600.0000,-131.0176,440.5119,305.5305,650.2728,-268.4007,-765.3341
20620.0000,-122.5678,442.4403,319.5215,647.7646,-281.3302,-776.3469
20640.0000,-113.3746,453.3673,333.3834,656.2273,-229.4831,-734.6431
20660.0000,-96.2520,448.7256,332.7066,651.8109,-268.2239,-751.0289
20680.0000,-107.8235,475.2012,332.2092,658.1313,-240.6713,-750.9441
20700.0000,-112.8552,454.8857,337.8664,658.8659,-248.0136,-746.7346
20720.0000,-97.1579,482.0809,338.0536,655.0442,-240.8194,-723.2030
20740.0000,-89.4318,475.9896,344.0315,659.9686,-226.8119,-716.4564
20760.0000,-107.6348,477.8280,327.8669,651.0139,-264.0375,-723.4869
20780.0000,-117.9625,486.2227,337.1870,645.0412,-253.7164,-732.1771
20800.0000,-82.0293,514.7166,343.7141,653.8709,-217.1771,-683.7389
20820.0000,-129.6041,507.4516,323.3558,650.1062,-263.6013,-725.9197
20840.0000,-139.4447,488.4810,328.5446,648.8094,-263.3072,-729.9916
20860.0000,-88.1429,502.6244,346.5356,662.1526,-218.4555,-675.6451
20880.0000,-81.8748,508.2462,347.3680,673.7538,-241.3876,-659.2081
20900.0000,-110.7485,476.7288,337.6884,657.2032,-238.2958,-693.4400
20920.0000,-90.3238,487.1510,339.2155,658.7000,-235.4601,-666.4009
20940.0000,-149.3529,441.9831,317.8734,637.2512,-279.1968,-712.2538
20960.0000,-150.7625,438.8890,331.0449,641.6596,-298.6161,-737.6202
20980.0000,-105.9233,479.1171,336.0267,645.3242,-236.0980,-673.0738
21000.0000,-130.1333,442.7952,330.8835,640.6659,-275.6552,-708.7680
21020.0000,-95.4850,476.2863,342.1953,640.3762,-258.0642,-675.9283
21040.0000,-116.4219,470.6199,332.7246,635.6166,-259.8040,-698.9083
21060.0000,-91.2181,498.4496,326.3412,646.4600,-216.9883,-671.8096
21080.0000,-92.8386,504.4267,334.5714,645.5672,-241.8384,-691.0350
21100.0000,-96.8184,499.5498,337.4837,644.4343,-226.8442,-679.7023
21120.0000,-99.0738,504.2810,311.4487,639.4807,-224.9678,-695.1239
21140.0000,-110.6146,496.6818,334.6132,649.4810,-226.7869,-674.6290
21160.0000,-100.3616,487.1654,326.3030,647.4510,-231.9518,-661.1808
21180.0000,-128.3439,475.8795,309.7364,645.5670,-259.8038,-693.5775
21200.0000,-126.6381,473.0668,311.2026,640.4216,-246.0328,-696.2269
21220.0000,-125.1132,477.8943,311.8304,646.6454,-261.7790,-685.5523
21240.0000,-96.8703,484.9282,327.1037,644.3488,-260.1005,-686.2410
21260.0000,-95.8638,506.0919,329.9368,646.6844,-244.7007,-689.5428
21280.0000,-62.9641,507.9310,345.0230,646.2816,-222.1387,-654.2209
21300.0000,-93.7073,487.1437,306.0103,641.7311,-246.6803,-689.5527
21320.0000,-93.1440,502.8401,320.9090,644.2532,-229.0875,-662.2048
21340.0000,-97.6280,504.2096,309.0965,639.7048,-254.6668,-689.5788
21360.0000,-84.1871,507.7965,316.8472,643.1653,-241.1346,-680.1759
21380.0000,-81.5616,480.2211,328.1730,644.7529,-231.5858,-666.6107
21400.0000,-87.2542,469.7225,320.7657,646.1460,-230.1281,-687.1165
21420.0000,-58.4866,477.2685,333.2679,660.8381,-234.5673,-660.6742
21440.0000,-63.2374,501.7437,311.6912,668.0847,-232.1560,-667.0375
21460.0000,-53.5719,486.2700,324.3110,670.8854,-227.5344,-677.7707
21480.0000,-28.2413,505.6455,339.6407,671.0529,-224.2625,-660.9606
21500.0000,-50.5687,507.3611,329.3594,665.9308,-250.5765,-684.8652
21520.0000,-67.2145,482.6657,324.6102,666.0135,-246.2236,-686.8633
21540.0000,-56.5658,501.3892,327.4099,665.9728,-240.5377,-690.9841
21560.0000,-33.1478,505.6317,310.5697,657.9498,-241.2255,-684.7407
21580.0000,-63.6846,502.3459,310.4437,661.0115,-264.5808,-721.1187
21600.0000,-69.0535,502.6536,301.5244,654.9909,-270.3018,-743.6322
21620.0000,-69.8355,479.3543,305.4681,664.0592,-251.5695,-730.2749
21640.0000,-65.9021,474.6956,302.5197,657.8878,-274.1851,-755.4764
21660.0000,-89.9837,454.3337,290.4657,652.1031,-289.5735,-771.4488
21680.0000,-60.7432,451.6391,302.5057,652.8618,-294.2334,-770.3264
21700.0000,-69.0896,451.3085,297.4774,662.1279,-285.5648,-772.5971
21720.0000,-39.7046,476.6733,330.4931,674.9245,-245.1933,-742.1626
21740.0000,-42.1766,466.2224,322.4899,665.0739,-259.6219,-763.7478
21760.0000,-54.5415,475.7665,325.4667,669.9031,-285.1754,-763.0084
21780.0000,-38.2808,478.1507,324.5298,666.1339,-260.6227,-765.9025
21800.0000,-27.3633,474.8433,330.4738,673.8478,-283.1685,-747.8522
21820.0000,4.4059,534.1994,350.5214,672.1802,-254.6282,-737.0519
21840.0000,-32.2463,487.8071,323.4465,668.8351,-266.2142,-766.7051
21860.0000,-13.6232,509.1653,343.5511,663.1325,-256.6349,-742.1951
21880.0000,-9.0888,499.9146,328.4280,669.8649,-226.2160,-732.5519
21900.0000,4.1314,512.1069,335.5581,671.1539,-222.5616,-728.3372
21920.0000,-40.9312,513.9551,329.4288,666.8461,-225.2030,-753.4172
21940.0000,-41.8330,491.0140,308.5499,662.1910,-257.6239,-780.4899
21960.0000,-27.8385,519.9718,335.4268,666.8500,-256.1945,-785.2994
21980.0000,-31.9984,510.9128,341.5906,671.1462,-239.5796,-779.6294
22000.0000,-25.7100,514.0406,348.4106,675.8243,-256.1924,-778.1620
22020.0000,-59.0693,497.9303,321.5789,655.0853,-267.5664,-811.7831
22040.0000,-67.6292,512.0618,344.4302,666.8890,-274.1166,-805.0482
22060.0000,-24.1728,539.8651,340.5804,673.0818,-271.5804,-765.8765
22080.0000,-70.5518,528.1368,312.4068,660.8735,-282.1335,-799.9470
22100.0000,-53.3052,538.8633,352.6042,674.0967,-250.6206,-745.9622
22120.0000,-55.4945,526.1429,333.3907,666.9402,-242.1495,-752.8327
22140.0000,-55.3870,532.7152,343.6036,660.0045,-256.6179,-751.0463
22160.0000,-52.4250,524.2592,344.4080,660.9352,-246.1927,-752.7735
22180.0000,-65.3785,504.7004,317.6014,651.0073,-295.5780,-783.1059
22200.0000,-58.4399,540.1912,331.3643,667.9478,-246.2337,-748.7395
22220.0000,-66.3875,509.6962,327.6445,668.9972,-260.5452,-758.1031
22240.0000,-58.4154,516.2952,325.3419,664.0204,-270.3395,-747.7214
22260.0000,-52.4408,518.6324,331.6354,668.9579,-237.4528,-732.1245
22280.0000,-34.3680,531.2707,335.3530,660.0989,-249.3311,-733.7028
22300.0000,-62.3966,541.7065,318.6555,655.8995,-249.4225,-739.1129
22320.0000,-76.4115,520.2645,317.3142,653.0554,-271.4603,-767.7469
22340.0000,-39.3719,529.6175,329.6630,656.8970,-270.3175,-744.0992
22360.0000,-45.3318,530.3195,330.3372,658.0994,-266.4966,-744.7491
22380.0000,-64.3975,500.6792,315.6664,643.8348,-297.3183,-783.0759
22400.0000,-47.3675,504.2390,323.3139,648.1376,-281.5069,-743.8117
22420.0000,-20.3403,544.6898,341.6788,656.8145,-236.2091,-706.9919
22440.0000,-39.4407,527.3221,319.3063,625.2514,-288.5784,-755.8806
22460.0000,4.5313,542.6641,356.6623,640.7377,-248.1621,-730.9250
22480.0000,11.4993,568.3317,357.3354,637.2723,-232.6201,-710.9476
22500.0000,-45.2964,515.6382,320.6588,641.7433,-285.0707,-757.8430
22520.0000,-39.5147,495.2496,330.3423,633.2516,-306.7673,-788.0704
22540.0000,-20.2439,531.6735,335.6569,637.6451,-280.0159,-762.7778
22560.0000,5.4029,539.2516,351.3500,649.3252,-278.7445,-750.1464
22580.0000,-27.2522,532.6501,328.6204,634.5950,-320.9613,-791.6835
22600.0000,-27.5098,519.2571,316.3806,643.3195,-310.8861,-804.2768
22620.0000,-24.1953,533.7536,338.6187,648.6280,-315.8848,-795.5733
22640.0000,-18.5827,498.1919,319.3768,647.4078,-329.8821,-811.3798
22660.0000,-13.2281,510.6741,342.5694,648.5965,-295.9113,-794.4881
22680.0000,-35.5883,501.1828,325.4179,647.4346,-323.8946,-812.4697
22700.0000,-52.2387,505.7789,307.5308,639.5102,-310.9226,-804.3987
22720.0000,-29.5582,504.1580,328.4691,652.4658,-286.9259,-777.5405
22740.0000,-6.1838,533.7760,331.4786,658.5441,-255.8748,-745.2847
22760.0000,10.3641,572.1978,351.5348,656.4528,-244.9312,-735.6033
22780.0000,-35.2505,522.7771,328.4203,649.4637,-285.8402,-785.2174
22800.0000,-6.5207,563.2148,338.6020,656.4734,-253.9565,-779.7065
22820.0000,-0.1726,573.7396,328.3515,663.4981,-246.8540,-779.1298
22840.0000,-39.5950,568.2310,312.6477,647.5309,-273.8927,-787.8024
22860.0000,-33.2553,564.7926,317.2981,651.5027,-272.8171,-810.0497
22880.0000,-30.5226,564.1531,339.7064,660.5662,-248.9199,-797.8796
22900.0000,-31.2702,567.7953,330.2586,646.4890,-277.8489,-809.9833
22920.0000,-53.5296,536.1530,327.7852,648.4963,-281.8788,-829.9553
22940.0000,-38.2371,530.8472,343.1854,654.4081,-296.9280,-831.9308
22960.0000,-34.4980,565.0901,335.8473,658.5028,-268.9070,-834.0156
22980.0000,-39.2865,557.7648,332.1202,650.4384,-254.9838,-836.8954
23000.0000,-30.4242,533.1530,342.9053,648.5090,-262.8303,-842.0522
23020.0000,-2.3291,541.8634,340.0492,661.4731,-272.9882,-827.8576
23040.0000,-11.3650,569.1562,346.9899,667.5758,-245.7114,-819.0544
23060.0000,-29.4387,531.8189,333.9642,652.4077,-260.1379,-845.7880
23080.0000,-52.3330,551.0947,316.0545,644.5533,-272.5926,-853.9991
23100.0000,-60.4678,527.8785,317.8986,653.4424,-281.1782,-872.7972
23120.0000,-30.2544,528.1207,324.1211,642.5692,-272.5092,-859.9993
23140.0000,-1.5142,568.7724,345.8337,662.3978,-258.3326,-822.8706
23160.0000,-31.2182,526.0809,343.1754,660.5936,-249.4592,-827.0587
23180.0000,-31.6287,533.8552,331.7715,645.4127,-261.4329,-841.8141
23200.0000,-29.1570,532.0601,346.2323,659.5538,-258.3888,-817.0377
23220.0000,-21.6197,543.7804,345.7222,661.4537,-226.4568,-801.8976
23240.0000,-32.1487,508.1350,312.2675,653.5148,-274.2184,-834.0167
23260.0000,-70.7211,479.7929,316.6603,643.4355,-284.6118,-865.8730
23280.0000,-27.0894,511.1249,339.3254,648.5074,-242.1265,-820.9722
23300.0000,-73.7652,500.8591,334.6543,647.4014,-297.7470,-874.9094
23320.0000,-30.0703,503.1107,347.3474,645.5821,-289.0314,-851.8606
23340.0000,-20.6895,507.7963,349.6271,650.4242,-248.8242,-842.9307
23360.0000,-45.0398,528.1087,315.3366,649.5402,-295.9490,-879.8285
23380.0000,-45.7348,508.8858,323.6337,639.3889,-320.8934,-887.9866
23400.0000,-49.0690,505.1322,340.3297,651.5071,-309.9088,-898.8153
23420.0000,-29.7404,508.9041,333.6408,655.4442,-289.9915,-876.0025
23440.0000,-52.0838,495.0799,326.3152,643.4774,-309.8164,-882.7617
23460.0000,-23.6938,504.8555,340.6786,649.4142,-304.1180,-870.0405
23480.0000,-18.1184,502.1179,347.3099,660.5433,-291.6855,-875.7334
23500.0000,-6.6790,510.8395,353.6950,663.4816,-269.1068,-853.0652
23520.0000,-32.1209,496.0160,328.2837,656.4777,-288.6071,-886.6890
23540.0000,-22.6314,558.9330,344.7238,665.4756,-273.1789,-861.1163
23560.0000,1.7153,559.0295,348.2188,666.4650,-256.5928,-836.7144
23580.0000,8.2872,569.9459,360.7985,673.5069,-257.2847,-828.2171
23600.0000,-5.1766,561.9963,347.1795,659.4701,-317.5096,-847.6039
23620.0000,-20.4884,572.0099,340.8594,670.5051,-291.2841,-845.1614
23640.0000,-33.3231,640.0717,336.0999,666.4336,-286.5107,-832.6560
23660.0000,-22.4080,661.0233,340.9297,668.5384,-264.3423,-828.2565
23680.0000,-25.3770,693.9897,354.0089,675.4735,-253.5034,-829.6246
23700.0000,-34.3680,692.9823,328.9990,656.5779,-300.3362,-829.2717
23720.0000,-36.5394,693.0128,338.9413,665.4509,-276.4576,-824.6014
23740.0000,-50.2560,690.0029,329.0779,660.5527,-309.3528,-815.2950
23760.0000,-62.5898,703.0412,322.8423,661.3822,-293.5150,-814.5759
23780.0000,-95.0855,695.0445,312.1373,658.5845,-309.3477,-847.2605
23800.0000,-78.7125,725.0351,316.7919,656.3656,-316.4937,-826.5681
23820.0000,-75.9487,746.1242,333.2300,660.5859,-289.2776,-822.3469
23840.0000,-86.8945,737.9471,331.7022,664.3646,-301.5880,-818.5454
23860.0000,-53.8849,743.1349,334.2915,660.6102,-301.2629,-807.3511
23880.0000,-129.0720,734.9384,316.6428,658.3026,-316.5830,-860.4833
23900.0000,-116.6841,750.0958,331.3595,661.6696,-298.1971,-835.3721
23920.0000,-90.2040,786.9621,349.5830,672.3422,-262.6876,-799.5115
23940.0000,-103.5692,775.0818,348.4224,664.6163,-268.0927,-815.3915
23960.0000,-125.3506,748.9436,322.5046,659.3007,-295.7168,-847.4341
23980.0000,-99.3908,794.0800,346.4790,673.6965,-269.0448,-831.4205
24000.0000,-83.4515,792.9989,356.4883,678.2455,-240.7195,-796.4486
24020.0000,-141.2772,767.0332,330.5136,663.7174,-294.0487,-856.3749
24040.0000,-125.6284,746.0305,320.4500,662.2750,-316.7529,-870.3732
24060.0000,-123.1293,755.0392,324.5288,668.7448,-279.9724,-837.4738
24080.0000,-100.7382,769.1590,344.4630,668.1947,-274.7998,-824.4066
24100.0000,-111.9419,765.0211,332.5212,667.7261,-272.9315,-815.5195
24120.0000,-124.9069,743.1387,329.4551,660.2512,-322.8489,-833.3649
24140.0000,-118.8588,744.8538,329.4948,657.7431,-306.9871,-843.4973
24160.0000,-132.0833,763.1713,321.4751,640.2206,-321.8901,-844.2640
24180.0000,-116.6945,762.8621,326.4804,643.8054,-331.8961,-838.5898
24200.0000,-107.1632,760.2757,333.4917,646.1434,-298.9525,-805.2703
24220.0000,-116.5815,750.8090,320.4272,643.8293,-331.8745,-832.6424
24240.0000,-89.2941,763.3496,342.5446,647.1496,-320.9326,-827.2484
24260.0000,-99.4612,771.6569,316.3970,645.8425,-311.8866,-838.6628
24280.0000,-91.4097,778.5266,333.5999,647.1220,-299.9934,-825.2046
24300.0000,-92.3316,775.6136,333.3234,642.8440,-288.8270,-813.7041
24320.0000,-88.4773,782.5970,340.7052,646.0589,-268.0147,-808.1424
24340.0000,-85.3142,752.4121,340.2205,654.8634,-283.8292,-826.7618
24360.0000,-85.5195,753.7972,349.8106,660.0927,-258.9651,-824.0959
24380.0000,-92.1856,746.2969,332.1284,646.9643,-288.8512,-855.7391
24400.0000,-94.6400,748.9027,347.8838,646.0015,-275.9047,-839.0763
24420.0000,-109.2309,732.1663,324.0271,640.9520,-287.8687,-870.7848
24440.0000,-90.6689,779.0487,333.9841,645.9738,-286.9061,-857.9760
24460.0000,-94.0983,765.0411,339.9176,647.0217,-302.9283,-858.7953
24480.0000,-68.6915,782.1639,355.1123,660.9415,-264.9342,-884.9667
24500.0000,-49.1342,772.9030,358.8032,647.0469,-277.9120,-849.8189
24520.0000,-95.7436,742.2434,335.2267,634.9680,-310.8920,-891.9486
24540.0000,-86.1324,748.7286,351.6952,643.0216,-280.9591,-869.8265
24560.0000,-100.6635,731.3958,331.3578,634.9327,-303.8347,-897.9462
24580.0000,-81.1166,742.6033,347.5664,651.0779,-257.0439,-877.8350
24600.0000,-112.7096,711.5800,326.4444,635.8422,-313.8084,-918.9576
24620.0000,-97.1350,714.4637,342.4566,653.0889,-300.0910,-901.8304
24640.0000,-66.6272,725.7154,346.5717,651.8547,-262.7395,-869.9498
24660.0000,-83.1817,711.3426,345.3562,646.1390,-274.0645,-885.7852
24680.0000,-87.6016,693.9315,337.6629,646.8218,-283.6442,-894.9991
24700.0000,-111.1935,681.1827,343.2642,640.1247,-300.1729,-919.7574
24720.0000,-88.5407,697.0547,350.7804,646.7944,-305.6574,-898.0549
24740.0000,-98.2822,719.0937,344.1557,655.1564,-309.2401,-876.6729
24760.0000,-113.4938,681.1667,327.8629,642.7174,-310.6133,-911.1232
24780.0000,-119.3811,699.9490,347.0697,650.1706,-278.2153,-899.6132
24800.0000,-64.3502,742.2923,363.9480,674.7795,-230.4698,-854.1844
24820.0000,-49.4869,757.8307,373.9935,668.2100,-209.2794,-830.5718
24840.0000,-39.3086,720.4064,381.0228,676.7439,-215.4990,-829.3448
24860.0000,-23.5371,756.6481,389.9627,679.2705,-182.2355,-807.4499
24880.0000,-36.1969,740.4793,397.0693,685.6880,-164.4407,-806.4501
24900.0000,6.2198,751.6340,400.9066,685.2253,-180.2722,-813.3450
24920.0000,2.8297,755.6638,405.1298,678.6976,-141.3454,-805.5632
24940.0000,24.1323,750.4749,432.8586,692.3198,-157.3226,-799.1909
24960.0000,11.9726,727.7554,409.1767,690.6722,-183.3474,-823.7145
24980.0000,-24.8314,720.3820,412.8440,678.2646,-193.3012,-840.9768
25000.0000,-14.8848,758.8029,406.1980,693.6884,-184.3436,-831.8726
25020.0000,-33.9770,736.3530,394.8130,687.3242,-183.2809,-853.8190
25040.0000,-36.8041,718.7830,403.2141,686.7068,-212.4198,-864.9683
25060.0000,-28.0374,704.3750,411.8091,698.2671,-193.2854,-833.7191
25080.0000,-37.7208,688.8051,385.2201,686.7112,-224.4687,-874.1356
25100.0000,-65.1397,655.3126,370.8099,683.2490,-229.2593,-902.5107
25120.0000,-69.5928,638.8513,369.1969,688.7170,-209.4408,-889.3022
25140.0000,-86.2494,652.3166,363.8004,691.2512,-229.2225,-866.3201
25160.0000,-82.4839,641.8530,377.1775,701.7552,-230.4385,-887.4820
25180.0000,-92.3695,626.2333,361.8181,695.1871,-247.2457,-913.1851
25200.0000,-75.4648,634.9193,366.1688,697.7283,-239.4818,-883.6324
25220.0000,-87.4131,628.2635,363.8226,699.2125,-211.2163,-887.0125
25240.0000,-60.3157,663.8547,381.1620,704.8358,-213.5597,-857.7849
25260.0000,-59.4272,661.2905,379.8366,706.1581,-198.1441,-870.8622
25280.0000,-92.3384,658.8008,377.1309,697.7972,-227.5244,-887.9446
25300.0000,-68.5143,639.3226,385.8702,708.0995,-214.1393,-860.7089
25320.0000,-79.2287,629.7858,384.1187,705.8627,-209.6352,-855.0817
25340.0000,-68.5399,629.3354,394.9122,710.0367,-236.0447,-886.5728
25360.0000,-61.2002,634.7377,405.0791,707.8887,-233.6540,-874.2230
25380.0000,-64.5366,619.4705,395.9590,709.0493,-234.9841,-884.4591
25400.0000,-72.2392,621.6379,401.0668,722.9431,-239.7128,-885.3230
25420.0000,-57.5112,634.4963,403.9851,712.0165,-215.9807,-863.3589
25440.0000,-65.1849,617.5998,412.0446,717.0553,-205.7707,-876.4003
25460.0000,-33.5841,625.6035,410.0146,711.9575,-216.9537,-862.2848
25480.0000,-39.2438,630.4182,426.0243,717.1135,-179.8379,-844.4556
25500.0000,-29.5560,624.6164,419.0146,721.8990,-186.8591,-855.2288
25520.0000,-36.2378,661.4111,424.0061,717.1713,-174.8544,-842.5769
25540.0000,-24.5131,684.7656,422.0418,709.7603,-151.8347,-832.2638
25560.0000,-36.2448,625.1754,410.9605,706.1906,-199.8432,-855.5190
25580.0000,-34.5476,651.8640,416.0531,706.7724,-205.8636,-875.2084
25600.0000,-30.2485,655.0696,417.9507,701.2515,-180.9183,-859.5253
25620.0000,-27.4669,637.9912,409.0915,703.6921,-172.8655,-863.2131
25640.0000,-28.2759,626.9653,417.9352,709.3348,-175.9053,-859.4896
25660.0000,-66.4476,588.1116,388.0808,707.5863,-189.8149,-885.2711
25680.0000,-95.3899,534.8677,382.8898,703.3608,-218.9086,-926.4650
25700.0000,-99.3749,527.2512,401.1286,705.5479,-244.8456,-945.3522
25720.0000,-88.4020,535.6929,406.8909,708.4186,-187.8198,-901.3749
25740.0000,-92.3999,534.3121,401.1544,709.4521,-186.8314,-909.4410
25760.0000,-64.4020,541.5508,412.8750,715.5558,-156.8042,-869.2349
25780.0000,-57.2677,570.5543,427.1611,724.3994,-151.8754,-856.5366
25800.0000,-49.4363,595.5045,426.8337,728.5404,-152.7362,-863.0868
25820.0000,-42.2756,603.6694,435.1968,738.4015,-146.9300,-849.6957
25840.0000,-69.4648,576.3757,409.8541,726.6203,-162.6886,-881.9200
25860.0000,-97.2593,548.7618,411.1827,721.3618,-176.0597,-890.8914
25880.0000,-93.5102,535.2449,411.8321,723.6503,-188.5936,-872.7238
25900.0000,-64.2622,554.8527,429.2182,732.2562,-176.1230,-843.0720
25920.0000,-92.5098,512.1833,400.8136,727.7590,-208.5594,-895.5056
25940.0000,-88.2972,507.9349,424.2413,723.2418,-215.2123,-877.3182
25960.0000,-68.4554,504.0877,425.8123,737.8148,-193.4266,-857.2419
25980.0000,-96.2729,497.0046,417.2268,733.1893,-183.2450,-877.5923
26000.0000,-85.4164,492.0498,407.7804,701.8154,-174.3908,-864.9736
26020.0000,-125.3797,418.0110,408.2242,695.1127,-215.4288,-886.8796
26040.0000,-101.3499,447.9943,416.7852,706.8617,-237.2381,-893.6985
26060.0000,-91.4367,451.0828,418.2589,706.1092,-212.5211,-877.1569
26080.0000,-98.2762,436.9403,406.7842,706.9097,-246.1495,-899.4026
26100.0000,-97.4436,434.1330,402.2371,705.0270,-261.6720,-906.4848
26120.0000,-92.2558,471.8347,403.7823,706.0078,-246.0121,-905.0814
26140.0000,-69.5931,491.0827,419.2350,719.9843,-220.7943,-894.8162
26160.0000,-56.1479,506.8756,422.7901,728.0336,-195.8777,-873.7258
26180.0000,-55.6567,508.1719,410.2331,726.9235,-227.8432,-881.1741
26200.0000,-61.9439,467.8981,418.7917,716.0953,-239.7501,-903.3893
26220.0000,-83.8549,437.1094,402.1884,724.8927,-245.0193,-914.5418
26240.0000,-75.8607,425.9618,405.8220,719.0560,-226.5780,-884.0145
26260.0000,-64.0025,418.0533,420.1874,730.8684,-229.1070,-881.8820
26280.0000,-60.6087,444.9161,411.8501,727.1174,-250.5137,-884.6539
26300.0000,-50.2114,424.9195,395.1545,717.7927,-246.2697,-906.2532
26320.0000,-98.4387,385.0632,385.8549,715.1779,-303.4438,-935.3295
26340.0000,-93.4321,380.9531,387.1349,726.7158,-287.3773,-926.6103
26360.0000,-102.2590,371.1604,389.9000,728.2448,-296.3157,-933.9759
26380.0000,-122.5926,357.7868,388.0837,719.6940,-302.5138,-938.9557
26400.0000,-118.0438,355.2267,394.9272,729.2352,-294.2046,-925.6290
26420.0000,-148.8541,310.6447,380.0501,714.6475,-323.5698,-941.3063
26440.0000,-113.9119,331.3035,403.9678,739.2891,-280.0869,-898.2878
26460.0000,-116.9810,320.5716,392.0366,736.5922,-300.6907,-902.5920
26480.0000,-119.6552,301.3834,379.9610,735.3604,-320.0406,-919.0228
26500.0000,-144.2423,320.4418,375.0028,724.5706,-326.7177,-936.9033
26520.0000,-136.4393,302.5956,376.0032,733.4226,-340.0313,-932.7413
26540.0000,-139.4271,320.3009,375.9820,730.5687,-356.8575,-956.2003
26560.0000,-110.2859,351.6477,406.0327,743.4651,-324.9529,-921.4743
26580.0000,-141.6480,311.0677,373.9285,736.4765,-341.8504,-941.4356
26600.0000,-155.0532,323.7901,379.0555,719.4461,-358.0322,-956.2729
26620.0000,-162.8561,301.9619,356.9196,719.4520,-369.8281,-987.6682
26640.0000,-152.8636,299.8825,381.0706,722.5003,-380.9835,-978.0895
26660.0000,-149.0284,295.8660,366.8955,728.3895,-396.8812,-976.8206
26680.0000,-188.8037,266.9957,342.0773,717.5300,-419.9896,-1027.9579
26700.0000,-163.1503,276.7330,358.8909,726.3808,-369.7971,-984.9517
26720.0000,-186.6617,276.2109,356.0854,724.5416,-382.0161,-1006.8270
26740.0000,-150.2986,279.6151,378.8992,729.3715,-374.7805,-990.0593
26760.0000,-160.5041,239.2490,369.0790,735.6092,-388.0572,-1010.7335
26780.0000,-181.3629,209.5509,360.8898,716.3284,-409.7277,-1019.1345
26800.0000,-192.3889,148.3268,337.0778,709.5880,-456.0850,-1065.7080
26820.0000,-182.4354,155.3988,363.9127,715.3708,-410.6602,-1004.1536
26840.0000,-173.3383,160.4850,361.0402,720.6367,-396.2055,-1000.6799
26860.0000,-163.4684,158.3226,365.9395,718.2833,-426.6206,-1001.1298
26880.0000,-173.3044,138.5500,361.0117,713.6688,-449.3079,-1030.7184
26900.0000,-194.4495,110.3031,373.0007,723.2800,-456.5289,-1028.0981
26920.0000,-176.3311,124.5917,365.9500,717.6329,-449.3891,-1004.7842
26940.0000,-155.4184,133.2299,367.0516,734.3184,-436.4966,-989.9923
26960.0000,-187.4165,116.6007,353.9023,718.6766,-460.4030,-1014.8935
26980.0000,-150.4503,142.1943,380.1125,718.2817,-434.4053,-972.8716
27000.0000,-204.4669,91.6081,344.8179,709.6112,-462.4986,-1038.0439
27020.0000,-193.3118,106.1938,353.1957,716.3057,-435.3077,-1006.7220
27040.0000,-206.5714,114.5496,341.7182,711.6746,-424.6000,-993.2028
27060.0000,-214.2199,88.2878,340.3110,707.3565,-458.1696,-1043.5411
27080.0000,-200.6404,94.5366,342.6225,704.5781,-463.6877,-1024.4080
27100.0000,-215.1142,113.3288,340.4191,701.3401,-483.1469,-1052.3513
27120.0000,-173.7179,156.4404,359.5078,709.5555,-425.7849,-1002.6013
27140.0000,-190.9572,149.3927,351.5425,713.3484,-442.0562,-1015.1201
27160.0000,-188.9418,155.4082,351.3511,712.5463,-411.8458,-1006.8359
27180.0000,-183.8684,171.4943,355.6584,717.4325,-413.9007,-1009.8729
27200.0000,-209.1154,160.3105,356.2383,720.5379,-440.0098,-1015.0960
27220.0000,-187.7384,185.5797,365.8125,730.4882,-423.8608,-991.6219
27240.0000,-180.2138,188.2084,376.0850,731.5497,-385.0260,-975.3151
27260.0000,-181.5332,183.6628,367.9454,720.5176,-401.8238,-983.3514
27280.0000,-201.4049,190.1111,360.9566,724.4424,-411.0779,-991.5792
27300.0000,-167.3877,200.9049,361.1070,725.5532,-408.6745,-979.0973
27320.0000,-183.5651,186.8738,378.8016,737.4290,-405.2185,-978.8167
27340.0000,-182.2072,177.9626,362.2368,719.5481,-430.6832,-1004.8685
27360.0000,-179.6974,161.7401,373.6620,720.4108,-440.2560,-1009.0665
27380.0000,-152.9831,202.1532,395.3794,733.5480,-395.6302,-969.6034
27400.0000,-148.8801,200.6915,369.5415,725.3818,-407.2300,-982.2939
27420.0000,-186.9281,177.3110,360.5194,719.6134,-442.6172,-1037.4142
27440.0000,-188.0461,186.4196,365.3868,713.3615,-463.3165,-1074.5682
27460.0000,-228.7322,159.4068,363.6475,717.6623,-466.5515,-1071.2278
27480.0000,-167.1510,206.3490,393.2688,725.3130,-420.3351,-1035.7421
27500.0000,-176.6289,178.5863,355.7699,719.6743,-461.5033,-1057.0273
27520.0000,-191.2894,180.1137,364.1374,721.3197,-473.3983,-1081.9419
27540.0000,-208.4998,183.7854,360.8772,730.7460,-469.4824,-1101.8663
27560.0000,-220.3329,162.0191,355.0548,730.2546,-484.4576,-1099.1143
27580.0000,-237.4939,153.9158,355.9750,725.7712,-498.4289,-1126.7388
27600.0000,-237.3815,159.8378,350.9582,728.2492,-497.4068,-1129.2410
27620.0000,-275.4472,145.1051,330.0404,711.7501,-510.4238,-1140.6154
27640.0000,-239.4486,162.6655,343.8892,735.2032,-479.5053,-1098.3556
27660.0000,-250.3625,181.2671,366.1228,741.7835,-440.4088,-1110.4862
27680.0000,-231.4313,204.4876,357.8311,742.1697,-446.5694,-1084.4515
27700.0000,-248.3266,158.4769,354.1678,742.8474,-454.2893,-1076.3754
27720.0000,-294.4974,112.3422,324.7455,745.1605,-489.6231,-1110.5439
27740.0000,-249.3373,153.5989,347.2229,739.8516,-466.2790,-1089.3179
27760.0000,-252.4478,154.1890,349.7224,739.1005,-438.6374,-1068.5752
27780.0000,-263.4376,141.6560,348.2605,747.8932,-476.2520,-1075.2633
27800.0000,-248.5031,129.0389,356.7156,748.1345,-475.6866,-1059.6105
27820.0000,-266.3945,117.8668,337.2349,750.9298,-442.2154,-1044.2216
27840.0000,-218.3963,147.9236,379.7260,758.1153,-426.7321,-1006.6115
27860.0000,-188.5100,192.0300,388.2577,769.9160,-416.0711,-974.1669
27880.0000,-191.3869,157.8598,385.7136,777.0612,-432.8091,-987.6046
27900.0000,-211.5038,140.1190,374.2313,816.9234,-448.9865,-1006.1791
27920.0000,-238.2777,113.7418,367.7550,866.1202,-490.9328,-1023.6226
27940.0000,-208.5649,127.1938,375.2016,894.0292,-438.9807,-1005.1899
27960.0000,-189.2309,160.6410,385.7846,911.1078,-450.0115,-1000.5977
27980.0000,-204.7269,151.3301,383.1620,915.0024,-437.8882,-1012.2017
28000.0000,-217.0888,145.4854,376.8560,907.0281,-451.0920,-1008.5753
28020.0000,-227.7386,143.4065,364.1083,904.0764,-450.7317,-1016.2262
28040.0000,-212.9855,122.4373,377.8933,891.0585,-448.1814,-1006.5519
28060.0000,-219.8763,127.4567,358.0410,878.0584,-472.6875,-1041.2594
28080.0000,-189.9705,216.3800,382.9789,871.9692,-428.2314,-1006.5276
28100.0000,-159.9290,236.4962,398.0016,859.1214,-415.5485,-982.2629
28120.0000,-194.8235,228.2612,359.0135,839.0046,-449.3912,-1040.5233
28140.0000,-157.0005,259.6438,390.9165,848.1104,-409.4313,-973.2845
28160.0000,-182.7626,259.3193,364.0893,835.9579,-433.4429,-996.4697
28180.0000,-181.1116,270.6887,371.8427,824.1818,-442.4095,-1011.3162
28200.0000,-188.7179,271.2422,369.1968,816.8635,-412.4850,-974.4422
28220.0000,-190.1400,279.6917,362.7527,813.1709,-438.3072,-988.3279
28240.0000,-200.6234,304.2093,372.2417,801.8270,-423.6088,-988.4317
28260.0000,-151.2897,313.6905,387.6793,796.2181,-395.2148,-955.3450
28280.0000,-152.5837,327.1515,387.3395,791.8008,-399.7224,-965.3815
28300.0000,-142.3038,346.7199,402.6186,797.1910,-377.0955,-933.3530
28320.0000,-173.4422,306.2119,388.4253,782.8037,-402.7888,-986.3696
28340.0000,-184.3959,277.7179,385.5345,773.2569,-425.0513,-978.3998
28360.0000,-177.3925,273.2225,384.5003,767.7719,-411.7530,-1002.3248
28380.0000,-155.3896,269.6643,383.4596,766.3054,-409.9785,-991.4419
28400.0000,-176.3293,263.1936,377.5944,763.6859,-400.8643,-1008.2888
28420.0000,-180.4845,253.7436,389.3501,761.3347,-435.0051,-1018.4832
28440.0000,-163.3134,266.2240,405.6829,766.6719,-389.8570,-987.2474
28460.0000,-191.4771,277.6402,385.2891,751.3658,-406.9189,-1030.5173
28480.0000,-178.2571,279.3178,392.7461,740.6987,-409.8027,-1039.2244
28500.0000,-156.5212,290.6396,399.2076,747.3377,-405.9170,-1008.5566
28520.0000,-146.2398,294.3164,407.8430,759.6370,-407.7875,-996.1590
28540.0000,-201.6062,246.5751,367.1057,735.3798,-445.0354,-1069.6277
28560.0000,-183.2148,275.3576,372.8967,728.5718,-416.7720,-1025.1246
28580.0000,-197.6124,265.5386,373.0298,729.3595,-431.0482,-1040.6643
28600.0000,-180.1736,282.4777,379.9913,732.6113,-424.7331,-1018.0753
28620.0000,-186.6850,286.5201,381.9652,712.3865,-412.0695,-1014.7141
28640.0000,-178.1275,282.5529,390.0576,705.6140,-400.6914,-998.0083
28660.0000,-192.6527,283.4465,378.8768,704.3762,-418.1861,-1007.7884
28680.0000,-199.1050,311.6983,384.1662,717.5944,-411.5139,-1007.9294
28700.0000,-191.6734,320.3311,390.8157,718.4445,-407.2750,-987.8541
28720.0000,-213.0584,314.7527,363.2153,718.5354,-411.4081,-1027.8778
28740.0000,-237.7500,314.2513,366.7165,712.4113,-414.4007,-1041.9401
28760.0000,-217.0572,318.7937,370.3075,712.5909,-416.2874,-1020.7989
28780.0000,-221.7835,309.1356,385.6757,715.4288,-418.5503,-1052.0186
28800.0000,-204.0690,317.9132,381.3737,714.5738,-412.1360,-1031.7317
28820.0000,-214.7670,308.0927,378.5904,722.4061,-407.6668,-1045.0950
28840.0000,-222.0387,282.0009,376.4209,717.6019,-416.9933,-1060.6510
28860.0000,-191.7747,339.9274,388.5051,724.3721,-372.8669,-1024.1949
28880.0000,-174.9381,353.0163,397.5159,715.6348,-360.8701,-1021.5186
28900.0000,-177.8356,340.9141,391.4314,709.3503,-377.0555,-1040.3143
28920.0000,-203.9793,318.1668,387.5646,710.6502,-419.6638,-1077.4458
28940.0000,-175.8544,336.7784,386.3700,708.3897,-367.2004,-1072.4316
28960.0000,-187.9521,324.2278,377.6463,701.6109,-391.5078,-1076.3253
28980.0000,-203.9476,306.6740,366.2873,699.3093,-399.4503,-1096.5575
29000.0000,-171.8298,342.2404,378.7238,702.6694,-356.3397,-1057.2039
29020.0000,-154.9223,366.6373,389.2281,704.2861,-330.5753,-1030.6476
29040.0000,-183.8573,370.4291,381.7993,700.7130,-365.0669,-1058.0906
29060.0000,-179.9987,384.6242,363.1357,682.2748,-382.8107,-1067.7874
29080.0000,-174.7733,387.4735,373.8477,693.6643,-342.9043,-1049.9545
29100.0000,-154.9889,383.4899,385.0990,699.2328,-346.0057,-1028.8755
29120.0000,-153.7239,368.5168,389.9427,699.7279,-311.7375,-1023.8196
29140.0000,-165.0619,352.4687,391.0076,694.2038,-341.1801,-1040.9965
29160.0000,-181.7632,343.5583,386.9984,688.7155,-356.5679,-1071.7285
29180.0000,-153.0247,365.4537,394.9651,697.1966,-344.3615,-1043.1091
29200.0000,-157.6874,350.5476,391.0526,697.8051,-364.2986,-1072.6011
29220.0000,-172.0619,331.3190,382.8856,694.1422,-349.5606,-1074.2405
29240.0000,-164.6934,352.6302,386.1258,693.7764,-342.1592,-1067.4757
29260.0000,-179.1195,347.3009,380.8290,685.1543,-361.6616,-1104.3628
29280.0000,-181.6578,354.7061,370.1984,649.8316,-363.9255,-1128.3776
29300.0000,-169.1788,371.3068,380.7640,644.0880,-351.9125,-1109.4828
29320.0000,-176.6186,362.7621,372.2583,639.8464,-380.8158,-1121.2786
29340.0000,-184.1789,382.2640,378.6936,642.0785,-358.1036,-1110.5942
29360.0000,-175.6048,379.7749,372.3273,640.9052,-368.6147,-1124.1733
29380.0000,-157.1301,424.2245,379.6185,649.0421,-332.1846,-1098.6896
29400.0000,-160.5997,423.8411,369.3897,644.8845,-337.4817,-1106.0599
29420.0000,-172.1378,406.2289,368.5540,642.0443,-332.3476,-1107.7955
29440.0000,-167.6200,418.8702,365.4679,643.8662,-313.3674,-1100.9611
29460.0000,-151.2304,439.1888,387.4920,655.0443,-326.4817,-1102.8961
29480.0000,-159.5755,424.9095,387.5316,653.8834,-323.1500,-1098.8690
29500.0000,-162.1797,419.0511,385.4480,648.0494,-334.6302,-1116.9948
29520.0000,-179.6058,407.9617,379.5774,649.9316,-344.0762,-1129.7999
29540.0000,-187.2301,407.9765,371.3802,658.9780,-364.7516,-1140.1097
29560.0000,-149.6408,443.0739,401.6398,663.9097,-330.9104,-1118.7069
29580.0000,-158.1523,420.9458,380.3394,648.9540,-346.9233,-1141.1836
29600.0000,-152.5644,419.1161,399.7028,658.9038,-341.8082,-1123.6193
29620.0000,-155.1351,395.8657,392.2973,661.0141,-336.0292,-1137.2743
29640.0000,-152.5729,426.2516,393.7486,657.9651,-344.6991,-1133.5385
29660.0000,-154.1205,435.7326,390.2234,658.9293,-337.1510,-1137.3557
29680.0000,-155.5979,439.2653,397.7831,660.9948,-330.5511,-1133.4583
29700.0000,-131.1833,446.6343,395.2040,655.9963,-323.2201,-1130.4341
29720.0000,-127.6593,469.3882,400.8293,663.9320,-317.4240,-1129.3862
29740.0000,-137.1035,442.5778,405.1521,666.9374,-326.3095,-1141.5037
29760.0000,-117.6210,445.4365,394.8590,671.0206,-285.3718,-1111.3130
29780.0000,-107.1323,481.4552,410.1030,670.9901,-301.4298,-1126.5795
29800.0000,-97.6219,470.6676,405.9064,668.0135,-293.3189,-1132.2388
29820.0000,-129.1433,442.3334,398.0831,665.9803,-294.4813,-1133.6656
29840.0000,-122.6544,442.6959,394.9465,643.9659,-316.1919,-1165.1653
29860.0000,-118.0757,446.1381,379.0205,649.9298,-301.5641,-1131.7335
29880.0000,-115.6260,440.9252,382.9908,658.0401,-288.1785,-1129.0975
29900.0000,-89.1109,455.0719,386.0085,653.8804,-288.5711,-1123.7983
29920.0000,-89.6876,471.0910,405.9944,660.0364,-280.1224,-1091.0132
29940.0000,-91.1183,470.9407,402.9937,649.9066,-280.5925,-1114.8684
29960.0000,-94.7311,470.1537,398.0129,660.0512,-275.0714,-1121.9557
29980.0000,-80.0412,480.7184,405.9820,659.8931,-289.6469,-1104.9338
30000.0000,-85.6733,455.3684,394.0494,652.0514,-289.0711,-1115.8639
30020.0000,-98.0351,425.5570,400.9438,650.9156,-301.6876,-1144.0264
30040.0000,-120.6730,518.5582,383.0615,646.1223,-319.0449,-1163.8101
30060.0000,-125.0864,516.4243,389.9312,636.8384,-300.6922,-1172.1119
30080.0000,-125.7018,480.6697,381.0467,635.1033,-334.0933,-1195.7592
30100.0000,-119.0447,477.2774,394.9505,639.8375,-318.6138,-1174.1676
30120.0000,-127.7188,474.8365,390.0510,645.1260,-319.0871,-1183.6956
30140.0000,-120.0442,472.1078,390.9428,640.8539,-288.6165,-1176.2268
30160.0000,-123.6928,443.8906,388.0536,626.1874,-361.1133,-1194.6278
30180.0000,-158.0624,440.0382,378.9372,628.7505,-348.6362,-1221.3179
30200.0000,-152.6543,431.1046,380.0401,625.1699,-344.2075,-1216.5831
30220.0000,-140.0449,449.8514,377.9818,626.7540,-319.5077,-1195.3485
30240.0000,-120.6789,447.1208,384.0076,623.2116,-315.1878,-1191.5210
30260.0000,-126.0744,444.7151,385.9966,626.7292,-322.4677,-1196.4087
30280.0000,-126.7091,429.2896,377.9798,628.2420,-335.2886,-1189.4601
30300.0000,-125.0734,441.6190,388.0083,630.7626,-324.4203,-1162.4539
30320.0000,-128.7161,439.4406,399.9957,639.2203,-301.3590,-1149.3813
30340.0000,-123.0749,480.6352,397.0356,623.6545,-301.4106,-1148.5190
30360.0000,-127.6971,439.5138,387.9591,612.2603,-290.3852,-1157.3185
30380.0000,-112.1262,493.4725,408.0609,607.6772,-272.2802,-1131.5803
30400.0000,-112.6886,573.5433,417.9429,601.3450,-288.4321,-1132.2273
30420.0000,-119.0754,540.4050,406.0936,602.6510,-293.2747,-1135.6426
30440.0000,-120.6239,538.6799,399.9232,605.3354,-267.5362,-1143.1740
30460.0000,-124.1241,537.3712,406.1184,608.5659,-310.2616,-1137.7043
30480.0000,-128.6582,534.6520,400.8698,599.3251,-323.5353,-1166.1296
30500.0000,-131.1891,529.3218,400.1456,601.5534,-342.2004,-1172.7886
30520.0000,-120.5819,552.7437,409.8504,611.4341,-260.6194,-1128.0414
30540.0000,-129.2169,554.2831,401.1546,604.5411,-283.1272,-1170.8527
30560.0000,-128.6015,541.7499,410.8273,606.4631,-283.6201,-1165.0076
30580.0000,-90.2362,572.3420,409.2110,608.4757,-236.0768,-1152.9004
30600.0000,-99.4979,530.7622,400.7827,612.4345,-258.6740,-1164.9307
30620.0000,-99.2322,522.3471,403.2352,614.4888,-258.1378,-1189.9868
30640.0000,-116.4430,531.7092,409.7651,612.4626,-315.6180,-1193.8746
30660.0000,-100.2815,557.4088,405.2566,611.4435,-298.1148,-1190.0453
30680.0000,-60.3910,583.7141,428.7379,626.5479,-242.6493,-1149.8038
30700.0000,-79.3339,560.4042,411.2756,629.4384,-251.1250,-1132.0997
30720.0000,-92.3948,540.6362,408.7133,612.5139,-240.6067,-1153.7319
30740.0000,-96.3888,554.3317,412.3120,617.4374,-291.1442,-1190.1824
30760.0000,-78.2462,565.6181,418.7175,618.5770,-267.6413,-1183.6818
30780.0000,-75.5569,551.3591,416.3034,636.3739,-245.1755,-1157.2369
30800.0000,-90.2287,534.6100,411.6869,632.5698,-248.5533,-1174.6147
30820.0000,-91.6278,540.3890,419.3158,626.3487,-273.1927,-1186.3093
30840.0000,-91.1315,568.5593,411.6863,627.5939,-278.4559,-1192.5435
30860.0000,-119.6856,557.5114,401.2979,614.3409,-279.2804,-1199.3861
30880.0000,-93.0484,555.6266,398.6903,630.6352,-271.3593,-1182.4771
30900.0000,-97.7680,561.4771,405.3133,625.3578,-269.4465,-1204.4589
30920.0000,-106.9072,576.5308,391.6763,620.6585,-280.2865,-1205.4200
30940.0000,-123.9291,567.4660,391.3015,617.3162,-324.4859,-1237.5325
30960.0000,-116.7390,560.6061,404.7165,617.6697,-305.2416,-1216.3544
30980.0000,-118.0232,534.4766,388.2801,621.2617,-269.6517,-1195.5721
31000.0000,-114.6024,538.5974,406.7248,629.6748,-280.0615,-1188.2855
31020.0000,-101.1603,553.4877,405.2667,635.3018,-296.7405,-1198.6334
31040.0000,-135.4722,529.5035,376.7570,625.7314,-342.9903,-1236.2477
31060.0000,-124.3293,536.4933,402.2380,637.2653,-301.8870,-1197.6801
31080.0000,-115.3350,542.5289,380.7640,629.7098,-291.8507,-1226.2148
31100.0000,-151.5149,509.4683,377.2068,624.2286,-333.9836,-1228.7230
31120.0000,-132.1881,539.5460,378.8004,631.7998,-292.7445,-1212.1932
31140.0000,-133.6535,515.4413,368.1640,633.1765,-283.0627,-1202.7241
31160.0000,-162.1111,500.5746,359.8353,622.7580,-359.6034,-1231.1885
31180.0000,-139.7299,537.4327,370.1432,623.1612,-339.2150,-1230.7389
31200.0000,-121.9528,537.5532,380.8638,626.8238,-301.5547,-1220.2023
31220.0000,-128.9024,549.4935,372.1056,615.2218,-299.3082,-1199.7001
31240.0000,-152.7907,571.6530,363.8892,614.7548,-314.3929,-1231.2328
31260.0000,-123.0217,557.4798,367.0628,618.1431,-302.4219,-1228.7002
31280.0000,-124.6992,568.5667,365.9508,618.8160,-295.3600,-1216.2565
31300.0000,-148.1788,544.4438,352.0191,616.1641,-299.4703,-1232.6453
31320.0000,-128.5903,531.6270,362.9896,612.7800,-273.2347,-1218.3010
31340.0000,-125.2847,523.3523,360.9805,614.1787,-290.5093,-1224.5850
31360.0000,-111.4784,538.7004,367.0167,616.8339,-277.2009,-1205.3695
31380.0000,-112.4282,563.3848,358.9500,615.2233,-274.4984,-1191.4874
31400.0000,-107.3466,561.6861,375.0556,615.7890,-284.1974,-1196.4540
31420.0000,-118.4557,563.3810,370.8928,609.1920,-276.5114,-1195.3857
31440.0000,-127.2679,520.6827,371.1129,608.7957,-290.2251,-1190.5745
31460.0000,-95.6223,563.3598,379.8540,616.1884,-241.5024,-1171.2465
31480.0000,-125.1880,541.7362,357.1466,606.8021,-288.2514,-1195.7189
31500.0000,-164.6619,532.2755,352.8219,603.1831,-330.4818,-1238.1304
31520.0000,-147.1560,540.6492,356.1691,613.7701,-304.3546,-1225.8888
31540.0000,-141.6825,531.3284,363.7954,607.2626,-293.4170,-1199.9471
31560.0000,-122.0780,564.6823,380.2298,613.7445,-304.4405,-1189.0558
31580.0000,-126.7301,548.3275,385.7660,617.2914,-290.3041,-1181.7462
31600.0000,-159.0616,565.6187,371.2431,613.7136,-307.5721,-1195.2715
31620.0000,-130.7620,599.4282,380.7482,616.2872,-325.1625,-1197.5409
31640.0000,-171.0300,564.6270,358.2696,611.6949,-327.6660,-1220.5039
31660.0000,-190.7822,566.4562,349.7172,610.3787,-355.0770,-1245.3275
31680.0000,-180.0978,556.5670,357.2850,606.6623,-345.8768,-1225.7430
31700.0000,-178.6785,547.5047,345.6851,621.3619,-331.8392,-1232.0645
31720.0000,-183.1570,541.5297,360.2990,618.6080,-318.9946,-1221.9983
31740.0000,-166.6587,572.5746,359.6795,618.3860,-299.6752,-1199.7898
31760.0000,-186.2426,600.4259,358.3108,618.5663,-317.1860,-1231.2627
31780.0000,-184.5881,593.7094,359.6715,617.4838,-300.4579,-1232.5361
31800.0000,-180.2805,584.3163,364.2986,627.4895,-296.4503,-1220.5225
31820.0000,-199.4803,551.7031,361.6625,626.4881,-302.2422,-1230.2584
31840.0000,-202.4061,530.2720,354.3004,622.4454,-309.7055,-1247.8162
31860.0000,-194.3365,534.8213,368.6936,627.5729,-299.0055,-1219.9661
31880.0000,-218.5023,530.1749,357.2988,612.4020,-323.8723,-1230.0825
31900.0000,-213.2133,553.0108,364.6901,631.5786,-314.7897,-1219.6722
31920.0000,-198.6357,545.9534,359.2761,623.3974,-307.1918,-1226.3762
31940.0000,-200.1046,537.1039,367.7025,612.6545,-306.5284,-1228.3960
31960.0000,-207.7359,535.8885,365.2694,619.2943,-321.3807,-1248.6798
31980.0000,-197.9282,519.1891,340.7224,610.7166,-329.2175,-1251.1123
32000.0000,-175.9194,528.6843,366.2550,621.3271,-300.6946,-1215.9591
32020.0000,-175.7352,539.4227,363.7673,616.7084,-316.9295,-1223.8085
32040.0000,-186.1502,540.6137,360.2147,621.2933,-324.9162,-1225.2493
32060.0000,-206.6424,533.4604,354.7865,617.7796,-338.7432,-1244.5481
32080.0000,-198.2892,566.3996,360.1830,610.2224,-341.1859,-1238.5153
32100.0000,-187.4575,543.6721,367.8159,615.8257,-335.4972,-1244.2881
32120.0000,-177.4733,535.2527,366.1484,615.1869,-340.4446,-1220.7821
32140.0000,-155.1851,537.8500,388.8720,616.8000,-317.2082,-1211.0159
32160.0000,-136.6331,550.0539,379.1147,614.1304,-295.6411,-1180.9935
32180.0000,-148.0334,566.0018,376.9050,608.8015,-299.0309,-1189.7517
32200.0000,-143.8844,557.8895,371.0628,615.1409,-291.8824,-1222.2739
32220.0000,-135.7744,565.1906,378.9371,615.8947,-278.7755,-1180.5142
32240.0000,-135.0290,546.7458,385.0218,625.1291,-271.0182,-1187.4800
32260.0000,-125.6317,530.2915,378.0045,625.9065,-260.6457,-1197.3065
32280.0000,-136.2205,514.6973,366.9623,624.0883,-223.2749,-1181.6765
32300.0000,-136.3932,543.4700,379.0310,625.9087,-237.4070,-1195.0970
32320.0000,-139.4349,531.5377,373.9239,626.1607,-286.3865,-1196.8787
32340.0000,-133.2945,531.4981,374.0873,623.8342,-280.2641,-1185.9159
32360.0000,-114.5894,543.3809,392.8711,628.1457,-240.5289,-1160.0376
32380.0000,-123.0588,546.6760,382.1335,631.8431,-280.1330,-1159.7598
32400.0000,-147.8381,510.2728,372.8199,624.1062,-279.6481,-1183.1885
32420.0000,-149.9307,480.7476,364.1941,614.8422,-318.9984,-1193.6212
32440.0000,-144.9915,507.1922,372.7737,626.2010,-300.8099,-1201.3268
32460.0000,-155.7131,542.7853,378.2379,613.7701,-301.9874,-1197.5276
32480.0000,-158.1046,531.1628,373.7456,616.2299,-309.9109,-1201.4265
32500.0000,-180.6032,513.8995,359.2747,616.7596,-316.8518,-1222.4421
32520.0000,-184.3024,514.1136,361.6942,612.2020,-329.9236,-1225.5286
32540.0000,-156.4144,496.9712,372.3108,614.7495,-307.8751,-1195.3458
32560.0000,-147.4466,532.0107,368.6751,620.2535,-306.0136,-1159.5787
32580.0000,-182.3182,528.9485,371.3371,609.7122,-322.7723,-1193.2705
32600.0000,-161.5525,570.0040,376.6379,616.3339,-291.0068,-1156.6422
32620.0000,-170.2285,566.0541,363.3715,618.6340,-297.7772,-1180.2052
32640.0000,-170.7174,525.0195,371.6080,613.3561,-333.0233,-1184.7020
32660.0000,-156.0464,497.0602,378.4173,612.6448,-320.7451,-1188.1788
32680.0000,-148.8043,529.9218,380.5538,609.3412,-323.9846,-1159.7191
32700.0000,-197.9793,525.0379,345.4432,608.5425,-346.8143,-1195.1505
32720.0000,-201.8767,528.9818,344.5332,599.3915,-336.9786,-1201.7411
32740.0000,-152.8468,567.9554,366.4500,610.5662,-299.8449,-1164.1401
32760.0000,-158.9279,558.0603,358.5246,608.4990,-320.9021,-1173.7245
32780.0000,-155.7724,539.9482,368.4615,612.5050,-297.8755,-1140.1263
32800.0000,-191.9838,515.0401,351.5301,606.5620,-328.8728,-1165.7146
32820.0000,-181.7495,499.9754,349.4714,597.4563,-303.9545,-1166.1558
32840.0000,-178.0567,513.0540,375.5167,605.5715,-292.8012,-1168.7007
32860.0000,-142.6966,506.8441,383.4877,614.3962,-269.9414,-1089.1411
32880.0000,-162.1182,510.1228,360.5240,616.6552,-282.7097,-1135.6628
32900.0000,-178.6542,501.7636,355.4826,611.3389,-308.1251,-1127.1938
32920.0000,-117.1001,540.1951,398.5240,613.6762,-235.6034,-1062.5885
32940.0000,-130.6670,543.8004,389.4933,611.2969,-251.1750,-1090.2124
32960.0000,-171.2235,479.2614,345.5175,585.6879,-318.5144,-1125.5793
32980.0000,-188.6605,471.7339,348.4585,586.2590,-334.2834,-1161.2896
33000.0000,-150.2273,520.3676,367.5240,597.7039,-312.5031,-1136.5371
33020.0000,-150.6350,542.5904,361.4789,602.2732,-324.3579,-1135.3180
33040.0000,-162.2052,576.4124,348.5313,596.7846,-337.3582,-1134.4905
33060.0000,-181.6080,554.5835,348.4471,593.1948,-351.5476,-1155.3879
33080.0000,-185.2360,523.4935,337.5355,590.7625,-336.2443,-1138.4478
33100.0000,-196.5972,510.4939,343.4415,589.2193,-354.6732,-1142.4263
33120.0000,-175.1714,497.5110,359.5441,583.7880,-348.1580,-1134.4010
33140.0000,-159.6131,534.3289,362.4310,578.1724,-359.7175,-1112.4664
33160.0000,-159.1605,495.6762,364.5535,582.7546,-347.0238,-1103.3254
33180.0000,-146.6487,538.3252,371.4345,588.1755,-313.8113,-1083.4955
33200.0000,-158.1371,513.6876,369.5556,580.7673,-322.8501,-1099.2743
33220.0000,-159.6449,512.1917,347.4283,578.1835,-343.0032,-1095.5603
33240.0000,-185.1675,496.7546,353.5591,579.7159,-356.8184,-1102.2322
33260.0000,-187.7247,478.1620,350.4280,583.1991,-333.0885,-1097.6115
33280.0000,-186.1319,469.7759,344.5574,580.7369,-334.6420,-1078.1639
33300.0000,-176.7086,473.0653,359.4320,588.2225,-329.1982,-1068.6598
33320.0000,-191.1122,471.8740,349.5539,581.7474,-339.5414,-1104.1157
33340.0000,-199.7677,489.0513,330.4264,574.2997,-338.3197,-1099.7186
33360.0000,-204.0449,486.8879,334.5594,575.6741,-338.4274,-1108.0630
33380.0000,-182.8208,477.0386,356.4524,575.3718,-329.4086,-1078.7657
33400.0000,-178.9536,469.9569,351.5539,574.5923,-300.3260,-1065.9885
33420.0000,-160.8481,471.9655,369.4625,575.4201,-305.5587,-1068.8213
33440.0000,-152.9615,480.0273,371.5391,576.6137,-332.2071,-1071.9375
33460.0000,-188.9539,445.8640,339.4872,560.4733,-359.5880,-1111.8904
33480.0000,-185.8836,469.0587,347.4872,578.5324,-352.1681,-1097.9020
33500.0000,-178.9490,482.9203,363.5073,587.5192,-334.7103,-1097.9313
33520.0000,-158.7855,528.0488,347.4589,579.4144,-295.0484,-1065.8396
33540.0000,-207.0549,458.8703,329.5304,569.5622,-354.8354,-1126.9967
33560.0000,-218.7458,426.0431,336.4209,576.4280,-395.0203,-1154.8154
33580.0000,-212.0391,420.8213,332.5771,579.6268,-373.8538,-1150.0657
33600.0000,-183.7070,478.0612,355.3682,583.3381,-315.8637,-1101.7385
33620.0000,-182.1301,485.9020,342.6494,590.7457,-310.9449,-1101.0902
33640.0000,-211.6004,469.0787,344.3133,583.2581,-360.8249,-1141.6984
33660.0000,-220.2029,470.9662,340.6869,582.8018,-349.9883,-1134.1613
33680.0000,-233.5798,467.0197,321.2336,570.1578,-360.8027,-1155.6686
33700.0000,-226.2865,497.9077,353.7846,567.8795,-339.9794,-1135.2051
33720.0000,-190.5751,508.0248,339.1842,581.1213,-327.7836,-1129.5892
33740.0000,-223.3334,468.9904,328.8452,578.8986,-368.9872,-1177.2906
33760.0000,-198.4769,469.9380,331.1094,590.0118,-353.8368,-1145.5533
33780.0000,-154.2909,520.0025,356.9328,613.9813,-292.9977,-1093.2919
33800.0000,-167.4526,511.8784,358.0375,595.9803,-296.7725,-1101.4702
33820.0000,-183.4106,498.0410,323.9585,586.1167,-338.0365,-1143.3823
33840.0000,-250.3762,460.8705,304.9544,580.9110,-371.7624,-1179.4606
33860.0000,-199.4367,533.1506,340.0633,603.1686,-310.0588,-1130.4307
33880.0000,-181.3489,539.8685,355.9044,606.7933,-297.7799,-1111.3477
33900.0000,-182.4913,536.2085,355.1200,610.2097,-318.9759,-1104.4978
33920.0000,-198.3078,493.7516,339.8286,605.7878,-360.7573,-1134.2939
33940.0000,-214.5012,453.2871,336.2003,591.2994,-348.0370,-1131.5690
33960.0000,-240.3030,431.6027,333.7471,590.7336,-385.8543,-1160.2505
33980.0000,-196.5402,475.3641,360.2973,606.3508,-355.0256,-1119.6238
34000.0000,-193.2140,501.6073,347.6748,590.6865,-359.8138,-1126.1796
34020.0000,-206.6214,476.4167,343.3655,586.3911,-369.9369,-1135.6921
34040.0000,-183.2280,507.4955,355.6014,589.6085,-350.9277,-1107.1094
34060.0000,-210.5613,506.5321,339.4218,588.4066,-368.8893,-1113.7416
34080.0000,-219.2091,506.4498,325.5314,586.5584,-379.9384,-1128.0573
34100.0000,-235.6126,497.6802,320.4878,583.4358,-385.8754,-1134.8043
34120.0000,-188.2254,510.2904,342.4865,610.5966,-318.9269,-1071.9744
34140.0000,-236.6144,508.7818,328.5384,591.4773,-335.8014,-1096.8304
34160.0000,-214.1685,535.1907,345.4390,607.5638,-306.0334,-1064.9259
34180.0000,-196.5894,526.9427,342.5906,607.4310,-305.7820,-1066.8590
34200.0000,-212.1612,525.1598,346.3745,607.5600,-303.0710,-1057.8868
34220.0000,-201.6138,525.0281,337.6370,604.4131,-296.7151,-1059.8937
34240.0000,-224.2325,496.9392,333.3501,607.5626,-311.1263,-1062.8588
34260.0000,-207.6449,521.0689,343.6647,596.4793,-289.6607,-1041.9204
34280.0000,-200.2084,508.9133,351.3122,604.5543,-295.1314,-1038.8234
34300.0000,-206.6234,510.1729,345.6851,606.4660,-306.6638,-1045.9458
34320.0000,-191.1601,502.8456,360.3019,606.5573,-301.1634,-1046.7924
34340.0000,-173.5388,500.3528,362.7043,606.4425,-322.5805,-1053.9713
34360.0000,-195.1946,499.6296,349.2912,597.6213,-344.2000,-1078.8003
34380.0000,-200.5762,505.4616,344.6914,586.4048,-352.6366,-1084.0055
34400.0000,-206.2646,507.5543,340.2834,593.6006,-332.1940,-1077.7855
34420.0000,-182.5717,531.4974,339.6926,594.2951,-338.5834,-1075.0109
34440.0000,-207.2765,532.4733,334.2869,584.6744,-330.2007,-1090.7776
34460.0000,-205.5842,494.6405,308.6702,585.2894,-358.6224,-1101.0317
34480.0000,-220.2554,466.3746,326.3061,581.6978,-354.2692,-1095.7767
34500.0000,-215.5414,471.6253,331.6562,585.2465,-334.5696,-1058.0189
34520.0000,-188.2833,504.3368,338.3389,584.7585,-351.2660,-1064.7675
34540.0000,-193.5146,481.7453,338.6162,580.2012,-353.6147,-1063.0266
34560.0000,-188.2861,473.2900,341.3766,576.7814,-334.2230,-1064.7736
34580.0000,-182.5494,477.7438,346.6177,577.1379,-324.5327,-1061.0116
34600.0000,-181.2632,496.1821,349.3931,585.8849,-336.2431,-1067.8123
34620.0000,-185.5676,488.7971,338.5550,586.1494,-341.5882,-1073.9862
34640.0000,-180.2390,503.2142,342.4599,584.9031,-334.1959,-1048.8152
34660.0000,-189.5884,473.8907,344.5182,585.0644,-332.5771,-1069.9445
34680.0000,-204.2751,471.1132,324.4801,576.9250,-345.2008,-1088.8702
34700.0000,-205.5805,465.9054,329.4938,578.9811,-344.6296,-1094.9177
34720.0000,-183.2404,486.1453,330.5369,571.9684,-318.0982,-1074.8929
34740.0000,-175.5283,518.9050,335.4195,578.9407,-291.6297,-1042.8608
34760.0000,-155.1685,520.1104,334.5679,575.0261,-298.1149,-1073.9360
34780.0000,-151.6178,503.9626,354.4022,588.9071,-275.6233,-1049.8234
34800.0000,-150.2209,503.1362,340.6119,579.0255,-280.0311,-1067.9731
34820.0000,-151.6462,503.9485,350.3461,584.9144,-275.6628,-1071.7935
34840.0000,-147.1858,507.0974,340.6510,586.1285,-273.9764,-1070.0266
34860.0000,-154.6003,499.8541,343.3097,579.8826,-275.7243,-1065.7639
34880.0000,-157.0949,474.1307,350.7188,581.1568,-289.9542,-1072.0443
34900.0000,-149.7049,501.8648,355.2607,577.8799,-269.7544,-1048.7240
34920.0000,-161.0744,504.1782,346.7408,582.1196,-309.9513,-1064.0720
34940.0000,-161.7135,529.8221,342.2339,571.8244,-311.9174,-1069.7086
34960.0000,-151.0766,538.3102,351.7717,578.1706,-275.8055,-1033.0806
34980.0000,-150.7991,548.7862,359.2011,576.8109,-274.8892,-1040.6854
35000.0000,-152.9321,500.3329,339.8256,547.1364,-286.7632,-1037.0785
35020.0000,-157.7913,465.7145,333.1597,539.8193,-309.0460,-1069.6956
35040.0000,-144.9223,491.4364,351.8394,550.1590,-300.7164,-1043.0753
35060.0000,-168.9098,467.6830,332.1485,548.7846,-330.0690,-1068.6953
35080.0000,-177.8613,469.5034,334.8486,550.1551,-310.6807,-1058.0896
35100.0000,-160.9181,485.5430,351.1289,558.7877,-306.1855,-1039.6917
35120.0000,-157.8107,477.4691,346.8674,557.1326,-308.5999,-1039.0684
35140.0000,-192.9288,461.5570,340.1328,562.8593,-320.1795,-1041.6992
35160.0000,-181.7951,484.6053,363.8779,569.1021,-308.5233,-1042.0406
35180.0000,-159.9862,484.4319,348.1290,565.8887,-297.3015,-1016.7161
35200.0000,-181.7662,463.6177,336.8763,563.1429,-303.4540,-1036.0172
35220.0000,-212.0075,444.2945,329.1432,553.8298,-308.3940,-1076.7720
35240.0000,-214.7027,457.7353,328.8660,561.1442,-293.3370,-1059.9698
35260.0000,-190.1146,496.2454,344.1476,570.9247,-300.4509,-1058.8124
35280.0000,-190.6405,468.8138,337.8237,562.0706,-324.2513,-1073.9265
35300.0000,-196.0782,474.1447,332.1857,574.9017,-314.5762,-1074.8911
35320.0000,-185.6811,494.9692,353.8261,579.0415,-301.1920,-1061.8334
35340.0000,-156.0788,503.1271,347.1944,579.9181,-268.6450,-1034.9553
35360.0000,-177.6120,476.0454,310.7826,567.0457,-316.0390,-1065.7335
35380.0000,-209.1867,432.9354,319.1998,564.9299,-335.7140,-1107.1029
35400.0000,-160.6261,470.1503,332.7571,575.0489,-282.9722,-1053.6226
35420.0000,-124.1174,482.9749,349.2374,577.9677,-252.7763,-1009.1526
