t,AF3,F7,F3,F4,F8,AF7
0.0000,-560.9379,497.6502,420.8043,686.4504,-356.5124,835.5815
20.0000,-564.9707,500.4670,423.0775,679.5431,-389.0002,822.5118
40.0000,-546.9537,514.5349,424.9141,692.3968,-389.7318,823.4530
60.0000,-539.9861,497.5582,423.0601,684.5812,-379.9098,824.4246
80.0000,-516.9410,512.3812,422.8268,688.3649,-349.7143,840.5270
100.0000,-503.9497,524.6301,425.1448,690.6263,-335.7408,869.6460
120.0000,-500.9570,512.2882,431.8559,688.3336,-350.9070,861.2700
140.0000,-487.8751,524.7126,424.0663,692.6688,-325.5659,893.6298
160.0000,-480.0694,520.2632,422.8786,688.3056,-352.0797,869.3528
180.0000,-479.8558,517.8312,422.0483,688.6693,-379.6448,867.7734
200.0000,-464.0950,532.1261,419.9878,691.2993,-358.9486,901.1254
220.0000,-437.7537,530.8842,420.9608,695.7118,-359.3968,897.8853
240.0000,-448.1320,494.1004,420.9590,686.2725,-377.2087,887.1496
260.0000,-424.6432,521.9246,423.9645,690.7310,-384.3340,892.0483
280.0000,-438.2104,498.0037,422.0501,687.2269,-393.2618,863.9875
300.0000,-420.6299,513.9903,421.9365,688.7375,-387.3598,870.0766
320.0000,-398.2557,552.9882,423.0268,691.2358,-347.2601,872.8923
340.0000,-399.5327,518.0595,414.8772,682.7718,-387.3375,860.1523
360.0000,-411.3802,518.9624,428.0979,684.2062,-387.1737,857.9092
380.0000,-399.4501,497.0566,420.7974,683.7875,-373.2934,857.1619
400.0000,-386.4199,513.9643,424.1676,691.2166,-372.2652,862.7419
420.0000,-386.3211,497.0611,424.8454,688.7681,-366.2874,850.2809
440.0000,-362.5204,516.9567,426.2001,693.1955,-339.1581,870.6351
460.0000,-354.2627,500.0630,426.7886,688.7703,-392.3893,836.2471
480.0000,-364.6252,519.9711,423.2035,686.2074,-380.1206,854.6566
500.0000,-354.1787,512.0524,423.7049,683.7922,-385.4145,836.2850
520.0000,-349.6612,499.9179,418.3340,681.2084,-413.1813,814.5865
540.0000,-356.0977,487.9840,422.6095,686.7738,-398.3994,815.2875
560.0000,-350.8046,497.0302,427.3814,685.2194,-395.1515,804.5396
580.0000,-325.9626,512.9154,426.6627,684.7451,-359.4385,814.3013
600.0000,-326.9019,485.0738,428.3556,686.2446,-365.0487,816.5648
620.0000,-340.9261,465.8883,427.5612,682.7399,-388.6808,815.3332
640.0000,-334.9694,450.1191,430.3818,680.2548,-384.0320,802.4656
660.0000,-304.7464,488.8279,430.5642,687.7206,-345.5802,830.4529
680.0000,-289.0845,491.2320,423.3972,690.2905,-347.7703,836.5718
700.0000,-291.6865,485.7324,431.4707,690.6813,-336.6939,843.5104
720.0000,-293.1191,471.3300,430.4408,691.3308,-355.7721,837.6165
740.0000,-306.5695,469.5909,427.4712,691.6521,-356.9575,811.4306
760.0000,-281.2118,490.3988,423.4447,692.3469,-332.6534,837.6375
780.0000,-283.5307,491.5498,433.5348,688.5922,-343.0348,815.2845
800.0000,-276.2998,486.4774,426.5010,686.4048,-339.5649,804.5804
820.0000,-282.4043,483.3798,433.5219,687.5746,-342.0434,809.3289
840.0000,-261.3952,485.6418,421.4815,689.4383,-345.3693,806.6619
860.0000,-245.3706,495.2826,424.5116,682.5245,-355.0942,789.2682
880.0000,-227.4841,503.7010,428.5018,682.4984,-357.3158,808.7498
900.0000,-239.2571,459.1971,422.4069,680.4621,-391.3811,784.3193
920.0000,-258.5560,458.8205,427.5626,677.5454,-398.1863,755.7105
940.0000,-249.1815,469.0480,419.4891,681.4160,-407.5013,750.1525
960.0000,-245.5660,474.9840,425.5648,681.5974,-379.0006,759.8599
980.0000,-229.1562,494.9462,423.4770,684.3527,-342.5057,780.1053
1000.0000,-226.6159,478.0167,426.4831,692.6344,-349.9581,770.9489
1020.0000,-216.0610,483.8465,426.5414,683.3214,-323.5436,776.9766
1040.0000,-221.6622,456.1522,425.5222,681.7058,-353.7929,772.8561
1060.0000,-213.0551,465.6986,428.5561,685.2472,-327.8223,780.9834
1080.0000,-188.6624,491.2984,426.4290,684.7562,-314.6508,782.9440
1100.0000,-184.0493,494.6034,430.5771,690.1943,-313.9023,783.9648
1120.0000,-180.7065,506.4258,424.4044,689.8149,-311.6979,782.2055
1140.0000,-180.0123,496.5588,425.5862,689.1327,-333.9486,772.8580
1160.0000,-165.7312,515.5410,422.3771,694.8759,-329.5749,782.2875
1180.0000,-177.0299,501.4445,421.6531,683.0964,-336.0161,769.7164
1200.0000,-194.7213,495.6275,420.3416,685.9282,-318.5358,761.3289
1220.0000,-173.0099,524.3661,426.7301,688.0163,-307.1577,784.5486
1240.0000,-193.6658,494.6768,423.2154,683.9670,-329.4287,758.3362
1260.0000,-190.0164,490.2984,423.7419,683.9669,-319.2772,765.4829
1280.0000,-179.6269,484.7062,426.2011,686.0306,-318.3914,771.4866
1300.0000,-169.1148,496.2352,422.7468,684.9257,-320.2249,779.4989
1320.0000,-169.6045,493.7841,420.1778,685.0711,-323.1537,768.4942
1340.0000,-181.1529,493.1790,422.8060,682.8961,-342.4238,745.3201
1360.0000,-165.6114,504.8244,421.0525,683.1309,-322.2206,758.5646
1380.0000,-165.1792,495.1075,417.9542,688.8345,-327.3542,750.3516
1400.0000,-170.5472,490.8784,428.0084,683.1743,-334.2238,747.6161
1420.0000,-159.1983,511.0396,423.9830,690.8077,-305.4778,773.3584
1440.0000,-158.4824,500.9558,431.9231,685.1968,-319.0500,751.7703
1460.0000,-181.3390,480.0062,424.0446,687.7473,-340.3798,746.1262
1480.0000,-154.3785,493.0052,422.8549,682.2451,-334.1363,753.8807
1500.0000,-181.4203,467.9567,423.0543,680.7228,-358.6122,712.1558
1520.0000,-170.3130,485.9960,422.7908,681.2743,-343.9630,718.8241
1540.0000,-164.4345,472.9928,423.1161,684.6870,-344.6227,732.1021
1560.0000,-162.1645,487.0471,420.7424,681.3056,-331.8681,736.8649
1580.0000,-154.5508,496.9199,426.2172,685.6617,-321.6486,746.9380
1600.0000,-159.0791,490.0741,428.7548,685.3337,-324.8130,744.0858
1620.0000,-149.6630,511.9210,424.2851,682.6417,-307.6595,747.8886
1640.0000,-155.9913,499.1041,423.6697,686.3681,-314.9133,740.0706
1660.0000,-144.7795,514.9061,424.3410,692.5945,-287.7441,753.9506
1680.0000,-155.8764,486.0785,425.6034,685.3869,-315.7536,738.0967
1700.0000,-150.9412,513.8575,422.4024,686.5900,-297.6334,734.6843
1720.0000,-118.7114,543.1033,420.5269,687.4223,-273.8329,760.2320
1740.0000,-145.0334,531.8637,428.4136,690.5654,-296.8137,749.7153
1760.0000,-159.5697,488.1039,422.4722,686.4396,-320.6984,741.3212
1780.0000,-151.2191,479.8050,422.4875,683.5212,-317.9202,745.5448
1800.0000,-174.4881,511.1460,421.4956,691.4698,-319.7497,739.3681
1820.0000,-161.3524,518.8248,423.4635,684.5028,-348.9093,730.5387
1840.0000,-151.3174,542.2514,422.3990,688.4717,-306.5201,760.4930
1860.0000,-158.4439,534.7502,419.5189,685.4877,-302.9486,753.5244
1880.0000,-190.2342,488.2072,423.4230,690.5056,-352.4822,743.6257
1900.0000,-182.6728,510.6783,423.5181,683.4545,-334.1627,747.3041
1920.0000,-186.0534,542.3451,422.3503,681.5253,-332.4313,750.6710
1940.0000,-196.7682,518.6823,422.5970,686.4539,-319.1347,749.2441
1960.0000,-186.8575,516.3969,422.3368,684.5353,-330.3596,745.6729
1980.0000,-202.9709,516.5695,422.6078,686.4364,-330.1943,745.0569
2000.0000,-212.7210,519.4443,423.3831,686.5654,-318.2111,731.8863
2020.0000,-214.1603,509.5592,425.6550,680.4091,-323.2847,725.9562
2040.0000,-216.5901,495.4728,427.3550,688.5654,-335.1913,726.8871
2060.0000,-217.2940,494.4797,421.5618,683.3855,-355.4136,722.9913
2080.0000,-204.4431,514.5096,423.3835,685.5856,-337.9160,735.1619
2100.0000,-172.4270,545.4165,424.5927,688.3793,-320.6833,767.8201
2120.0000,-161.2995,541.6149,425.3843,686.6051,-328.8100,770.1820
2140.0000,-166.5370,544.3213,426.5655,689.3721,-346.6670,753.6329
2160.0000,-130.1450,580.6652,423.4138,689.6107,-319.6859,791.3208
2180.0000,-131.7280,567.2631,426.5458,692.3520,-323.7825,786.6192
2200.0000,-123.9754,568.7151,428.4659,693.6177,-305.5187,789.3801
2220.0000,-125.8209,574.2330,424.5320,686.3624,-310.9888,813.4788
2240.0000,-125.8572,597.8023,424.5162,689.6268,-311.5151,789.4893
2260.0000,-134.9756,569.1700,424.4999,684.3416,-330.2150,793.3569
2280.0000,-128.7131,579.9344,424.5513,689.6331,-276.2950,815.5211
2300.0000,-135.0906,564.1336,414.4059,694.3468,-312.3702,803.2721
2320.0000,-156.6305,548.9253,429.5000,688.6272,-310.1406,797.6369
2340.0000,-149.2173,548.0134,426.4138,690.3497,-319.5284,795.2095
2360.0000,-150.5801,573.0191,426.6191,689.6292,-294.0045,819.7737
2380.0000,-164.2908,531.9893,426.3667,687.3341,-328.6488,779.2029
2400.0000,-181.4927,520.1067,423.6235,689.6221,-354.8087,774.9252
2420.0000,-171.3727,540.9537,425.3857,685.3610,-334.6886,783.0194
2440.0000,-176.3569,529.0746,422.6206,683.6278,-347.9012,774.9827
2460.0000,-186.4189,516.8724,422.2935,693.3709,-311.7969,797.0447
2480.0000,-182.3378,498.1220,423.7226,680.5916,-350.6323,778.9296
2500.0000,-194.5214,499.8462,424.2324,691.4056,-338.8701,791.8817
2520.0000,-183.2764,495.1378,420.7330,685.5731,-346.5863,788.9810
2540.0000,-175.5535,518.7994,419.1545,688.4105,-310.0344,810.0183
2560.0000,-201.2877,489.1456,418.7933,682.5591,-325.4386,783.0969
2580.0000,-182.5770,535.7955,419.1068,684.4378,-328.0925,782.8231
2600.0000,-191.2825,503.1507,422.8157,684.5178,-341.3495,780.0763
2620.0000,-186.5337,526.7761,421.0522,682.4819,-318.0899,780.9566
2640.0000,-200.3089,507.1725,426.9490,679.4803,-349.3968,781.1119
2660.0000,-168.5712,545.8323,429.0795,693.5002,-310.2758,813.8130
2680.0000,-196.2995,522.1870,415.9991,688.4462,-331.3553,791.1337
2700.0000,-188.5246,518.8062,422.9576,684.5353,-324.3770,805.8305
2720.0000,-168.2973,550.1727,422.9369,691.4316,-313.0826,816.0688
2740.0000,-201.5412,512.8134,419.9973,679.5693,-363.4607,798.8712
2760.0000,-179.3766,528.1587,418.9938,682.3892,-347.2356,816.0715
2780.0000,-178.4694,524.8530,421.9532,687.6019,-352.5485,813.7730
2800.0000,-176.3624,524.0969,424.0545,685.3405,-353.1112,816.0762
2820.0000,-185.4221,505.9172,417.9510,679.6488,-367.4818,802.7484
2840.0000,-193.5000,515.0345,419.0500,681.3004,-353.0874,803.1987
2860.0000,-179.3072,510.9477,423.8951,679.6945,-325.4156,807.8696
2880.0000,-190.5093,517.0455,424.0957,686.2609,-340.1414,804.2092
2900.0000,-169.2519,526.0042,422.8256,684.7400,-306.5820,823.8067
2920.0000,-186.6289,508.9520,422.1216,688.2062,-340.9898,815.0304
2940.0000,-193.1747,508.0262,424.9201,687.7680,-370.6095,795.8390
2960.0000,-172.6983,529.9414,419.0880,685.1777,-347.9924,802.1492
2980.0000,-177.1614,519.0548,424.9162,685.8229,-347.6026,807.8981
3000.0000,-181.7857,500.8856,423.0686,684.1324,-340.9646,814.1869
3020.0000,-187.0683,508.1047,426.9020,687.8420,-352.6472,790.9722
3040.0000,-183.7976,507.8797,429.1492,686.1142,-330.0058,805.1764
3060.0000,-187.9603,493.1259,427.8403,681.8904,-353.5279,769.9614
3080.0000,-194.8983,487.8453,419.0836,680.0749,-351.0370,775.1373
3100.0000,-195.9428,490.1480,415.9202,682.9231,-373.4868,770.9933
3120.0000,-177.9692,512.8016,419.0748,690.0594,-347.9587,779.0059
3140.0000,-184.8364,499.1934,421.8960,682.9443,-351.5625,777.9608
3160.0000,-181.0117,510.7947,422.1046,685.0388,-349.0558,783.0663
3180.0000,-201.7597,506.2597,429.8600,679.9399,-354.6299,775.9490
3200.0000,-213.1116,504.7636,428.0560,680.0194,-340.0650,774.0616
3220.0000,-217.7296,503.2749,426.9505,682.9709,-347.6181,772.9042
3240.0000,-206.1519,529.7241,424.0645,686.0206,-324.9468,783.0174
3260.0000,-215.6747,525.2570,418.8937,683.9541,-333.5997,773.9438
3280.0000,-224.1331,525.6959,422.9999,685.0094,-328.8802,769.9286
3300.0000,-212.6708,540.2610,424.9878,686.9787,-308.6251,781.9291
3320.0000,-233.1625,534.7266,419.0129,683.0223,-342.8944,749.8935
3340.0000,-219.6585,540.2420,425.9331,685.9685,-313.6895,773.9776
3360.0000,-217.1324,533.8066,428.0086,685.0142,-356.8990,761.9274
3380.0000,-218.6073,532.2197,422.9004,681.9612,-362.5987,758.0697
3400.0000,-217.1303,533.8264,422.9757,682.0330,-356.8870,761.8982
3420.0000,-234.6280,511.1638,418.9256,676.9456,-350.5510,747.0724
3440.0000,-213.1530,516.8807,428.0043,686.0455,-357.9533,723.8904
3460.0000,-221.6767,519.1135,428.9838,676.9304,-369.6386,721.1675
3480.0000,-214.0775,520.8670,422.0414,683.0703,-353.7716,722.8405
3500.0000,-204.6434,537.0842,418.9182,685.9139,-342.6920,747.1335
3520.0000,-187.0430,560.9268,416.0883,687.0880,-325.9104,748.7427
3540.0000,-172.7216,569.9968,420.8962,686.8983,-313.7881,752.2663
3560.0000,-196.9568,540.0524,426.0414,679.0868,-315.7843,746.6703
3580.0000,-197.7400,541.9410,420.8800,683.8533,-337.7102,744.1315
3600.0000,-180.8546,549.0422,432.0262,684.1200,-324.7421,748.6786
3620.0000,-198.8611,535.8704,427.8728,686.8457,-309.6786,754.1735
3640.0000,-184.7930,524.1365,432.0530,681.1556,-334.7956,749.6662
3660.0000,-182.9202,539.8262,422.8145,684.8034,-315.8436,756.2473
3680.0000,-174.6996,543.2739,426.1203,688.1727,-303.6398,780.6815
3700.0000,-173.0298,542.7512,421.8430,690.7882,-307.7567,780.3900
3720.0000,-183.5353,533.3108,423.1184,683.2211,-310.6349,779.6153
3740.0000,-180.1402,539.6674,420.7501,692.7478,-315.8745,776.3512
3760.0000,-188.4994,522.3969,425.2649,680.2275,-329.7030,767.5200
3780.0000,-181.2303,521.5467,419.7709,679.7202,-317.8635,777.4027
3800.0000,-182.3376,523.5143,421.2156,687.2731,-318.7261,775.4457
3820.0000,-191.4144,506.4289,425.6881,679.6929,-337.8191,763.3604
3840.0000,-206.2195,490.5452,421.2680,682.2941,-344.5915,758.4448
3860.0000,-180.5033,517.4164,427.6215,684.6707,-318.7485,784.4379
3880.0000,-181.1286,514.6680,421.3199,679.2992,-324.6447,774.5379
3900.0000,-188.5973,504.2847,424.6469,680.6528,-340.8849,748.5293
3920.0000,-181.9650,533.7184,427.4541,689.3286,-317.6376,778.3847
3940.0000,-188.7098,518.2206,422.4893,678.6238,-341.7292,772.4739
3960.0000,-179.8257,502.8019,423.4142,686.3524,-341.7852,774.4578
3980.0000,-170.8866,517.1886,426.5341,686.6285,-331.8408,790.6799
4000.0000,-168.7457,514.8961,416.5595,683.3810,-339.8448,807.3035
4020.0000,-157.0038,507.0695,421.4553,685.6005,-340.8035,805.6208
4040.0000,-146.5562,510.9247,425.6157,687.3965,-344.7112,794.3973
4060.0000,-162.1025,488.9928,426.4361,685.5854,-356.7556,778.7086
4080.0000,-162.4523,498.0301,426.5959,680.3929,-369.9480,779.2627
4100.0000,-151.1889,509.9547,422.2980,684.5661,-358.6952,787.7105
4120.0000,-142.3559,532.0947,424.6533,683.4272,-324.8262,818.2603
4140.0000,-150.3275,517.8884,428.3369,686.5648,-338.7040,805.6935
4160.0000,-150.2153,509.1495,422.7043,682.4383,-342.8379,806.2078
4180.0000,-115.3999,527.8682,426.3133,690.5443,-313.6798,833.6636
4200.0000,-127.0825,521.2171,425.7771,686.4479,-312.8646,824.1777
4220.0000,-141.5103,512.7937,421.2577,683.5134,-327.4357,820.7894
4240.0000,-142.0348,523.2460,426.7375,689.4529,-333.0871,825.2144
4260.0000,-144.5882,514.7188,425.2119,683.5008,-334.3858,826.7001
4280.0000,-136.8709,513.2532,420.7913,685.4713,-335.9947,824.2106
4300.0000,-120.6668,539.7466,432.2124,691.5121,-309.3280,856.7088
4320.0000,-121.8085,534.3264,428.7562,690.4899,-333.2055,841.3892
4340.0000,-119.7850,541.6823,422.1425,686.4884,-318.2595,861.5737
4360.0000,-114.7231,539.3391,422.8034,692.5200,-314.1906,868.3857
4380.0000,-131.8495,511.6141,426.2303,686.4738,-354.3712,840.7002
4400.0000,-121.6694,524.4119,423.7393,682.5249,-342.3217,861.4822
4420.0000,-122.8684,528.6008,429.1574,688.4440,-341.1335,865.5762
4440.0000,-110.6641,548.3871,426.7750,691.5441,-326.3910,881.5407
4460.0000,-127.9072,531.5847,423.1994,687.4142,-340.2005,863.4786
4480.0000,-125.5828,519.3894,419.7459,685.5579,-349.4592,872.6172
4500.0000,-114.9682,547.6333,422.1636,684.4023,-326.1028,883.4360
4520.0000,-149.5308,520.4247,418.7935,680.5777,-337.4666,868.5936
4540.0000,-118.9532,544.6108,426.2728,686.3903,-314.0008,879.4857
4560.0000,-142.4834,539.4012,423.6866,683.6223,-331.5893,871.7309
4580.0000,-144.0232,522.5486,424.3054,681.3598,-349.0298,858.3759
4600.0000,-151.4789,506.4378,423.6673,689.6312,-347.6410,866.6927
4620.0000,-140.0115,507.6013,424.3249,684.3224,-350.9455,856.2683
4640.0000,-123.4378,510.3866,422.7114,681.6661,-345.4973,873.7077
4660.0000,-152.0175,502.5424,420.2510,688.2861,-361.8587,862.1167
4680.0000,-150.4045,507.3822,423.6268,689.6964,-354.5259,863.7681
4700.0000,-152.0181,506.5798,422.2593,684.2540,-350.8610,871.0390
4720.0000,-153.4723,496.3875,428.6342,684.7249,-346.6780,860.9663
4740.0000,-163.0391,484.6235,427.3080,685.2277,-373.8276,859.1473
4760.0000,-174.4179,488.3839,426.6311,683.7843,-375.6554,864.9052
4780.0000,-194.0211,488.5970,419.3723,684.1856,-385.8400,857.0706
4800.0000,-202.4754,494.3647,421.5858,688.7932,-384.6914,850.0662
4820.0000,-222.9980,502.6049,422.3095,679.1435,-375.7311,856.0118
4840.0000,-236.5645,496.3192,423.5639,687.8536,-370.9062,860.1419
4860.0000,-258.9608,497.6517,424.4182,686.1255,-378.7699,851.9072
4880.0000,-291.6020,486.3394,420.6369,689.8766,-388.9087,841.2086
4900.0000,-282.9256,524.7188,429.3326,693.0751,-350.6814,872.9175
4920.0000,-302.6084,524.3375,427.6562,692.9348,-349.9221,868.1917
4940.0000,-331.9255,514.6997,420.3240,693.0358,-357.6769,864.9289
4960.0000,-332.6983,543.2882,424.6225,686.9638,-357.8354,860.2506
4980.0000,-362.8817,524.7630,421.3654,696.9907,-361.6105,869.8096
5000.0000,-388.7989,529.2662,424.6385,691.0016,-357.8454,883.3525
5020.0000,-420.8974,519.8073,422.2826,690.9705,-364.6740,877.9642
5040.0000,-437.8275,542.2030,425.7076,695.0391,-353.9035,882.3324
5060.0000,-455.7905,539.8401,420.2746,697.9197,-355.6737,881.8521
5080.0000,-492.8914,524.2324,422.6908,690.0735,-371.8931,863.3275
5100.0000,-516.7675,511.8040,421.3015,693.8876,-376.7063,866.9635
5120.0000,-571.0034,500.1677,418.7402,691.1130,-401.9380,838.1876
5140.0000,-576.6905,513.8875,423.2607,693.8555,-376.6868,854.9407
5160.0000,-594.1173,525.1191,431.7539,693.1586,-375.0008,854.2852
5180.0000,-638.6251,507.9048,421.2407,694.8276,-401.6600,847.0073
5200.0000,-652.1860,508.0901,421.7349,695.1750,-385.9883,859.1430
5220.0000,-659.5662,502.8675,422.1357,693.7925,-390.6809,869.9216
5240.0000,-710.3282,484.0293,419.7855,698.1950,-403.9899,857.0474
5260.0000,-722.5351,499.8940,419.1719,690.7737,-418.4845,857.1154
5280.0000,-726.4554,486.9973,422.8640,689.2159,-425.9482,855.9566
5300.0000,-749.4194,476.9184,420.0674,694.7472,-432.4893,852.0724
5320.0000,-752.4727,472.9879,421.8529,697.2674,-423.1161,871.0075
5340.0000,-786.3740,458.9923,422.0140,692.7117,-449.5655,845.1906
5360.0000,-801.6107,460.9444,423.8823,693.2833,-439.1534,832.9434
5380.0000,-795.2245,491.9787,417.9958,701.6984,-423.4464,849.3454
5400.0000,-807.7435,477.9946,423.9240,696.2896,-444.2345,837.7652
5420.0000,-812.1997,488.0526,426.9630,694.6981,-416.3793,839.4229
5440.0000,-812.8267,488.9744,421.0365,698.2840,-425.2044,850.7595
5460.0000,-839.0822,476.0602,430.9052,693.6877,-436.2757,832.3533
5480.0000,-842.8832,509.9012,423.9948,698.2832,-421.3141,829.6403
5500.0000,-855.0141,493.0858,419.8771,695.6749,-435.3344,816.5093
5520.0000,-865.0437,493.9066,427.0696,702.3061,-436.2907,822.6083
5540.0000,-874.9017,483.0643,428.8473,692.6902,-452.1447,813.5339
5560.0000,-892.1027,486.8496,423.1251,693.2978,-446.4398,814.3522
5580.0000,-900.8076,488.1541,427.8845,692.7009,-446.1469,810.7742
5600.0000,-944.2020,438.8320,421.1597,679.2773,-500.4417,772.3960
5620.0000,-946.7227,436.1314,424.8264,691.7079,-489.0524,775.7186
5640.0000,-912.2454,472.7999,415.0931,691.2475,-469.6235,813.3568
5660.0000,-897.6832,484.1390,428.7884,691.7293,-438.1218,816.8468
5680.0000,-888.3295,501.7911,423.1760,704.2208,-422.5775,820.2120
5700.0000,-891.5701,512.1605,422.8152,699.7831,-401.8578,830.0035
5720.0000,-931.4107,487.7707,417.2139,699.1852,-423.7605,807.0703
5740.0000,-950.5268,480.1664,430.7631,700.7928,-434.8627,803.9492
5760.0000,-952.5050,478.7349,427.1569,697.1677,-425.8301,813.1168
5780.0000,-985.4954,469.1960,421.7626,700.8304,-443.7531,792.1804
5800.0000,-998.6367,458.6967,428.2039,694.1055,-461.0183,778.9274
5820.0000,-1017.4047,453.2579,422.8230,691.8732,-475.6506,773.0627
5840.0000,-1016.6628,480.6441,423.1632,697.0786,-417.9427,810.9149
5860.0000,-1022.3538,488.3140,426.8128,706.9351,-399.4769,815.2039
5880.0000,-1030.7312,479.6634,421.1583,703.0077,-423.1007,811.8693
5900.0000,-1043.3129,484.3247,423.9121,705.9850,-426.3138,810.3890
5920.0000,-1039.8044,470.6061,423.1204,700.9644,-434.1815,809.7598
5940.0000,-1039.3158,471.4064,421.8316,694.0555,-438.2458,810.4764
5960.0000,-1070.8665,444.5496,427.0734,691.8997,-474.4141,777.6316
5980.0000,-1071.2509,435.3964,419.8656,697.1088,-459.1743,785.4191
6000.0000,-1071.8771,430.5087,430.0864,696.8386,-463.5712,774.4998
6020.0000,-1072.2694,443.4247,421.8855,700.1956,-477.0319,780.5780
6040.0000,-1084.9574,438.4521,426.0830,696.7722,-456.6764,780.5617
6060.0000,-1094.2260,435.4940,421.9120,704.2576,-445.9966,779.6320
6080.0000,-1132.9969,437.3601,426.0553,699.7010,-465.7902,770.4806
6100.0000,-1150.1700,427.5663,421.9400,703.3154,-454.8597,774.5994
6120.0000,-1167.0211,439.3570,428.0140,707.6247,-425.7983,781.4368
6140.0000,-1216.1725,429.6030,428.9884,697.3753,-462.6256,761.8073
6160.0000,-1262.0819,405.3066,423.8916,699.5613,-475.8932,761.3522
6180.0000,-1297.1685,408.6992,428.0809,695.4603,-471.5105,767.7912
6200.0000,-1291.1803,444.2295,426.9055,700.4995,-457.1514,781.2959
6220.0000,-1323.1572,458.7338,427.0563,698.5210,-492.4453,759.8993
6240.0000,-1342.1823,446.1365,424.8867,698.4175,-494.3035,763.2520
6260.0000,-1338.1846,446.7972,421.1222,696.5771,-472.3828,776.9320
6280.0000,-1335.2023,464.0935,423.8054,694.3485,-465.2546,782.1650
6300.0000,-1372.1422,449.8737,426.1767,696.6448,-487.1858,770.0611
6320.0000,-1372.2935,470.0208,427.8731,706.2758,-492.5435,780.0389
6340.0000,-1389.0879,466.9593,426.2006,696.7090,-509.2281,779.1299
6360.0000,-1384.3362,469.9434,423.7569,698.2168,-483.4253,786.9102
6380.0000,-1372.0634,453.0434,427.1577,703.7881,-488.0963,805.1389
6400.0000,-1383.3384,425.8301,423.7349,702.1569,-514.6324,777.8525
6420.0000,-1386.9955,447.1204,424.2552,700.8521,-493.0577,785.1999
6440.0000,-1410.4532,427.7998,423.7168,694.1105,-511.6385,703.8370
6460.0000,-1377.9209,443.2533,430.2360,696.8761,-475.8880,647.2180
6480.0000,-1341.5050,473.7249,421.7177,704.0676,-458.6596,598.5817
6500.0000,-1346.8518,471.3238,422.1775,704.9503,-467.9353,521.2924
6520.0000,-1343.5820,451.5829,427.7879,699.0171,-478.8857,444.5120
6540.0000,-1320.7739,437.4023,424.2903,699.9871,-482.7930,376.3678
6560.0000,-1305.6262,425.5038,423.6877,693.9755,-498.8646,341.5186
6580.0000,-1264.7408,425.4548,420.2010,696.9995,-479.6955,346.4048
6600.0000,-1254.6465,440.4430,425.7879,697.9418,-467.7730,352.2659
6620.0000,-1224.6244,436.5286,420.2083,695.0444,-463.6623,342.5904
6640.0000,-1228.7146,437.3529,423.6767,703.9303,-461.8709,352.2000
6660.0000,-1212.5474,443.6390,417.2880,704.0628,-456.6453,329.5691
6680.0000,-1189.8102,447.3239,420.7511,700.9238,-441.9207,344.1807
6700.0000,-1167.4327,458.6644,425.2433,696.0833,-447.6525,345.5538
6720.0000,-1145.8462,457.2054,425.7793,702.8932,-423.9402,348.2113
6740.0000,-1157.3521,435.7156,426.2955,698.0776,-440.6575,342.7320
6760.0000,-1129.9042,447.1878,426.7148,696.8749,-428.7341,350.2202
6780.0000,-1119.2416,444.7938,430.2698,698.0850,-436.7391,364.6114
6800.0000,-1109.0514,443.1078,419.7018,697.8774,-431.7520,373.0780
6820.0000,-1088.1492,458.8260,430.2662,697.0809,-419.9302,382.7885
6840.0000,-1085.0634,448.0459,421.6903,701.8737,-424.6715,381.2429
6860.0000,-1072.9821,433.8865,419.2725,696.1005,-416.9265,382.7865
6880.0000,-1073.1597,439.0038,421.6930,691.8981,-419.5565,399.2175
6900.0000,-1059.9214,463.9516,420.2054,695.0894,-406.0493,412.5863
6920.0000,-1060.2665,447.0577,422.7441,696.8776,-425.5965,399.2464
6940.0000,-1025.8507,474.9340,425.2399,703.0784,-401.9939,430.7183
6960.0000,-1023.3076,467.0681,421.6867,704.9124,-402.4603,427.2715
6980.0000,-1047.7539,441.8761,421.2681,689.0615,-425.1346,414.5299
7000.0000,-1043.4440,439.0161,426.7093,695.9195,-404.3145,435.2898
7020.0000,-1038.6614,438.8424,427.2383,705.0699,-421.3222,432.4258
7040.0000,-1025.4651,466.0956,431.7301,703.9264,-397.1499,447.4353
7060.0000,-1015.5683,488.8409,428.3008,700.0517,-401.5323,457.4426
7080.0000,-1029.5514,471.1354,422.7168,697.9273,-423.9485,442.4358
7100.0000,-1035.5604,440.7878,427.2550,700.0430,-431.7345,433.2320
7120.0000,-1043.6117,435.2342,421.6575,695.9528,-446.7852,439.7019
7140.0000,-1026.5021,439.6801,423.2869,700.0339,-442.8780,441.0560
7160.0000,-1013.6100,444.3253,423.6342,695.9615,-446.6009,452.7154
7180.0000,-994.4987,460.6218,418.2756,699.0206,-409.9677,465.0019
7200.0000,-984.6382,449.4120,431.6852,693.9529,-446.3978,436.9551
7220.0000,-1023.4703,437.5039,421.3323,694.0104,-457.2980,442.7717
7240.0000,-1062.6771,430.5541,427.6909,693.9610,-460.2297,431.0047
7260.0000,-1115.5071,403.3846,422.2876,687.9956,-488.4070,407.6706
7280.0000,-1036.6560,498.6971,420.6538,706.9681,-395.9953,472.2541
7300.0000,-1016.4753,532.2687,426.4041,710.9976,-367.6278,474.4463
7320.0000,-1002.5747,552.8471,424.6067,711.9719,-331.7644,484.5069
7340.0000,-1004.5137,552.1068,425.3744,719.9999,-340.8989,476.2640
7360.0000,-994.5732,540.0374,423.5269,711.9662,-343.6041,473.6987
7380.0000,-1000.5190,529.8832,429.3809,713.0178,-371.1441,439.8933
7400.0000,-975.5223,557.2094,436.5959,716.9639,-351.2833,443.9031
7420.0000,-958.5329,525.7534,426.4843,714.0306,-353.3787,437.8285
7440.0000,-945.4256,548.3742,425.5749,713.9673,-342.0852,445.1557
7460.0000,-943.6149,542.5699,423.4721,717.0270,-346.5742,431.4640
7480.0000,-929.4074,550.5406,420.5163,711.9467,-332.8846,437.4276
7500.0000,-900.6896,560.4119,430.5207,718.0444,-328.7946,435.3167
7520.0000,-889.2990,551.7466,425.5150,709.9509,-342.7848,421.7197
7540.0000,-870.7423,548.2126,430.5512,716.0407,-332.9389,406.0861
7560.0000,-882.1981,532.8788,416.4785,709.9399,-359.4693,361.9054
7580.0000,-863.8300,545.0251,432.5710,715.0438,-338.1524,341.7389
7600.0000,-878.0807,521.1150,424.3990,704.9257,-364.3461,282.0656
7620.0000,-836.9645,535.8304,427.5739,712.0668,-366.1637,266.5657
7640.0000,-829.9662,506.2802,427.4080,704.9133,-384.1234,259.2098
7660.0000,-813.0706,518.6651,433.6864,710.0951,-365.4309,272.2804
7680.0000,-782.8254,523.4510,427.3773,711.8922,-374.1174,281.4753
7700.0000,-791.2078,505.4555,419.6823,703.0845,-376.5255,264.1359
7720.0000,-754.6800,513.5602,428.2842,721.8915,-363.0394,263.7279
7740.0000,-722.3115,547.3690,420.6464,701.1082,-346.6091,269.0782
7760.0000,-697.5309,526.7522,426.2697,712.8834,-372.7899,242.8635
7780.0000,-671.3727,520.1995,421.7220,713.1066,-361.8335,244.8178
7800.0000,-664.4766,524.8931,425.3102,716.8733,-382.8018,238.0999
7820.0000,-641.4354,517.0790,420.6908,710.1233,-374.8284,240.8062
7840.0000,-611.2809,531.9675,429.2679,717.8734,-360.6006,252.1099
7860.0000,-582.5989,535.0042,418.7199,714.1258,-354.9316,272.5462
7880.0000,-586.2022,508.0135,419.1951,709.8760,-374.5933,251.1897
7900.0000,-577.7100,520.9326,425.7506,708.1174,-370.9427,263.4751
7920.0000,-575.0500,496.1425,420.2375,707.8652,-378.7455,241.2542
7940.0000,-591.7530,505.8602,423.7733,712.1105,-373.8034,256.4630
7960.0000,-572.9290,509.1483,427.2451,713.8829,-375.6870,271.3252
7980.0000,-549.8950,528.8354,427.7553,716.0992,-355.8015,285.4273
8000.0000,-549.8774,503.1576,432.1516,707.8775,-345.6856,272.3685
8020.0000,-537.9880,493.8011,428.8112,713.1020,-367.8118,255.3948
8040.0000,-502.7568,500.1512,430.1633,714.8770,-364.8136,265.4232
8060.0000,-486.0659,485.8271,430.7975,712.0777,-391.8640,253.3519
8080.0000,-472.6206,486.1512,423.1501,715.9026,-362.8961,267.4580
8100.0000,-439.1162,490.8408,426.8157,710.0791,-365.7047,288.5118
8120.0000,-425.5105,485.0726,431.2278,708.9349,-352.8971,314.3998
8140.0000,-386.2084,496.9091,418.7358,715.0308,-341.5057,326.5774
8160.0000,-382.4516,503.0232,423.1704,710.9398,-347.0897,312.2894
8180.0000,-368.2320,498.9584,422.6993,714.0306,-345.5591,333.6337
8200.0000,-346.3972,530.9316,427.2743,711.9695,-330.1046,348.1520
8220.0000,-368.2944,480.0850,427.7151,709.0049,-369.3210,323.7585
8240.0000,-349.3278,488.8555,429.2793,710.9871,-373.1941,343.1435
8260.0000,-330.3508,490.2285,428.7528,710.9627,-358.2322,369.8362
8280.0000,-350.3387,489.7673,425.3174,709.0295,-369.3894,378.9481
8300.0000,-358.4235,485.2828,431.6607,704.9543,-374.0995,389.9930
8320.0000,-308.2708,511.6225,430.2459,715.0376,-341.4706,419.8429
8340.0000,-330.4354,498.4596,429.6557,707.9134,-359.9319,402.2085
8360.0000,-337.2390,463.4950,423.2494,712.0776,-390.7241,391.6898
8380.0000,-332.4776,491.5582,422.6157,710.8775,-371.8376,416.4766
8400.0000,-330.2203,505.3365,426.3104,710.1207,-376.8528,426.4286
8420.0000,-322.5108,512.7363,428.6750,713.8693,-356.5593,442.5975
8440.0000,-326.2636,485.1877,431.3611,705.1478,-389.0593,439.3055
8460.0000,-301.5126,493.9013,426.6665,709.8402,-380.5288,448.7072
8480.0000,-278.1833,499.0383,428.3391,703.1628,-351.0587,475.0463
8500.0000,-270.5100,507.0180,424.6624,709.8139,-359.3369,470.9716
8520.0000,-282.2104,476.9220,431.3970,711.1844,-359.3090,474.8351
8540.0000,-253.5248,490.1540,426.6351,713.7847,-344.3022,493.2291
8560.0000,-266.1893,486.7513,431.4116,710.2360,-364.4819,470.7378
8580.0000,-271.4766,503.2408,440.5377,713.7578,-348.1202,484.4570
8600.0000,-264.2704,528.6891,422.4172,713.2487,-325.5842,503.4105
8620.0000,-253.5120,528.4248,431.5222,711.7239,-328.0581,510.5961
8640.0000,-237.2313,530.5459,426.4053,709.2678,-324.6043,503.1920
8660.0000,-204.4423,546.4932,434.5546,712.7185,-286.9458,533.8955
8680.0000,-175.2431,566.4951,429.4499,717.2759,-283.7202,553.0120
8700.0000,-186.3842,552.6057,435.6017,714.6861,-300.6561,536.1394
8720.0000,-188.3166,538.3170,431.4394,715.2741,-304.8670,536.8722
8740.0000,-169.3644,530.7125,425.5444,717.6972,-293.5593,553.2863
8760.0000,-188.3364,521.2476,432.3772,712.2958,-313.9154,534.6452
8780.0000,-186.3247,507.7903,423.5565,711.6742,-328.5678,528.3521
8800.0000,-151.3158,526.1671,428.3977,714.3231,-307.8206,561.4238
8820.0000,-145.3066,524.8491,426.6046,710.6558,-317.5592,559.5732
8840.0000,-147.3337,520.1739,423.3591,707.3141,-305.0248,563.2805
8860.0000,-150.2574,512.8871,422.5247,708.6667,-328.4741,539.7377
8880.0000,-151.4062,518.0720,427.4367,717.3265,-316.0155,553.1100
8900.0000,-146.2609,520.9932,428.6217,706.6527,-298.4112,568.0764
8920.0000,-158.4504,502.0637,427.4204,706.3104,-323.9351,538.8665
8940.0000,-137.1758,500.9521,427.5874,701.6527,-322.4904,557.2035
8960.0000,-103.5223,534.9775,424.3586,704.3172,-281.0126,584.8609
8980.0000,-134.1528,490.9964,429.5965,706.6591,-326.4430,561.2131
9000.0000,-108.5697,520.0150,426.3264,708.3102,-290.0091,595.7584
9020.0000,-104.0611,512.0378,432.6572,707.6686,-310.4404,588.2953
9040.0000,-128.5936,500.9559,425.3693,703.3007,-339.9810,578.4892
9060.0000,-89.0335,511.0147,431.6272,710.6674,-311.5478,604.5406
9080.0000,-76.6331,530.9840,428.2669,708.2954,-310.1632,600.4451
9100.0000,-75.9311,528.0372,421.7149,707.6889,-316.3790,590.5424
9120.0000,-59.7001,544.9682,436.3097,712.2819,-294.1432,627.3175
9140.0000,-52.8413,531.0382,424.7820,712.7034,-300.4046,632.6921
9160.0000,-33.7501,535.9590,429.2676,711.2639,-309.0136,629.2943
9180.0000,-41.8344,537.0424,423.7541,711.7069,-314.4750,634.7881
9200.0000,-29.8665,510.9808,424.2128,705.2706,-317.0904,624.3444
9220.0000,-26.7196,518.0665,428.8071,707.7235,-316.4828,636.8818
9240.0000,-28.8722,505.9317,426.1801,711.2369,-349.0492,617.1726
9260.0000,6.1846,549.0440,428.8271,709.7513,-307.5455,641.8154
9280.0000,28.0236,551.0243,428.1476,710.2481,-289.7994,657.1984
9300.0000,25.2247,543.0160,426.8609,714.7388,-293.5656,659.8007
9320.0000,-1.9812,527.0028,429.1775,707.2166,-332.9187,656.1802
9340.0000,7.3132,521.9766,424.8942,700.7754,-326.7311,634.8761
9360.0000,26.8741,508.9766,427.1689,709.2148,-309.8452,584.3049
9380.0000,29.3447,540.0014,428.8948,709.7944,-307.7124,446.7698
9400.0000,31.9008,534.9993,424.1058,708.1878,-311.7635,399.3109
9420.0000,22.3654,524.9603,425.8725,705.7876,-328.8226,397.7136
9440.0000,25.8343,511.0590,431.1051,707.1639,-319.5843,407.3333
9460.0000,53.3941,534.9905,431.8528,707.8159,-312.0045,435.6490
9480.0000,31.8478,535.0203,428.0494,709.1636,-311.6277,435.3710
9500.0000,52.4383,532.9269,430.9311,717.8376,-298.9132,446.6095
9520.0000,63.8033,538.0350,428.0369,712.1399,-294.4701,456.4760
9540.0000,65.4029,528.9578,426.9684,712.8481,-305.9833,448.5677
9560.0000,58.8115,510.0671,428.0265,703.1255,-333.4345,451.4586
9580.0000,53.3977,519.9249,422.8826,700.8685,-324.0079,471.3524
9600.0000,54.7966,501.0830,425.0964,705.1263,-319.3638,469.7243
9620.0000,48.3973,499.9016,424.9924,702.8641,-318.1363,471.2567
9640.0000,63.8302,514.1560,425.0901,707.0963,-322.3808,470.6341
9660.0000,64.3981,503.8250,425.9323,707.8837,-314.2332,474.2182
9680.0000,62.8975,505.1817,425.0862,704.0928,-317.2954,470.7501
9700.0000,65.3250,500.7865,425.9361,704.9045,-323.2503,468.1883
9720.0000,90.8722,525.2300,425.0832,713.0812,-320.3376,498.0162
9740.0000,55.2916,485.8009,425.9379,701.8987,-346.2935,460.9290
9760.0000,52.9033,476.2560,428.0088,696.0677,-344.2115,470.9582
9780.0000,62.2442,507.7317,422.8938,694.9265,-339.3079,476.9473
9800.0000,59.9563,488.3235,424.0335,704.0505,-334.3244,476.1643
9820.0000,64.1948,484.6693,425.0008,696.9217,-329.2491,499.7112
9840.0000,65.0070,504.3496,429.0626,698.0276,-319.1770,486.2837
9860.0000,67.1123,501.6084,430.9650,705.9362,-325.3124,502.6645
9880.0000,71.1045,492.3853,429.9973,694.0165,-349.2109,491.2766
9900.0000,61.1005,468.5915,425.9338,703.9692,-354.2206,483.5961
9920.0000,90.1704,496.4913,422.9831,701.0187,-350.3226,485.4302
9940.0000,102.0162,479.4965,428.9714,701.9696,-354.2073,480.4429
9960.0000,108.2809,510.5691,425.0924,702.9872,-334.3347,505.5150
9980.0000,120.9584,501.3869,429.9025,698.9987,-350.2405,492.4224
10000.0000,126.2924,496.6615,427.0844,708.9771,-326.2708,502.5011
10020.0000,117.9205,493.3054,421.9468,706.0067,-333.0925,504.4267
10040.0000,116.3699,492.7415,428.0257,701.9410,-337.2702,501.5273
10060.0000,118.8247,497.2187,426.9701,703.0306,-326.0363,503.3580
10080.0000,138.4135,501.8641,433.0564,705.9236,-326.3612,519.7289
10100.0000,121.7529,500.0260,425.9163,699.0506,-327.0814,516.4055
10120.0000,142.4926,509.9804,425.1042,707.9191,-315.4514,533.6311
10140.0000,146.7452,517.9302,435.9729,707.0632,-321.0954,535.3913
10160.0000,112.4866,471.1194,419.0246,702.8975,-358.5017,506.6543
10180.0000,118.6836,469.8132,425.9144,699.0853,-346.8765,528.2666
10200.0000,131.5277,492.2825,427.0952,705.8698,-334.6959,547.6718
10220.0000,135.6388,483.6800,424.9756,699.1033,-327.9330,562.4097
10240.0000,120.6003,493.3566,429.0871,703.8677,-348.8134,532.5170
10260.0000,139.6552,503.5585,431.8689,708.1241,-326.7436,538.3641
10280.0000,121.5699,481.4560,429.0942,694.8465,-339.7115,530.4001
10300.0000,136.6793,496.4823,422.8592,708.1453,-323.5716,567.6453
10320.0000,122.5195,492.6400,426.0573,697.8173,-347.9253,530.3206
10340.0000,122.6737,486.3213,426.9488,709.1724,-339.4819,540.5613
10360.0000,121.5239,477.7239,431.0886,698.8018,-342.9921,550.2303
10380.0000,125.6871,503.2202,429.8709,711.1772,-317.4445,568.6522
10400.0000,105.4566,489.8412,431.0902,700.7935,-313.0739,564.2020
10420.0000,92.7154,462.0940,423.9073,700.2109,-343.4209,544.8821
10440.0000,92.4319,462.8830,430.0371,704.7728,-322.1746,572.0330
10460.0000,69.7553,437.0391,428.9360,690.2227,-375.3044,541.9623
10480.0000,71.3302,447.9290,426.0615,702.7392,-351.4457,546.9610
10500.0000,87.8747,461.0147,428.9326,695.2477,-332.0113,568.2520
10520.0000,56.2575,433.9818,425.1322,696.7087,-375.4515,530.6659
10540.0000,63.9825,440.9732,422.8471,696.2739,-368.0668,548.4106
10560.0000,75.1543,454.0187,427.1234,694.7027,-351.6604,561.5359
10580.0000,91.0666,463.9451,423.8950,695.2864,-342.9972,562.4513
10600.0000,78.0107,457.0423,424.0879,693.6797,-362.7110,563.4104
10620.0000,88.2073,465.9146,435.9354,695.3018,-353.8696,562.6195
10640.0000,90.8224,485.0061,426.0816,699.6744,-328.8318,580.1772
10660.0000,86.3524,471.9572,424.9344,694.3108,-344.7892,578.7279
10680.0000,85.6709,482.9945,432.0547,700.6653,-343.8174,575.0950
10700.0000,67.5008,476.9794,427.8487,699.3291,-346.6952,578.0810
10720.0000,97.5223,492.9890,427.1528,701.6323,-320.8426,594.9504
10740.0000,89.6378,511.0406,424.9166,696.3482,-300.6181,595.1838
10760.0000,76.4035,462.8567,424.1182,693.6253,-338.8682,595.8098
10780.0000,64.8514,480.1354,428.8879,692.3632,-328.6341,592.2810
10800.0000,64.1353,486.7848,429.1499,695.6252,-320.9362,593.5945
10820.0000,58.0257,481.2763,428.8826,696.3694,-352.5067,578.5422
10840.0000,43.0115,466.6627,424.1311,699.6142,-334.0911,602.4390
10860.0000,45.1625,478.3976,428.8752,702.3597,-309.5383,604.6109
10880.0000,33.8056,456.4983,430.1018,695.6115,-334.9523,593.3281
10900.0000,29.4026,461.5406,426.8791,704.3790,-325.5563,595.7462
10920.0000,37.6437,474.3716,429.1727,700.6090,-321.9814,600.1575
10940.0000,-1.3421,439.6371,422.7814,699.3800,-355.6253,597.8972
10960.0000,15.3864,458.2344,427.1886,699.5995,-345.8384,606.9931
10980.0000,3.7549,472.8602,425.8157,693.3677,-384.6125,592.8881
11000.0000,-13.7024,455.0583,422.1676,695.6052,-356.7311,595.0549
11020.0000,-4.0383,483.0045,425.8094,695.3831,-360.7877,590.9360
11040.0000,-19.9288,472.8242,419.1316,695.6037,-361.7047,589.8873
11060.0000,-19.8070,464.2115,421.8271,696.3889,-373.8009,577.1561
11080.0000,-32.0960,459.6666,428.1466,695.6050,-355.6954,590.8636
11100.0000,-62.6452,460.3693,425.7947,695.3803,-379.8137,571.0782
11120.0000,-91.2026,466.4398,428.1518,691.6130,-375.5488,563.8607
11140.0000,-76.5151,485.6183,427.7772,688.3542,-382.1117,569.2665
11160.0000,-81.3453,478.2683,429.2097,696.5968,-374.5576,574.8648
11180.0000,-98.4542,473.7827,423.7941,692.3668,-396.0496,570.3023
11200.0000,-103.4582,476.1081,423.1346,690.6280,-406.4412,571.7853
11220.0000,-108.3266,483.9201,426.8313,693.3331,-386.3133,575.2057
11240.0000,-106.6230,481.9550,423.1376,695.6467,-407.1763,563.8214
11260.0000,-120.2194,467.0844,425.7776,695.3350,-360.3656,595.2068
11280.0000,-124.6663,458.7998,427.2311,695.6596,-376.1234,578.7521
11300.0000,-128.1102,436.2411,427.7645,697.3055,-387.4700,587.2114
11320.0000,-146.8010,435.6461,427.2353,686.6733,-416.9725,570.8254
11340.0000,-167.1070,418.3550,424.8373,693.2896,-429.6965,545.1012
11360.0000,-154.8217,442.4743,423.1438,694.6874,-444.8942,562.9064
11380.0000,-168.0331,396.4941,426.8227,693.2692,-413.8261,568.1265
11400.0000,-163.8738,427.4123,423.1460,691.7150,-411.6643,586.8490
11420.0000,-160.9957,412.6600,422.7293,699.2608,-408.9016,594.0139
11440.0000,-178.8520,419.2616,430.1616,696.7163,-392.4708,595.0817
11460.0000,-174.0478,425.6981,425.7732,692.2498,-410.1175,594.9639
11480.0000,-186.8052,416.1904,426.1830,695.7604,-392.3567,594.1359
11500.0000,-192.0381,421.7200,427.7622,692.2234,-421.1987,576.8960
11520.0000,-197.8001,414.1559,420.2150,694.7836,-415.2736,590.1420
11540.0000,-206.0905,431.8092,427.7650,693.1682,-417.3430,592.7401
11560.0000,-221.7431,394.1200,426.1756,688.8049,-464.2838,559.1898
11580.0000,-228.1406,396.8093,425.7828,688.1312,-437.3733,577.7432
11600.0000,-216.6756,407.1420,426.1711,693.8391,-446.2450,581.3309
11620.0000,-220.2606,416.8288,425.7880,694.1102,-457.3766,586.6412
11640.0000,-218.5914,418.1184,424.1777,685.8770,-433.0468,581.4138
11660.0000,-231.4051,419.8300,422.7501,692.0936,-413.3504,591.4512
11680.0000,-226.4395,422.0953,424.1768,688.8991,-436.0775,579.4749
11700.0000,-225.4913,423.8432,420.7647,688.0322,-422.5807,582.3646
11720.0000,-219.2947,441.1836,430.1378,699.9531,-412.1635,596.5262
11740.0000,-231.6710,428.7873,429.7740,690.0103,-420.3927,593.3000
11760.0000,-244.1906,439.1705,422.1774,688.9731,-406.0253,592.7405
11780.0000,-253.8108,413.7204,427.7932,694.9797,-427.3952,575.2293
11800.0000,-251.0332,420.2393,427.2011,696.0230,-422.0500,591.8177
11820.0000,-244.9631,423.7068,427.7963,694.9451,-420.3524,598.2023
11840.0000,-243.8382,427.3477,427.1981,698.0424,-432.1608,589.8863
11860.0000,-256.1750,424.5993,423.8269,690.9153,-419.4352,592.9933
11880.0000,-238.6579,427.4058,432.1020,696.0920,-442.0764,580.9999
11900.0000,-252.3483,422.5535,421.8459,691.8870,-440.4359,576.9476
11920.0000,-249.3957,414.4370,428.1180,693.1077,-444.3119,587.0452
11940.0000,-253.5177,403.5078,428.8699,689.8384,-449.3604,587.8709
11960.0000,-266.2565,399.4949,429.1625,689.1476,-448.3212,585.3187
11980.0000,-260.7360,405.4050,427.8279,689.8013,-458.2851,564.6731
12000.0000,-252.9961,409.6050,425.1758,687.1977,-444.4476,598.3007
12020.0000,-269.9685,404.3087,428.8915,688.7591,-447.2536,578.4493
12040.0000,-260.7505,396.6378,421.0700,689.2175,-453.5039,594.5254
12060.0000,-256.1652,415.2204,426.9148,694.7386,-437.0939,595.5010
12080.0000,-260.5303,412.7632,422.1113,694.2508,-444.5974,588.5078
12100.0000,-237.3704,444.1732,425.8750,693.7075,-417.9409,606.4251
12120.0000,-255.3273,422.7892,425.1392,692.2878,-440.5132,600.6507
12140.0000,-260.5968,420.1658,428.9273,692.6811,-439.9856,606.3320
12160.0000,-259.1527,405.8418,431.0926,689.2855,-430.7274,613.8220
12180.0000,-246.7876,438.0549,424.9630,695.6833,-423.9310,632.1624
12200.0000,-264.9801,420.9223,427.1017,690.3094,-438.6678,608.8284
12220.0000,-261.9655,421.0076,425.9175,696.6458,-442.7252,627.9756
12240.0000,-236.7603,457.0187,425.0944,700.3339,-397.7185,655.0786
12260.0000,-223.1848,457.9600,425.0025,698.6450,-384.8216,684.0361
12280.0000,-209.5234,474.0530,426.0092,706.3259,-381.7535,672.1189
12300.0000,-186.3072,498.0199,427.9424,706.6345,-373.8235,688.8516
12320.0000,-206.3777,493.0508,431.0197,701.3540,-375.8677,685.2728
12340.0000,-201.5193,477.9163,423.9892,704.6500,-390.6738,686.7220
12360.0000,-197.2099,490.0635,429.0073,704.3411,-371.9370,692.3027
12380.0000,-221.6235,474.9766,424.0133,698.6449,-403.5951,669.6911
12400.0000,-211.0883,473.0756,423.9542,700.3365,-393.8646,690.3337
12420.0000,-189.7825,489.9052,430.0039,703.6613,-381.6829,690.6535
12440.0000,-197.9940,495.0736,428.9565,699.3175,-390.7683,696.3241
12460.0000,-180.8700,505.9529,430.0299,706.6665,-369.6533,721.6332
12480.0000,-180.9052,509.0557,432.9039,708.2994,-358.7432,724.5591
12500.0000,-194.9683,499.9571,422.1091,709.7087,-392.6886,712.6013
12520.0000,-174.7827,512.0436,423.8695,705.2832,-377.7962,734.6021
12540.0000,-188.0345,484.9492,431.1397,705.7083,-416.8443,713.5836
12560.0000,-182.6864,495.0348,424.8943,704.2468,-408.6574,723.6083
12580.0000,-177.0556,502.9897,434.2110,706.7455,-429.8338,720.4957
12600.0000,-182.6411,482.9979,418.7776,704.2123,-449.5918,713.6254
12620.0000,-182.0759,472.9719,433.1989,701.7808,-458.8255,704.5430
12640.0000,-182.6181,479.0195,429.7321,709.1744,-447.5514,707.5113
12660.0000,-165.0981,472.0446,426.2177,701.8273,-443.9741,721.4863
12680.0000,-176.6472,475.9846,426.7742,702.1095,-439.6086,714.6588
12700.0000,-155.1218,477.9943,433.2709,702.8838,-433.0756,723.5333
12720.0000,-176.6463,463.9381,429.6606,698.0589,-447.4363,712.6051
12740.0000,-171.1328,477.0826,421.2633,705.9296,-442.1162,720.4933
12760.0000,-175.6242,483.9067,428.6854,700.0137,-440.3769,719.5125
12780.0000,-164.0829,483.1338,425.3969,697.9957,-413.0053,729.5167
12800.0000,-169.7016,465.8317,425.6032,703.9506,-440.3390,719.4734
12820.0000,-195.0433,478.1118,427.4258,697.0531,-431.2510,721.5927
12840.0000,-186.7501,482.7826,433.6298,708.8862,-425.3962,713.4927
12860.0000,-190.9428,493.1895,428.4091,705.1473,-411.1145,732.6792
12880.0000,-176.8431,500.7464,429.4897,703.8121,-408.2596,733.4423
12900.0000,-184.9032,492.2977,428.4554,705.2175,-408.2955,753.7774
12920.0000,-201.8905,486.6989,428.5052,701.7237,-409.3365,729.2888
12940.0000,-220.8159,468.3184,432.4801,703.2802,-434.1859,725.6564
12960.0000,-219.0564,473.6750,431.3790,697.6482,-429.2834,735.1377
12980.0000,-235.6986,467.3570,420.6018,698.3557,-438.3327,721.8549
13000.0000,-238.1535,460.5679,429.3403,698.5786,-452.3112,718.1065
13020.0000,-239.6089,466.4868,425.6823,702.4313,-447.2934,720.9238
13040.0000,-248.2515,470.5275,434.3197,702.4950,-455.4153,726.9987
13060.0000,-255.4373,477.5681,426.6670,705.5364,-442.1993,724.9055
13080.0000,-272.3609,463.4082,428.3061,705.4024,-460.5168,718.9345
13100.0000,-289.3914,455.6671,427.7711,700.6135,-449.1475,716.0125
13120.0000,-296.4769,460.3233,425.2098,695.3397,-457.5323,714.9532
13140.0000,-303.2902,458.6721,427.8263,701.7057,-458.0438,709.1649
13160.0000,-291.5957,493.2913,429.1316,707.2482,-424.5303,752.8422
13180.0000,-289.1594,490.7766,431.8566,698.7674,-424.8344,730.3002
13200.0000,-322.7172,477.1540,427.0914,703.1703,-439.7706,721.6975
13220.0000,-310.0652,480.8981,432.8425,705.8676,-433.6994,718.3417
13240.0000,-315.8217,502.0616,425.0506,704.0971,-422.7857,727.5369
13260.0000,-323.9597,502.9706,433.9485,710.9536,-396.5289,744.5671
13280.0000,-329.9524,485.9997,421.0215,711.0020,-420.9443,734.3920
13300.0000,-325.7778,509.0675,430.9607,709.0198,-410.4135,748.5230
13320.0000,-331.0399,494.9131,429.9749,710.9240,-428.1213,746.3582
13340.0000,-354.7301,478.1720,422.0067,710.1039,-459.3619,715.7176
13360.0000,-354.1892,461.7580,431.9133,711.8552,-466.2096,720.3448
13380.0000,-359.6143,454.2385,423.1090,703.1595,-468.1904,720.6833
13400.0000,-379.3409,446.7051,423.9104,701.7730,-495.5305,690.2542
13420.0000,-385.5277,445.3264,430.1720,701.2471,-498.0598,697.6628
13440.0000,-386.3593,432.6108,427.8442,702.7132,-507.7593,690.1971
13460.0000,-393.4034,455.4666,429.1620,709.3030,-503.8079,688.7269
13480.0000,-405.4575,437.5037,425.8159,703.6600,-505.7216,690.1528
13500.0000,-404.3468,446.5407,433.1747,711.3748,-492.6985,693.8635
13520.0000,-428.5781,422.3917,424.7255,701.5895,-499.9566,671.1306
13540.0000,-434.2126,427.6577,427.2486,702.4286,-502.6314,666.9333
13560.0000,-418.6831,439.3001,429.7189,707.5500,-472.0392,694.1868
13580.0000,-459.1732,406.7229,426.3450,700.4626,-508.3972,660.8279
13600.0000,-473.7632,392.1768,426.6497,697.4985,-525.2306,654.1424
13620.0000,-480.1218,384.8212,427.3041,698.4897,-532.3837,639.7929
13640.0000,-476.8039,397.1633,428.6181,699.4758,-514.3912,655.9808
13660.0000,-483.0391,408.8484,428.3738,702.5472,-502.2357,655.9255
13680.0000,-472.9254,409.1110,424.6287,707.4450,-485.5653,665.9897
13700.0000,-494.9763,384.9546,426.3940,696.5587,-519.0183,657.7455
13720.0000,-508.9763,397.0454,428.6010,694.4271,-531.4578,632.1171
13740.0000,-519.8919,375.9863,423.3565,697.5799,-531.0032,621.7668
13760.0000,-509.0281,403.9538,431.6425,694.4138,-510.7025,638.0693
13780.0000,-510.9137,394.9940,422.2987,700.5786,-516.9186,649.7035
13800.0000,-533.0666,392.9378,432.7023,705.3972,-539.6811,640.1545
13820.0000,-519.8138,398.0250,421.3523,702.5930,-536.8267,644.7556
13840.0000,-533.1180,404.9243,431.6626,706.4066,-501.7999,636.0947
13860.0000,-550.8762,400.0112,429.2892,704.5688,-510.9304,634.6949
13880.0000,-540.1497,403.8950,425.7184,704.4056,-513.6506,628.1873
13900.0000,-570.8297,387.0418,425.2880,694.5438,-566.8364,621.5583
13920.0000,-551.2105,415.9080,422.7083,707.4417,-518.6926,639.2690
13940.0000,-534.8162,421.0339,426.3065,700.5344,-512.9354,652.5325
13960.0000,-571.2051,393.9351,429.7618,698.4628,-528.7525,634.4331
13980.0000,-570.7932,391.0441,428.2549,695.5030,-539.0527,634.5005
14000.0000,-591.1864,395.9472,426.7628,700.4785,-549.7607,641.4385
14020.0000,-575.7802,394.9720,424.1175,699.4672,-548.0784,632.3951
14040.0000,-600.2204,394.0103,426.8112,696.5128,-562.6513,633.5297
14060.0000,-617.7985,384.9752,427.1066,693.4523,-566.0992,624.3785
14080.0000,-610.2219,385.0452,425.9296,691.5453,-579.4744,627.4500
14100.0000,-625.7707,388.8728,428.0983,691.3998,-589.1818,625.3525
14120.0000,-632.2889,374.1107,426.9319,697.5999,-575.4565,626.4764
14140.0000,-611.7565,403.8286,430.0203,698.3425,-559.2213,646.3340
14160.0000,-630.2903,382.1573,419.9808,696.6357,-580.4474,637.5389
14180.0000,-612.7888,423.7650,423.8733,697.3218,-528.1482,654.2660
14200.0000,-619.2740,405.2350,436.0720,696.6817,-556.4867,640.6339
14220.0000,-625.7392,406.7029,422.8635,701.2714,-532.3653,658.1221
14240.0000,-622.2712,419.3007,430.1825,701.7348,-525.2997,661.6908
14260.0000,-633.7786,398.6391,437.7553,700.2150,-541.4070,656.2650
14280.0000,-621.3178,422.3891,420.2046,698.7945,-516.2506,677.6392
14300.0000,-628.6881,402.5196,429.7242,701.1729,-549.3475,665.2451
14320.0000,-625.3664,410.4463,430.3372,698.8422,-538.1276,684.7938
14340.0000,-624.7308,427.5017,426.6100,698.1046,-521.3384,682.1919
14360.0000,-593.3364,446.5762,426.4347,696.8747,-523.1879,693.7743
14380.0000,-619.7183,432.4028,429.5774,701.0812,-525.5340,689.1543
14400.0000,-601.4205,443.6457,431.4163,697.9268,-543.1115,687.6277
14420.0000,-600.6741,430.3514,423.4294,705.0344,-511.5157,711.2392
14440.0000,-597.4402,427.6642,427.5090,698.9761,-526.2242,710.6718
14460.0000,-593.6258,437.2417,424.4150,698.9831,-483.4649,722.3052
14480.0000,-581.4778,445.7525,430.6141,700.9971,-461.1240,727.5773
14500.0000,-581.5535,452.2053,427.3938,702.9468,-451.4391,752.3859
14520.0000,-596.6128,438.7634,420.6128,701.0284,-445.1548,745.4898
14540.0000,-565.4527,472.1601,427.3407,702.9138,-466.3091,757.3541
14560.0000,-571.6522,457.8622,422.6520,705.0599,-455.2845,762.5750
14580.0000,-571.3222,445.0837,433.2569,707.8894,-452.4442,769.4779
14600.0000,-545.7299,469.9146,428.7788,704.1093,-437.3753,783.3330
14620.0000,-535.2214,465.0630,431.2242,708.8696,-437.2383,780.6002
14640.0000,-530.8628,475.9402,427.7657,701.1171,-448.4220,786.3026
14660.0000,-539.1313,464.1011,429.2045,700.8495,-455.1212,783.7678
14680.0000,-564.0038,441.8724,428.8459,703.1515,-432.5127,804.1735
14700.0000,-555.0304,460.0607,423.0985,699.8209,-431.1287,797.7576
14720.0000,-569.1307,436.8909,429.8011,693.1627,-473.6095,761.1792
14740.0000,-570.8294,437.0659,422.1487,694.7969,-472.8894,760.9022
14760.0000,-564.2827,440.9146,426.8888,696.1710,-469.7683,762.0974
14780.0000,-532.6607,443.0955,428.1071,696.7966,-461.8086,777.9665
14800.0000,-529.4124,438.8294,425.8382,698.2014,-461.7819,779.9561
14820.0000,-533.5403,442.0958,429.1602,692.7813,-465.6288,782.1621
14840.0000,-534.5838,441.7856,425.8314,704.2272,-454.0371,783.7083
14860.0000,-526.3577,450.2083,428.1176,689.7484,-448.6149,798.2086
14880.0000,-503.7596,451.7747,431.7817,694.2301,-458.1168,804.6309
14900.0000,-506.1146,439.1974,431.1753,689.7350,-458.3423,808.3304
14920.0000,-508.9400,436.6887,429.7737,690.2468,-447.2961,807.5856
14940.0000,-503.9959,416.2474,431.2000,693.7167,-470.2844,808.4248
14960.0000,-508.1624,429.6761,427.7595,692.2458,-456.3979,832.4124
14980.0000,-474.7315,443.3513,431.2300,699.7130,-439.2544,845.4787
15000.0000,-494.3466,437.5911,429.7117,692.2598,-460.4630,844.3712
15020.0000,-464.5454,467.4688,430.2169,696.7064,-418.0831,868.6491
15040.0000,-473.5197,450.4891,427.6827,697.2808,-421.5460,883.3052
15060.0000,-470.3924,474.5036,431.3146,693.6700,-425.8735,886.6815
15080.0000,-443.6721,474.4496,428.6902,694.3122,-410.6732,900.2071
15100.0000,-453.2123,473.6402,431.3572,695.6595,-399.9075,908.7962
15120.0000,-443.8596,489.3917,424.6692,700.3478,-400.6771,924.2586
15140.0000,-449.0034,459.6363,424.3866,694.6240,-434.9058,909.8578
15160.0000,-448.0576,476.2739,430.5869,696.3502,-397.6754,928.3176
15180.0000,-446.8269,466.7482,436.4770,698.5909,-396.7010,925.8088
15200.0000,-454.1755,459.2099,425.5146,694.4019,-400.7933,921.1789
15220.0000,-443.6891,467.8435,429.5036,694.5573,-402.8018,931.9414
15240.0000,-445.3896,432.1729,430.4989,692.4227,-435.9126,917.3000
15260.0000,-442.4933,432.8917,431.5345,693.5151,-419.6518,927.8478
15280.0000,-424.4969,446.1117,431.3951,690.4775,-397.7772,944.2890
15300.0000,-444.3826,444.9710,426.5437,694.4846,-409.5565,947.8312
15320.0000,-432.5819,440.9904,430.4218,698.5099,-397.7884,951.2790
15340.0000,-428.2555,447.0002,427.6331,693.4374,-403.6471,950.8484
15360.0000,-414.7166,452.0067,435.4189,697.5424,-392.9531,974.4179
15380.0000,-434.2158,425.0705,428.5974,691.4149,-430.6316,936.6912
15400.0000,-420.7383,432.9076,428.3760,692.5819,-417.9026,963.4814
15420.0000,-412.1747,442.1135,425.6967,695.3667,-412.7048,977.6598
15440.0000,-406.7689,444.8899,432.3315,698.6412,-418.7257,981.5616
15460.0000,-403.1313,430.1113,428.6373,691.3197,-426.8007,975.5126
15480.0000,-387.7707,445.9052,428.3419,691.6991,-423.6909,981.6841
15500.0000,-344.1061,484.1227,428.6475,695.2709,-393.7720,1049.5371
15520.0000,-308.7509,483.8565,428.3359,694.7368,-425.5905,1048.8025
15540.0000,-315.1349,462.1405,429.6996,691.2260,-409.8596,1049.4124
15560.0000,-276.6734,492.8669,431.2660,695.7884,-369.6039,1076.9114
15580.0000,-295.1235,477.1660,425.7126,696.1871,-393.0567,1055.2090
15600.0000,-285.6324,468.9132,431.2814,697.8160,-370.4009,1065.2034
15620.0000,-290.2156,477.1381,428.6158,693.1226,-375.1877,1049.9625
15640.0000,-317.5785,468.9507,426.3925,693.8656,-382.3361,1040.2405
15660.0000,-321.3274,440.0244,428.5895,692.1005,-375.2994,1031.8477
15680.0000,-295.3964,431.9840,427.3596,691.9236,-381.1171,1047.5398
15700.0000,-292.4646,413.0224,427.6214,703.0453,-376.2861,1047.8428
15720.0000,-293.3159,397.9595,427.3971,695.9604,-378.1472,1053.6143
15740.0000,-281.6658,400.9486,434.5960,703.0103,-377.4924,1062.6082
15760.0000,-274.1505,393.0392,436.4444,691.9962,-380.0125,1040.6807
15780.0000,-286.8360,394.8714,418.5280,692.9717,-395.5750,1045.5270
15800.0000,-284.9190,401.0923,425.5014,691.0159,-399.8659,1041.8354
15820.0000,-259.9709,411.7924,423.3870,698.9561,-353.5872,1071.3406
15840.0000,-269.7300,415.1730,425.5616,688.0208,-362.7143,1058.9113
15860.0000,-262.1995,408.6959,426.3674,694.9382,-375.8373,1051.2108
15880.0000,-268.5528,397.3146,428.6565,697.0400,-384.7626,1047.1792
15900.0000,-249.4461,404.6544,427.3631,693.9142,-375.9237,1053.1539
15920.0000,-258.2714,399.3720,431.6414,698.0562,-377.6770,1049.1030
15940.0000,-259.6582,399.5039,428.2310,690.9191,-374.8997,1044.0924
15960.0000,-259.0914,388.4746,427.7357,698.0578,-376.5179,1039.1620
15980.0000,-252.8879,395.4507,430.1517,688.9040,-378.9084,1026.0583
16000.0000,-226.8046,412.6103,429.7878,701.0773,-351.4604,1033.2899
16020.0000,-238.1490,412.3365,431.1417,700.9318,-349.1589,1028.8807
16040.0000,-218.5872,423.7163,423.8886,695.0609,-347.4583,1007.3970
16060.0000,-213.3425,438.2326,436.1049,694.9305,-347.0090,1010.8868
16080.0000,-214.3258,436.7989,429.9157,693.0329,-358.3799,1002.3036
16100.0000,-207.6153,430.1362,423.9987,693.9407,-370.0597,997.0027
16120.0000,-189.1333,436.9135,425.0645,698.0167,-357.2664,999.4292
16140.0000,-160.8112,455.0056,427.9181,696.9568,-350.1329,999.8846
16160.0000,-173.8517,447.0646,423.0119,692.9855,-360.3366,978.3668
16180.0000,-156.0499,460.8897,429.8543,694.9973,-351.2397,981.9402
16200.0000,-153.6523,452.1755,422.1294,695.9775,-360.3335,962.1934
16220.0000,-158.2002,439.7353,428.8670,691.0333,-365.2538,951.9811
16240.0000,-156.4220,443.2878,424.1640,682.9427,-364.2914,943.1326
16260.0000,-160.4158,440.6439,425.7815,694.0585,-352.0851,931.0225
16280.0000,-150.2745,449.4095,431.2213,690.9009,-359.4893,913.0245
16300.0000,-141.6044,458.4734,426.7989,687.1091,-339.1273,908.2419
16320.0000,-129.0721,459.4899,430.2006,690.8633,-351.4006,893.9379
16340.0000,-120.7606,464.3661,427.7079,696.1522,-339.0901,900.3824
16360.0000,-109.8916,479.6170,430.2242,694.8184,-336.5400,900.9686
16380.0000,-106.9944,463.2966,424.7657,695.1870,-337.9507,898.4595
16400.0000,-111.7458,446.7719,425.3246,695.7875,-338.5401,897.7980
16420.0000,-109.0827,433.1292,424.7590,696.2330,-365.0997,878.5638
16440.0000,-105.5663,446.8895,421.2357,690.7420,-370.5931,873.5757
16460.0000,-100.2841,447.0016,425.6913,693.2545,-367.0283,877.6650
16480.0000,-97.4668,468.0391,428.2519,695.7059,-355.5150,887.5410
16500.0000,-83.3275,466.8907,428.7362,690.3041,-333.0013,900.8704
16520.0000,-88.3351,455.1046,428.2460,691.6677,-339.5645,900.4832
16540.0000,-57.5013,478.7997,430.7329,698.3392,-323.7421,921.0134
16560.0000,-92.2693,461.2216,430.2196,691.6313,-340.7049,898.3127
16580.0000,-89.5618,458.6937,429.6978,694.3752,-329.8386,902.1368
16600.0000,-64.1639,473.3409,425.2870,691.5999,-293.6194,911.0650
16620.0000,-72.6433,452.5973,426.7968,691.4132,-325.8324,888.1636
16640.0000,-73.1180,447.4197,425.2627,690.5657,-314.7177,889.0909
16660.0000,-63.6865,456.5325,428.8118,696.4413,-312.6377,896.2358
16680.0000,-58.0074,446.4799,430.1456,693.5358,-307.7456,892.8650
16700.0000,-69.7693,436.4379,424.8650,695.4532,-339.5650,873.2579
16720.0000,-62.9702,444.5894,420.1745,694.5264,-313.9221,906.8524
16740.0000,-47.7296,441.3287,426.8855,688.4504,-334.7121,886.4149
16760.0000,-40.0029,419.6798,426.1048,698.5107,-346.8393,869.8023
16780.0000,-31.7966,436.2801,426.9195,690.4740,-336.6547,872.6019
16800.0000,-28.9728,445.7479,424.0821,699.5071,-326.9272,872.5790
16820.0000,-33.7278,443.1829,428.9435,692.4949,-338.5917,850.6123
16840.0000,-9.0086,439.7901,427.0869,696.4821,-348.8813,849.6425
16860.0000,-4.7313,429.1299,426.9894,682.4852,-358.5298,794.6960
16880.0000,-2.0161,442.8486,431.0312,700.5135,-330.9239,790.5807
16900.0000,-5.7550,452.0940,429.0098,689.4668,-323.4426,780.6368
16920.0000,5.9278,460.8425,432.9847,699.5164,-305.0510,788.5153
16940.0000,0.2451,448.1131,426.0013,694.4611,-311.5946,777.5959
16960.0000,-1.0510,448.9150,429.9131,690.5275,-328.0889,772.3554
16980.0000,-0.6661,456.0850,431.0604,697.4388,-290.5368,754.7334
17000.0000,1.7965,440.8658,423.9206,691.5480,-318.0032,722.5212
17020.0000,4.3868,459.0840,426.0607,698.4276,-299.5235,722.6645
17040.0000,18.7197,456.9196,425.8805,690.5615,-303.0987,703.5324
17060.0000,24.4418,469.0564,423.0445,697.4011,-291.4046,695.7043
17080.0000,20.6464,449.8701,427.8473,692.5667,-291.9202,671.4759
17100.0000,21.5392,450.0911,425.1706,691.3925,-301.5020,620.5166
17120.0000,30.5583,480.8451,428.8808,691.6167,-289.0475,603.5073
17140.0000,31.6113,470.1283,425.1866,694.3597,-284.6268,581.4773
17160.0000,26.4440,465.8668,426.8801,688.6248,-305.9106,538.4012
17180.0000,18.7327,440.1124,426.1333,691.3386,-304.5967,521.3757
17200.0000,6.3610,449.7676,426.8696,688.6538,-309.8386,501.4732
17220.0000,47.8337,479.2330,425.2048,701.3194,-284.6635,525.4166
17240.0000,27.2696,442.7468,431.7749,694.6947,-306.9803,486.6058
17260.0000,36.9246,465.3029,427.1978,694.2704,-278.5326,486.3711
17280.0000,31.1838,476.6832,433.8773,693.7168,-276.9319,461.5318
17300.0000,32.0547,472.3316,426.1476,689.2379,-313.6247,440.3730
17320.0000,35.0216,470.6001,428.8488,695.7608,-291.8170,429.5243
17340.0000,62.2153,479.4495,425.2112,692.2291,-327.6795,405.1967
17360.0000,37.9643,468.5564,422.7714,693.7746,-329.9344,388.7324
17380.0000,40.2651,460.4760,421.1118,694.1831,-351.5957,361.2296
17400.0000,60.8003,473.4542,423.8319,692.7946,-344.8250,372.6480
17420.0000,62.4543,470.6058,434.1995,697.1483,-330.5733,378.1311
17440.0000,92.7264,479.3711,424.8940,692.8214,-316.7482,363.7151
17460.0000,95.5990,499.7162,429.1634,694.1346,-299.6794,352.1469
17480.0000,82.5458,486.2410,422.7982,695.8630,-314.7533,324.7552
17500.0000,58.6722,475.7655,419.0950,690.1151,-319.6622,311.0442
17520.0000,75.5047,473.1795,420.8221,690.8795,-313.8556,307.8498
17540.0000,85.7692,474.9130,431.1270,689.0905,-298.6333,292.0192
17560.0000,72.3400,474.1255,424.9279,696.8763,-312.7323,282.9774
17580.0000,93.9254,498.9538,427.1391,700.0928,-292.7354,287.8989
17600.0000,105.2622,504.0099,428.9142,691.9135,-281.7978,279.9484
17620.0000,104.0156,500.0675,429.1170,701.0905,-287.7115,273.9860
17640.0000,121.1872,515.9472,424.9502,702.9060,-256.7897,290.9939
17660.0000,114.0990,521.1785,431.0926,698.0670,-298.6823,275.8082
17680.0000,125.1081,527.8757,423.9071,699.9133,-278.7152,260.9846
17700.0000,67.1604,482.1964,424.0665,688.0580,-308.7766,207.7877
17720.0000,94.0109,513.8036,425.9058,691.9197,-303.6950,214.0249
17740.0000,85.2762,493.2534,425.1076,693.0629,-298.7106,212.8788
17760.0000,69.8574,491.6661,428.9541,689.9006,-315.7392,175.8405
17780.0000,86.3141,501.3169,423.0001,694.0784,-282.7040,194.9086
17800.0000,61.8149,482.5867,421.9406,687.8759,-306.7505,175.0213
17820.0000,67.3523,503.4169,427.0913,689.0865,-288.8468,158.7616
17840.0000,93.8293,516.6208,425.9176,700.8972,-277.5816,178.9107
17860.0000,80.4347,495.4719,422.9992,695.1051,-295.8694,151.8227
17880.0000,58.7658,472.5490,431.8803,688.8640,-310.6765,127.8532
17900.0000,63.4727,468.4694,428.0303,692.1290,-314.7250,125.8988
17920.0000,57.6937,475.5156,431.8731,693.8553,-321.6318,114.9791
17940.0000,66.4742,480.5208,425.1170,696.1413,-331.8270,115.9073
17960.0000,61.7169,473.5188,427.8841,689.8431,-335.6470,109.8756
17980.0000,61.4767,473.4964,425.1289,691.1542,-341.9241,94.8795
18000.0000,54.7094,467.4956,424.9492,687.8105,-357.5652,86.9886
18020.0000,65.3982,478.4725,421.0501,691.1696,-338.8816,99.7822
18040.0000,61.7418,464.4928,425.8658,692.7968,-361.7188,81.8789
18060.0000,66.4154,465.5053,429.1414,687.1918,-364.9710,84.8855
18080.0000,91.8190,484.5129,420.8170,691.7993,-333.6484,92.9018
18100.0000,91.3302,477.5088,427.1730,692.2155,-323.7643,93.8801
18120.0000,82.8543,497.4985,424.8903,685.7709,-326.6176,88.8183
18140.0000,74.2745,487.4419,429.1827,687.2291,-324.8826,84.8938
18160.0000,70.9262,488.5148,423.8105,686.7594,-324.6272,80.8522
18180.0000,63.2403,489.4598,422.1953,687.2460,-323.8152,80.7951
18200.0000,62.9612,479.5482,426.8199,686.7440,-341.4786,59.8313
18220.0000,48.0797,474.3812,426.2032,689.2444,-347.9566,60.7664
18240.0000,62.1020,478.6617,423.7457,691.7349,-323.4651,84.9764
18260.0000,58.0421,485.3114,430.2146,692.2761,-342.0816,58.9021
18280.0000,59.2263,462.6662,426.7527,690.7190,-368.5992,57.8346
18300.0000,58.8890,470.2238,429.3142,692.2864,-351.9811,60.7134
18320.0000,48.3129,467.8027,425.6627,689.7040,-361.5349,57.8678
18340.0000,55.7754,481.1290,427.3661,688.2634,-341.0732,59.6499
18360.0000,35.4780,468.8420,430.6487,691.7137,-362.3572,41.9814
18380.0000,53.6313,472.1204,428.3446,683.2914,-365.2321,54.7115
18400.0000,50.5835,490.9763,427.5674,689.6976,-333.3786,65.0898
18420.0000,31.5004,487.9998,429.4371,689.2745,-349.2890,55.6899
18440.0000,40.7394,482.0648,430.5663,689.6970,-350.4029,60.0461
18460.0000,58.3293,497.9407,433.4571,693.2719,-331.1631,82.5939
18480.0000,63.8304,508.1733,433.5644,691.7131,-323.1569,91.1447
18500.0000,59.1555,507.8045,427.5368,697.2626,-334.2964,91.5280
18520.0000,88.0524,544.2581,427.4369,699.7190,-293.0444,128.1759
18540.0000,70.9978,523.6643,426.5302,697.2516,-294.4811,123.5325
18560.0000,73.1416,525.3914,431.3654,702.7194,-279.1633,129.2683
18580.0000,59.9103,520.6299,432.5411,697.2423,-316.4789,119.3923
18600.0000,49.2815,515.4579,434.3572,696.7215,-327.9653,112.3907
18620.0000,61.7850,544.4831,431.6559,697.2262,-310.6383,128.3115
18640.0000,63.4245,532.5569,436.2960,688.7458,-321.9694,124.5067
18660.0000,39.5793,522.3855,430.6485,693.2068,-354.5849,119.2620
18680.0000,35.5389,516.7087,426.3139,697.7724,-347.7284,132.5602
18700.0000,33.4883,497.2845,428.7067,693.1803,-347.6630,123.2737
18720.0000,5.6976,508.8324,432.2316,691.8183,-350.7134,120.5800
18740.0000,32.3258,505.1580,431.7936,698.1560,-337.8914,139.1459
18760.0000,33.7496,520.9612,429.1447,703.8387,-323.6612,155.7769
18780.0000,-7.6449,502.0490,427.8624,696.1437,-361.8747,121.1291
18800.0000,-6.0138,497.0199,429.0977,690.8703,-381.6704,122.7567
18820.0000,-34.8006,486.9241,426.8562,689.0938,-393.0905,104.1309
18840.0000,-47.9613,485.1088,427.0647,691.9072,-401.5316,101.7824
18860.0000,-38.9033,501.8576,431.9283,693.0637,-375.1888,127.1781
18880.0000,-60.9332,477.2102,431.0002,689.9244,-397.5121,117.7543
18900.0000,-82.9519,477.7253,433.9578,685.0346,-403.1090,117.1275
18920.0000,-120.8727,473.2591,433.9987,688.9459,-424.4225,96.9557
18940.0000,-121.9776,475.6784,432.9438,691.0206,-431.2213,109.9646
18960.0000,-154.8140,454.3514,426.0089,690.9865,-439.2792,105.9634
18980.0000,-150.0309,471.5730,434.0335,685.9908,-429.2828,108.9409
19000.0000,-168.8183,479.3921,422.9340,688.9937,-426.3358,102.8877
19020.0000,-196.1095,449.5460,427.0495,691.9812,-431.2591,90.9974
19040.0000,-186.8412,466.4780,427.9334,690.0232,-438.3722,108.7999
19060.0000,-200.0528,482.4787,425.0910,694.9514,-413.2783,116.1530
19080.0000,-227.8584,468.4712,425.9156,690.0406,-414.2751,97.7248
19100.0000,-218.0722,491.4754,422.0739,689.9294,-397.2634,109.0559
19120.0000,-233.8535,474.4941,430.8063,691.0643,-403.3430,103.7983
19140.0000,-251.0519,458.4966,429.1123,691.9307,-403.1457,104.2336
19160.0000,-271.9143,469.5122,429.8499,693.0574,-398.3443,109.6422
19180.0000,-267.0165,478.5099,426.2092,693.9061,-396.0798,108.2014
19200.0000,-289.0623,468.4570,431.8216,693.0622,-392.5074,93.6074
19220.0000,-313.8903,447.5544,427.1555,687.8953,-417.0352,73.4005
19240.0000,-306.1290,460.4356,427.8368,691.0745,-412.5481,75.5258
19260.0000,-342.8869,438.5792,429.1509,684.9084,-443.0224,66.5658
19280.0000,-341.2481,442.3587,428.7666,690.0629,-437.6516,64.3858
19300.0000,-343.7662,437.6091,424.1256,686.9311,-445.9657,94.6674
19320.0000,-352.3069,440.3007,429.8162,685.0409,-457.7499,87.3223
19340.0000,-333.6700,455.7238,430.2056,695.9536,-423.6630,104.8207
19360.0000,-331.4025,460.2103,430.7575,688.0104,-432.9186,103.1089
19380.0000,-315.5014,463.8156,428.2117,691.9828,-430.5088,127.0486
19400.0000,-317.5122,459.0666,432.8697,693.9952,-407.2311,140.9345
19420.0000,-308.3839,502.9096,431.1260,705.0092,-403.3709,154.1594
19440.0000,-329.6194,456.9789,430.7758,689.9678,-439.4091,139.7670
19460.0000,-318.2493,475.0507,429.1263,702.0231,-424.2274,151.2578
19480.0000,-303.8134,492.8092,426.8170,688.9246,-443.5533,150.6321
19500.0000,-335.1913,475.1924,430.1563,685.0658,-454.0629,130.3910
19520.0000,-332.9334,477.7186,423.9175,695.8987,-461.7264,126.3740
19540.0000,-343.0511,461.3546,427.0920,690.1122,-449.6930,129.5223
19560.0000,-343.9888,464.5329,427.9167,691.8619,-456.8745,122.3560
19580.0000,-330.9434,489.4945,436.0674,693.1460,-452.5656,128.8466
19600.0000,-355.1390,461.3541,425.9639,685.8019,-477.0380,120.1679
19620.0000,-375.8467,454.7113,431.0022,681.2011,-495.3245,95.9004
19640.0000,-373.2833,452.1841,433.9524,686.7627,-495.4235,110.0380
19660.0000,-349.7332,469.8123,423.9456,686.2542,-466.1994,138.0907
19680.0000,-330.2978,495.0370,428.0327,691.7185,-416.4699,160.9863
19700.0000,-347.6290,480.9656,433.9590,690.3007,-423.9338,144.1155
19720.0000,-359.4558,472.8939,427.0251,687.6415,-450.6136,132.9150
19740.0000,-354.5564,475.2011,425.9582,691.3561,-445.9095,129.2863
19760.0000,-349.4729,475.7277,434.0927,689.6074,-449.9021,133.8662
19780.0000,-352.4781,477.3436,424.8548,690.3948,-445.7714,126.2708
19800.0000,-351.5387,478.5778,433.2080,689.5673,-432.0390,125.6673
19820.0000,-359.4311,472.5155,431.8184,688.4207,-436.6756,127.3163
19840.0000,-353.6017,469.4108,428.2356,694.5308,-434.1161,147.7073
19860.0000,-364.3829,470.6068,432.6983,690.4736,-442.5005,125.2776
19880.0000,-354.6790,475.2869,430.2795,686.4993,-451.0665,118.7288
19900.0000,-358.4000,459.7366,431.7070,689.4994,-468.5389,100.1241
19920.0000,-355.6728,470.1796,430.3367,693.4545,-435.1257,127.7473
19940.0000,-365.3884,481.8361,426.6172,686.5377,-434.5179,123.1548
19960.0000,-339.6465,498.0679,432.3861,687.4180,-412.1085,150.9040
19980.0000,-336.3292,484.9326,430.5315,685.5535,-451.4119,137.1544
20000.0000,-313.6227,508.9693,425.4298,691.4269,-426.1189,161.0139
20020.0000,-322.4130,480.0311,431.5233,687.5823,-452.5522,145.0041
20040.0000,-320.5869,458.8643,432.5053,690.4092,-444.0171,148.0918
20060.0000,-291.3679,490.1327,430.4135,692.5972,-423.4661,165.8895
20080.0000,-285.6026,498.8872,435.6045,694.3991,-402.0777,162.3345
20100.0000,-288.4294,490.1800,428.3675,691.5936,-429.7034,148.5674
20120.0000,-284.5031,488.8148,430.6336,687.3813,-430.8849,135.5609
20140.0000,-264.4975,487.1932,424.3336,688.5693,-420.8623,145.5030
20160.0000,-285.4863,479.7816,424.7263,693.3990,-437.7537,130.6601
20180.0000,-294.6042,458.1866,427.3181,683.5822,-444.9190,125.2743
20200.0000,-270.3600,487.7568,428.7566,696.4034,-424.6509,148.8481
20220.0000,-273.6588,472.1762,429.2537,691.5588,-415.0733,148.9366
20240.0000,-309.3381,460.8145,430.7969,681.4415,-447.4692,104.1553
20260.0000,-295.7216,462.1142,435.1647,685.5240,-454.2958,93.7620
20280.0000,-304.2572,445.8203,428.8609,681.4681,-480.1343,82.3471
20300.0000,-272.7843,486.0999,435.1139,688.4844,-424.5029,109.4298
20320.0000,-257.1320,499.8710,437.9141,683.4893,-408.8520,95.6795
20340.0000,-281.8966,476.0840,429.1025,681.4564,-446.8933,68.3155
20360.0000,-272.0053,476.9323,424.9787,683.5287,-453.7539,75.9307
20380.0000,-259.0476,482.9787,429.0577,683.4309,-432.0191,93.9944
20400.0000,-272.8604,481.9842,427.9476,685.5827,-427.4077,71.0814
20420.0000,-256.0939,486.9331,429.0134,686.3781,-433.3818,69.6295
20440.0000,-246.8289,485.0699,427.9917,689.6224,-412.0223,68.4777
20460.0000,-254.1667,484.7915,436.9263,681.3316,-418.5086,58.3582
20480.0000,-236.6641,503.1933,428.0311,689.6687,-400.7906,64.6392
20500.0000,-244.2716,475.7649,435.9500,693.2798,-411.7508,60.1607
20520.0000,-242.6008,481.3177,430.0596,683.7022,-413.6765,36.9010
20540.0000,-243.4047,485.6162,429.8289,681.2419,-423.1907,32.9658
20560.0000,-223.4971,492.4180,426.1204,685.7637,-393.2562,59.1837
20580.0000,-208.4590,528.5220,430.8438,694.1938,-351.3099,63.7936
20600.0000,-202.3774,488.4929,433.1714,683.7955,-374.1682,63.2705
20620.0000,-216.5187,483.4254,428.8229,685.1472,-393.6164,39.5008
20640.0000,-214.2826,519.6816,430.1675,686.8622,-368.9132,67.5361
20660.0000,-176.6615,527.2693,427.7354,696.1168,-319.7285,96.3078
20680.0000,-185.2041,503.7430,431.2527,688.8904,-347.6711,76.6867
20700.0000,-210.7165,486.2091,426.7688,685.0594,-371.8679,45.3018
20720.0000,-198.1015,493.8853,429.2966,684.9302,-381.4746,58.8468
20740.0000,-175.7501,527.0549,431.6487,690.0266,-353.1750,70.0893
20760.0000,-162.0253,511.9398,432.2504,690.9761,-352.4065,59.9741
20780.0000,-176.8697,501.9633,427.6426,684.9913,-361.1957,56.9237
20800.0000,-172.9954,494.0882,429.3538,685.9979,-373.3371,26.9670
20820.0000,-147.8561,498.8627,433.6931,683.9575,-378.4002,61.9535
20840.0000,-143.9344,516.1653,433.3626,697.0101,-343.2145,67.0556
20860.0000,-113.9236,541.7878,428.6367,692.9376,-309.4101,110.9310
20880.0000,-141.8654,513.2425,433.3895,690.0416,-349.0847,60.1363
20900.0000,-135.9539,502.7325,424.6331,688.9225,-339.4791,66.8071
20920.0000,-125.8002,513.3181,433.4199,689.0505,-340.0682,94.0398
20940.0000,-140.0052,484.6411,424.6009,686.9274,-357.4520,56.8155
20960.0000,-111.7582,515.3614,430.4104,684.0544,-353.0125,90.9477
20980.0000,-104.0369,525.6044,435.5659,694.9152,-331.3490,88.9037
21000.0000,-118.7280,501.4402,434.5288,687.0831,-352.1574,88.0489
21020.0000,-111.0754,503.4756,430.5093,688.8964,-352.3636,89.9723
21040.0000,-116.6902,523.5574,432.4533,688.0644,-348.2570,68.9960
21060.0000,-118.0995,525.4875,433.5183,685.9056,-318.3192,85.1367
21080.0000,-90.6639,539.5759,429.5630,689.0671,-315.2468,96.8856
21100.0000,-111.1086,508.4306,433.4846,687.8916,-335.3271,92.1680
21120.0000,-127.6972,489.5805,423.5163,682.0752,-362.2533,65.7433
21140.0000,-93.0740,542.3849,429.3576,688.9044,-327.1092,95.3391
21160.0000,-125.6865,518.6264,428.5786,685.0593,-334.5282,81.5613
21180.0000,-127.1273,509.3160,428.3894,683.9131,-362.9250,68.2962
21200.0000,-85.6682,510.6577,421.5930,690.0469,-347.6075,102.4727
21220.0000,-118.0953,481.3176,433.3885,680.9403,-383.8178,81.4994
21240.0000,-95.6699,510.6677,431.6794,685.0229,-352.8026,100.2948
21260.0000,-76.0506,549.2970,422.2462,691.9756,-302.7678,129.6228
21280.0000,-91.7339,546.6581,429.7267,689.0034,-313.9386,116.2952
21300.0000,-92.0512,522.3372,435.3092,687.9707,-332.4012,106.6892
21320.0000,-90.7116,551.7169,435.7242,685.9890,-314.1224,118.1910
21340.0000,-85.0294,529.2961,428.2616,687.9916,-314.2498,117.8469
21360.0000,-88.7294,526.6387,430.7262,683.9532,-321.3336,98.8533
21380.0000,-87.0079,535.3161,431.1522,687.0356,-322.1791,124.1084
21400.0000,-81.7505,526.6312,428.7717,689.9446,-322.3848,122.8262
21420.0000,-77.9528,542.3684,433.2273,688.0345,-313.0010,122.2007
21440.0000,-66.8118,520.6805,426.8114,688.9161,-306.5693,146.7917
21460.0000,-87.9010,502.3764,433.1985,680.0599,-367.8452,110.2748
21480.0000,-77.8851,499.6204,428.8248,689.9017,-336.7907,126.6608
21500.0000,-61.8458,530.3980,427.0890,690.0878,-335.6590,138.3657
21520.0000,-61.9129,503.5366,429.9062,687.8691,-351.0003,125.5237
21540.0000,-63.8083,509.4049,427.0628,688.0915,-347.3186,122.5444
21560.0000,-50.9260,541.5268,422.9148,690.8757,-301.1922,138.2944
21580.0000,-22.7734,557.5205,427.0378,694.1145,-260.1201,154.7018
21600.0000,-52.9882,529.4613,430.8923,691.8705,-298.2956,136.3658
21620.0000,-58.7223,531.5486,424.0939,693.1183,-307.9756,119.6467
21640.0000,-42.0913,546.4039,432.8981,690.8557,-295.6039,126.2806
21660.0000,-24.6924,543.5439,430.9792,690.1337,-271.8673,131.7536
21680.0000,-53.0951,537.4122,435.0190,693.8397,-277.5524,120.1039
21700.0000,-80.6087,495.6185,433.0672,685.1331,-326.7490,80.7415
21720.0000,-84.1480,503.2807,430.0041,686.8506,-341.6914,82.0887
21740.0000,-56.5738,513.6942,430.9517,689.1288,-299.6769,97.7015
21760.0000,-60.1908,509.2267,428.0224,683.8338,-310.8952,93.1115
21780.0000,-65.5519,498.7425,426.0352,690.1320,-329.5909,86.8839
21800.0000,-60.2320,514.2207,424.9846,681.8580,-321.0762,101.0838
21820.0000,-62.5421,512.8048,422.9949,690.1210,-303.4318,94.8271
21840.0000,-59.2974,507.1118,430.0123,686.8711,-309.0915,92.1261
21860.0000,-63.4724,509.8744,433.9908,689.1050,-309.5020,84.7849
21880.0000,-67.3104,512.0137,428.9532,691.8876,-333.0514,85.2205
21900.0000,-56.4338,510.9818,428.0354,687.1027,-327.4284,92.6952
21920.0000,-69.3431,493.9888,429.9916,689.8968,-336.1530,74.2654
21940.0000,-57.4657,522.0466,426.0638,693.0611,-295.3897,93.6493
21960.0000,-57.3625,520.8769,429.9725,693.9194,-291.2356,99.2579
21980.0000,-70.4170,530.0997,430.0627,685.0411,-338.3569,91.5175
22000.0000,-52.3990,532.8008,429.9462,698.9478,-298.2659,125.4878
22020.0000,-79.4034,516.2043,440.0339,686.0250,-313.3482,104.5024
22040.0000,-62.4094,514.6877,432.8420,689.9720,-335.3009,93.5248
22060.0000,-79.3954,517.3123,429.0695,692.9832,-330.2591,117.2559
22080.0000,-78.4427,512.6268,429.8869,691.0081,-327.1667,120.6011
22100.0000,-88.4080,510.3653,429.1050,689.9634,-330.2784,111.2301
22120.0000,-91.4142,515.5492,421.7782,689.0236,-328.2317,107.8518
22140.0000,-93.3924,510.4572,426.2200,691.9504,-342.3777,118.0576
22160.0000,-90.4594,503.4315,430.7445,687.0672,-337.1767,122.8760
22180.0000,-98.3744,491.5793,426.2624,690.9125,-369.3904,114.0596
22200.0000,-94.4929,502.3077,426.7213,686.0934,-362.1008,115.0366
22220.0000,-88.3913,507.6418,429.2358,683.8636,-368.5823,106.7852
22240.0000,-93.4513,503.2433,429.7122,692.1332,-355.0199,113.1046
22260.0000,-94.3559,508.7471,435.3662,689.8436,-352.6750,120.7551
22280.0000,-96.4320,509.1689,428.6054,687.1599,-359.9742,114.2390
22300.0000,-91.3793,502.8299,427.3540,679.8062,-354.7382,119.6239
22320.0000,-88.4524,511.0495,423.5189,693.1666,-350.8936,121.2868
22340.0000,-94.3683,491.9321,435.4818,682.8019,-375.8900,105.6259
22360.0000,-91.4306,510.9624,427.5534,684.1870,-351.6677,143.4465
22380.0000,-72.3771,504.9939,425.4835,692.7638,-365.0239,136.3758
22400.0000,-90.4706,500.9128,430.4196,687.2225,-377.6487,148.4307
22420.0000,-96.3777,505.0749,432.5559,693.7564,-339.9202,177.3434
22440.0000,-85.4851,500.8282,433.4018,686.2241,-355.4086,164.6381
22460.0000,-66.3281,529.1994,436.5952,702.7559,-347.0257,187.2897
22480.0000,-58.4368,543.7587,440.3576,696.2360,-328.3431,210.6544
22500.0000,-83.3209,522.3153,430.6895,693.7515,-347.1327,189.2639
22520.0000,-98.4695,494.6634,426.2638,685.2178,-384.3652,166.7939
22540.0000,-95.3978,525.3027,430.7477,691.7716,-358.4207,200.2440
22560.0000,-75.5225,520.6124,427.2578,693.2067,-353.1339,201.7524
22580.0000,-68.3289,524.4144,423.7914,691.7819,-360.4931,207.1715
22600.0000,-87.5422,504.4987,432.1093,689.1929,-386.1487,189.6974
22620.0000,-63.3120,521.4785,426.8904,693.7873,-357.5109,222.2963
22640.0000,-78.5452,535.5121,426.0898,692.1941,-354.0507,216.8460
22660.0000,-92.2872,502.4685,435.9483,685.8116,-368.5651,211.2829
22680.0000,-89.5163,519.4301,429.0768,690.1554,-356.8108,216.8217
22700.0000,-98.3038,508.5233,428.9825,686.8489,-384.6410,204.1714
22720.0000,-117.5603,487.3649,438.0316,688.1068,-379.7475,207.5968
22740.0000,-115.2742,492.5779,422.0151,687.8655,-366.7509,216.2653
22760.0000,-112.6010,501.3276,434.9445,690.0802,-365.8644,214.6841
22780.0000,-99.2126,498.6280,422.0599,689.9214,-358.9112,233.4896
22800.0000,-111.6651,513.3342,432.9146,692.0493,-349.7984,217.4757
22820.0000,-114.2486,498.6163,428.0636,686.9758,-360.9528,213.5490
22840.0000,-112.6557,493.3357,427.8469,692.0023,-359.6023,231.4923
22860.0000,-116.1520,510.6337,436.1696,688.0022,-334.9177,237.5431
22880.0000,-120.6668,496.3560,424.8918,686.9445,-356.4902,215.4669
22900.0000,-105.1512,508.5782,435.1465,695.0778,-359.0582,237.6569
22920.0000,-93.7284,503.3997,427.7858,686.8875,-357.5567,244.3584
22940.0000,-99.0866,496.6022,426.1729,687.1354,-374.0154,240.8219
22960.0000,-90.7787,491.4171,431.7338,682.8358,-381.6379,245.2743
22980.0000,-91.0809,493.5642,425.2599,689.1754,-354.9571,258.9203
23000.0000,-75.8287,489.4704,429.7239,688.7612,-370.4477,263.1258
23020.0000,-89.0478,485.4482,431.2469,688.2227,-370.9734,249.0312
23040.0000,-83.8218,502.5012,428.7669,688.7095,-355.5271,270.9771
23060.0000,-94.0222,484.4286,429.2763,687.2966,-366.1638,252.2033
23080.0000,-98.8191,491.5893,425.7117,679.6550,-387.5289,244.9256
23100.0000,-96.9916,488.2955,428.2364,686.3389,-379.1109,257.2201
23120.0000,-86.8271,521.7334,431.6664,683.6061,-359.4551,267.6805
23140.0000,-89.0046,526.2417,439.2381,691.3891,-352.1435,259.3828
23160.0000,-86.8347,523.8062,437.7415,689.5722,-347.4047,265.5212
23180.0000,-60.0172,539.1774,438.3101,688.4076,-345.1369,270.5140
23200.0000,-68.8788,532.9220,431.6542,689.5370,-345.4202,272.5709
23220.0000,-79.9934,529.0278,434.3359,688.4396,-335.0535,277.5608
23240.0000,-71.8548,536.0236,435.7478,692.4988,-329.4319,277.3694
23260.0000,-68.0126,536.8969,429.3061,686.4803,-329.1424,282.7538
23280.0000,-59.8329,549.1158,428.7306,694.4916,-310.5636,294.2372
23300.0000,-58.0397,555.8405,430.2407,689.4867,-311.1613,311.8470
23320.0000,-58.7620,553.2629,420.6632,696.4679,-313.4169,322.3462
23340.0000,-64.0364,540.6943,426.2592,694.4952,-324.1131,305.7837
23360.0000,-74.7444,533.3832,431.6615,698.4785,-327.4342,304.1128
23380.0000,-65.1117,540.5855,423.2114,692.5122,-323.0142,299.9283
23400.0000,-65.6869,552.4736,427.6956,695.4922,-311.4229,322.2305
23420.0000,-84.1679,541.4912,426.2429,689.4798,-325.0121,303.8496
23440.0000,-75.7001,532.5894,431.6817,689.4992,-351.5247,303.1968
23460.0000,-80.1908,529.3682,429.2718,687.4745,-342.1074,313.9033
23480.0000,-66.6300,535.6987,432.7500,695.5385,-303.5092,323.1711
23500.0000,-68.2467,546.2679,429.2565,696.4431,-309.0261,327.0040
23520.0000,-58.5233,563.7803,432.7636,694.5665,-294.5151,337.0339
23540.0000,-59.2889,552.1822,429.2381,690.3918,-298.0743,331.1085
23560.0000,-59.5113,552.8752,431.7311,700.6202,-296.4589,340.0862
23580.0000,-59.3665,566.0908,436.2356,696.3576,-303.1345,339.0688
23600.0000,-29.3961,576.9908,426.8401,701.6462,-291.4059,347.0344
23620.0000,-43.4911,569.0186,437.1478,695.2959,-283.2115,352.1354
23640.0000,-45.3539,576.0245,424.8783,692.7031,-270.3547,350.0978
23660.0000,-28.4958,601.9331,431.1562,701.2465,-265.2404,362.1371
23680.0000,-57.2895,572.0391,424.9055,690.7792,-289.4227,356.0228
23700.0000,-34.5953,577.9421,425.1596,694.1651,-297.2553,351.0998
23720.0000,-29.2004,590.0973,430.9043,698.8441,-264.4140,356.0474
23740.0000,-26.6049,584.8743,423.0201,698.0887,-266.1442,350.0490
23760.0000,-34.1185,570.1232,424.9760,692.9097,-303.4140,314.0096
23780.0000,-47.6988,552.8311,428.0127,696.0284,-297.2887,315.9096
23800.0000,-51.0368,539.1331,427.9395,687.9818,-303.4090,314.0468
23820.0000,-40.7532,560.9026,420.0199,692.9309,-285.2328,326.9081
23840.0000,-62.9752,557.1506,422.9502,689.0649,-308.2300,315.0955
23860.0000,-44.8402,576.8978,426.9951,690.8709,-310.2200,327.9001
23880.0000,-33.9224,564.0833,426.0345,696.1619,-307.3482,348.2216
23900.0000,-32.9026,567.9090,424.9612,694.7912,-302.3386,359.9231
23920.0000,-32.8980,573.0673,433.0958,695.2297,-293.3147,363.1742
23940.0000,-29.9755,590.9533,430.8768,692.7050,-281.2917,375.8130
23960.0000,-11.8303,588.9882,429.1716,701.3105,-255.4075,387.3099
23980.0000,-32.0383,578.0372,431.7606,696.6353,-281.2890,379.8553
24000.0000,-42.7875,555.9650,432.1497,694.3581,-289.3910,369.3845
24020.0000,-36.0215,577.0820,428.7825,696.5726,-279.2872,376.7595
24040.0000,-34.7762,565.9329,433.2556,695.4267,-273.4169,385.3414
24060.0000,-26.0832,564.1838,422.6497,698.5240,-276.2002,391.6311
24080.0000,-33.6901,544.8286,436.3485,695.4844,-294.4738,379.4506
24100.0000,-31.1051,561.2521,429.6117,703.4733,-282.1059,391.5921
24120.0000,-44.6980,549.7374,424.3587,689.5244,-318.3899,374.3855
24140.0000,-34.1135,555.3170,425.5780,693.4149,-303.1211,377.6697
24160.0000,-29.7017,570.6820,426.3988,698.5687,-283.3524,406.4687
24180.0000,-32.1908,548.3669,427.5158,691.3979,-297.1587,379.7021
24200.0000,-32.6561,565.6334,435.4601,696.6190,-306.3925,388.5294
24220.0000,-37.1979,563.4523,431.4370,694.3586,-281.1317,395.6031
24240.0000,-28.6288,603.5151,429.5489,697.6174,-280.5625,394.4677
24260.0000,-25.2093,587.4775,434.4265,704.3499,-253.0316,407.6366
24280.0000,-29.6647,591.4348,432.5228,693.6359,-251.4297,411.6456
24300.0000,-50.1761,566.5882,430.3997,689.3239,-270.9768,385.5603
24320.0000,-36.6696,585.4347,424.6234,696.6618,-264.6376,403.4850
24340.0000,-37.2006,551.6277,433.3864,695.3351,-270.9214,392.5101
24360.0000,-37.6470,542.3594,433.6767,694.6438,-287.7050,389.5955
24380.0000,-56.1968,540.6995,438.2540,699.3416,-312.9595,377.6059
24400.0000,-32.6579,566.2692,427.7538,692.6486,-291.6849,387.5532
24420.0000,-42.1692,565.7309,436.2266,691.3616,-314.9030,379.6515
24440.0000,-46.6862,530.2504,427.7937,691.6215,-333.8129,373.4612
24460.0000,-28.1432,530.7438,437.2411,697.3690,-323.8530,379.6640
24480.0000,-34.7033,556.2300,433.7963,696.5964,-308.6422,373.4532
24500.0000,-29.0849,546.8250,437.2040,694.4111,-337.8390,348.6498
24520.0000,-17.7352,551.1458,436.8718,699.5511,-293.7752,330.5438
24540.0000,-34.0493,524.7825,433.1935,699.4549,-307.7797,298.6331
24560.0000,-64.7124,498.1589,431.8756,691.5150,-316.8196,268.4435
24580.0000,-56.0868,523.8447,430.1232,698.4904,-322.6536,268.6309
24600.0000,-59.7572,514.1201,429.9137,698.4581,-310.9315,255.3438
24620.0000,-40.0233,517.8459,428.1140,698.5403,-309.6867,254.5701
24640.0000,-58.8319,511.1117,429.9312,696.4231,-335.9465,211.4026
24660.0000,-52.9476,548.8416,426.1111,702.5903,-310.7649,223.7623
24680.0000,-41.8876,556.1786,426.9032,701.3712,-331.8012,212.3864
24700.0000,-44.9124,551.8567,433.1151,698.6521,-315.5490,224.8763
24720.0000,-39.9230,552.1414,431.9427,700.3049,-318.0161,224.4011
24740.0000,-41.8820,547.8241,431.0048,703.7164,-288.5624,223.9074
24760.0000,-28.9386,554.1195,430.8912,706.2272,-282.9527,221.3013
24780.0000,-56.8065,525.8464,428.0807,702.7693,-313.5378,214.9698
24800.0000,-57.9894,519.1654,428.9009,707.1732,-290.8624,217.1658
24820.0000,-57.7934,520.8611,423.0529,707.8335,-278.6694,231.9813
24840.0000,-58.0529,524.1467,424.9190,708.1168,-268.9576,229.1637
24860.0000,-42.6831,555.8798,422.0072,707.8981,-279.5406,225.9055
24880.0000,-44.0976,554.1165,432.8634,709.0594,-293.9540,216.0483
24900.0000,-35.6130,568.8450,426.1139,706.9540,-279.5338,225.1380
24920.0000,-47.2300,564.1584,429.9249,704.9996,-302.9489,224.1651
24940.0000,-38.5961,555.8837,428.1215,706.0096,-313.5019,225.2009
24960.0000,-60.2757,533.1442,431.8933,708.9333,-331.0257,206.9540
24980.0000,-74.5119,528.8583,428.1429,695.0908,-322.4755,184.2110
25000.0000,-61.3957,550.1336,430.8199,707.8638,-292.8965,213.0273
25020.0000,-69.4465,539.8652,431.0890,704.1490,-316.5497,188.1429
25040.0000,-70.4081,547.1110,430.7933,702.8024,-295.9687,209.9211
25060.0000,-59.3051,549.9311,430.1838,709.2057,-288.4819,215.3570
25080.0000,-60.5072,560.0451,423.7452,708.7617,-269.0174,233.9673
25100.0000,-77.2550,546.9545,434.1927,708.2521,-277.5118,223.3770
25120.0000,-76.6122,536.0641,430.7249,702.7000,-304.0900,204.9335
25140.0000,-71.1356,531.9719,428.2631,702.2919,-302.4917,210.3448
25160.0000,-75.7292,514.9871,426.7133,703.6568,-292.9336,209.7980
25180.0000,-59.0511,544.9870,434.2647,707.3412,-264.5471,217.3320
25200.0000,-55.7540,541.9754,427.7285,708.6188,-281.1101,216.7179
25220.0000,-34.9856,555.0711,434.3044,709.3965,-308.3874,211.4362
25240.0000,-3.8023,563.9136,426.6342,704.5822,-304.1294,244.6825
25260.0000,-26.9421,572.1148,433.4085,712.4221,-278.5643,239.4322
25280.0000,-35.9319,564.8856,432.5588,707.5383,-286.1670,224.8650
25300.0000,-28.8858,573.1902,428.4207,707.4508,-258.3922,242.4937
25320.0000,-38.9701,559.7792,426.5552,710.5018,-253.0716,230.8045
25340.0000,-30.8432,565.2454,433.4905,714.4915,-247.4271,240.4350
25360.0000,-43.0529,556.7332,429.5551,712.4918,-255.0531,227.7621
25380.0000,-38.7641,567.2699,427.4525,709.5104,-243.4698,230.4062
25400.0000,-49.0672,561.7412,435.4734,712.4692,-239.0693,222.8913
25420.0000,-67.7152,529.2839,430.5403,704.5236,-264.5067,203.4093
25440.0000,-34.1341,569.6820,430.3990,709.4628,-248.0546,224.9964
25460.0000,-50.6726,567.3667,430.5823,709.5450,-229.4256,213.3636
25480.0000,-69.1961,560.6348,430.3552,708.4460,-244.1006,185.0401
25500.0000,-58.6229,561.3830,429.5758,715.5347,-230.5339,209.1995
25520.0000,-57.2178,552.6228,433.3525,709.4445,-226.1161,191.0509
25540.0000,-67.6260,541.3996,431.6046,703.5517,-240.4029,176.2304
25560.0000,-62.2296,560.5909,433.3085,711.4193,-201.1221,190.1241
25580.0000,-65.6031,535.4076,437.7307,703.5544,-232.5167,166.1180
25600.0000,-66.1799,553.5401,438.2892,703.4230,-231.1511,159.1949
25620.0000,-61.6587,557.3952,430.7579,712.5569,-188.4617,170.9034
25640.0000,-59.1707,575.5923,441.1708,711.4182,-169.9915,179.3304
25660.0000,-69.6332,551.3917,430.8015,705.5684,-196.3554,147.7095
25680.0000,-79.2070,532.5889,430.1332,707.4274,-221.9300,147.4070
25700.0000,-82.6248,541.4124,432.8329,707.5419,-206.4625,140.6224
25720.0000,-61.1447,547.5456,431.1418,709.4475,-187.9370,152.6552
25740.0000,-65.6758,559.4110,429.8366,708.5385,-208.4634,148.4362
25760.0000,-62.1477,556.5978,431.0965,711.4427,-205.8868,143.8307
25780.0000,-64.7575,552.3284,424.9674,710.5392,-208.4890,120.3016
25800.0000,-67.0767,531.6623,431.0582,712.4642,-215.9390,121.9523
25820.0000,-63.7700,551.2527,437.9893,711.5030,-216.6302,120.1465
25840.0000,-67.9876,537.7210,431.0180,702.4686,-234.9893,91.0722
25860.0000,-86.8648,535.2259,431.0108,703.4949,-240.5521,77.1108
25880.0000,-84.9060,547.7479,427.9401,704.4966,-223.9861,75.3197
25900.0000,-71.9603,535.1539,435.0220,710.4991,-231.6039,77.7664
25920.0000,-68.8866,542.8339,429.8912,706.4915,-231.8505,76.5211
25940.0000,-72.0438,537.0504,431.0759,703.4648,-265.6281,55.7446
25960.0000,-92.8031,535.9620,430.9115,710.5067,-259.8724,59.7426
25980.0000,-86.1378,542.9745,425.1433,711.4460,-212.6134,60.4916
26000.0000,-94.7274,572.0289,428.8947,713.5402,-247.7774,28.8652
26020.0000,-81.2358,581.9462,437.0973,713.4442,-229.7484,37.4687
26040.0000,-72.5657,562.1708,426.8779,711.5432,-234.7975,38.0161
26060.0000,-79.3175,573.7769,432.0968,708.4218,-262.8880,24.2541
26080.0000,-87.5366,564.2477,431.7639,712.5675,-238.7060,23.0443
26100.0000,-90.3650,564.7348,427.2120,711.3975,-239.9025,-0.9989
26120.0000,-87.4362,565.3928,431.7442,704.5905,-243.7095,-26.6485
26140.0000,-92.4856,547.5411,422.2125,707.3853,-248.9299,-29.9179
26160.0000,-94.3342,555.4665,428.8062,707.5995,-262.7407,-66.3347
26180.0000,-102.5642,556.4428,427.2650,706.3655,-249.8302,-71.8772
26200.0000,-101.1772,557.5563,426.7920,705.5953,-249.5696,-67.2524
26220.0000,-102.6539,556.3381,427.2886,706.3541,-249.8555,-71.9540
26240.0000,-101.0741,557.6819,426.7721,705.6114,-249.5340,-67.1580
26260.0000,-102.7486,556.2065,427.3085,706.3378,-249.8973,-72.0276
26280.0000,-100.9740,557.8078,426.7568,705.6268,-249.4966,-67.0751
26300.0000,-102.8523,556.0872,427.3203,706.3225,-249.9325,-72.0881
26320.0000,-100.8824,557.9242,426.7386,705.6387,-249.4566,-67.0112
26340.0000,-102.9267,555.9739,427.3327,706.3077,-249.9580,-72.1178
26360.0000,-147.8378,522.0569,430.7035,701.6577,-303.5766,-241.1870
26380.0000,-153.0934,526.8465,427.3375,702.2932,-306.9836,-293.3108
26400.0000,-142.7793,537.1845,422.6117,704.6862,-307.5089,-301.0240
26420.0000,-155.0917,536.7854,435.3089,704.2964,-315.1142,-329.2381
26440.0000,-152.7144,520.2738,430.6780,706.6807,-313.4314,-341.0841
26460.0000,-153.2019,525.7196,429.3416,702.2688,-327.1606,-348.1875
26480.0000,-152.6658,525.3449,432.6476,705.6824,-329.4254,-372.1720
26500.0000,-148.1821,533.6147,431.3441,707.2637,-326.0705,-384.2850
26520.0000,-131.6838,540.4481,437.6697,703.7087,-302.4641,-378.3665
26540.0000,-153.3063,527.5172,433.3160,706.2361,-322.1204,-414.0197
26560.0000,-131.6546,545.4968,430.6587,707.7252,-317.5948,-399.2953
26580.0000,-126.2733,520.4867,426.3207,704.2495,-334.1773,-410.0318
26600.0000,-154.5684,523.5833,426.6931,706.7363,-335.5728,-441.4756
26620.0000,-132.3369,553.3939,427.3782,710.2469,-324.0918,-449.9384
26640.0000,-160.5904,537.6312,426.7136,689.7576,-342.5989,-481.6375
26660.0000,-165.3488,521.3265,426.3340,697.2126,-322.1051,-495.7303
26680.0000,-149.5694,535.6078,431.6386,702.7709,-306.4614,-474.8672
26700.0000,-148.2721,535.2802,424.3529,702.2073,-320.1092,-501.4813
26720.0000,-151.5885,523.6913,426.7677,715.7955,-326.6641,-508.9543
26740.0000,-126.2770,532.2351,426.3821,708.2240,-324.9220,-511.3001
26760.0000,-144.6032,548.7331,423.5866,707.7483,-316.5714,-533.2531
26780.0000,-148.2267,531.2914,433.3763,711.2033,-322.9010,-556.2192
26800.0000,-149.6326,517.7467,433.6622,703.7705,-339.6197,-569.4154
26820.0000,-143.1874,540.3157,430.3288,708.2030,-325.9245,-568.0295
26840.0000,-170.7014,501.6826,430.6347,705.7643,-362.6952,-619.6953
26860.0000,-180.1856,514.3137,427.3959,706.1824,-359.8639,-636.8107
26880.0000,-152.7163,532.6492,425.6187,706.7789,-332.6956,-650.9843
26900.0000,-164.1063,515.2943,432.2930,698.1788,-357.8352,-665.5485
26920.0000,-160.8409,512.6005,428.6741,707.7916,-356.6457,-689.2479
26940.0000,-160.0021,525.3883,434.3810,703.1783,-352.7409,-686.1030
26960.0000,-152.8654,541.5616,426.6994,706.7855,-347.7217,-689.5214
26980.0000,-172.9643,521.4218,428.2806,700.1871,-368.6759,-719.9258
27000.0000,-168.0032,527.5040,428.7050,708.7963,-362.9112,-724.7197
27020.0000,-149.8489,529.4808,425.3293,712.1815,-334.6288,-718.6176
27040.0000,-155.0440,527.4266,426.7402,709.7973,-341.9364,-735.0104
27060.0000,-152.8145,530.5992,428.2197,709.1964,-331.4779,-724.2435
27080.0000,-123.1700,542.3510,425.7199,715.7725,-336.9850,-728.3615
27100.0000,-112.6831,560.7570,428.1883,717.2023,-325.4652,-739.0468
27120.0000,-136.2525,537.2392,433.8321,705.7548,-341.0365,-755.6257
27140.0000,-146.5622,534.8568,431.1942,704.2146,-374.4813,-778.7720
27160.0000,-127.3310,548.1107,433.8791,707.7587,-344.1996,-765.9193
27180.0000,-122.4565,534.9800,427.1685,710.2352,-353.3417,-783.3844
27200.0000,-125.5170,540.9421,435.9280,698.7466,-341.2445,-790.3083
27220.0000,-123.3028,535.1174,436.1169,708.2408,-345.1173,-808.2046
27240.0000,-124.5853,534.7812,434.9592,710.7252,-349.4865,-809.5944
27260.0000,-123.1910,534.2393,440.9561,711.2514,-344.1226,-823.8445
27280.0000,-126.7169,515.6423,442.0671,708.7275,-364.5161,-838.8732
27300.0000,-129.1064,533.3760,438.8789,707.2682,-349.0503,-844.6013
27320.0000,-148.8312,513.4893,435.1370,699.7043,-362.6842,-882.2455
27340.0000,-126.0007,540.5934,439.8235,697.2763,-352.8472,-887.4172
27360.0000,-126.0062,529.2819,441.2150,707.6847,-341.7807,-885.3703
27380.0000,-105.8281,562.7531,442.7274,714.3085,-332.7433,-882.0604
27400.0000,-88.1279,572.1188,444.3746,714.6550,-307.9662,-887.6697
27420.0000,-91.6851,566.9770,444.5572,714.3134,-296.3975,-897.9487
27440.0000,-87.2034,578.9808,444.4989,711.6459,-308.1133,-918.9417
27460.0000,-117.5771,572.1495,443.3444,716.3051,-288.3452,-958.5884
27480.0000,-117.3572,561.7969,438.7010,714.6354,-296.4395,-994.1079
27500.0000,-102.4847,564.3496,441.1626,711.2935,-285.1113,-1007.4059
27520.0000,-107.4786,569.6002,440.8855,714.6482,-285.4085,-1048.4066
27540.0000,-119.3658,557.4905,430.9416,711.2964,-307.9812,-1085.2457
27560.0000,-114.5918,561.4158,442.0373,706.6669,-316.7110,-1119.6504
27580.0000,-111.2903,554.6777,446.7518,720.2805,-287.8637,-1159.2231
27600.0000,-107.6930,566.1981,460.2740,715.6895,-280.9425,-1164.7433
27620.0000,-92.1835,562.9354,454.6040,720.2602,-282.6426,-1190.1202
27640.0000,-90.7092,569.0146,462.5084,716.7297,-274.9712,-1197.9613
27660.0000,-100.0686,555.0336,455.3163,719.2556,-279.4331,-1226.9757
27680.0000,-104.7962,547.8008,467.8041,718.7881,-283.2367,-1245.0262
27700.0000,-113.0371,546.1863,462.0781,717.1964,-291.3363,-1280.8065
27720.0000,-97.8635,551.6858,460.0915,720.8121,-269.3454,-1287.1716
27740.0000,-88.8863,547.3803,462.8510,720.1289,-282.1942,-1284.8286
27760.0000,-88.9879,545.5234,454.3922,720.8741,-286.3700,-1294.1715
27780.0000,-90.8365,555.5212,441.5342,710.0836,-266.0509,-1308.6794
27800.0000,-78.9777,570.3563,416.5490,704.9622,-268.5281,-1320.1323
27820.0000,-105.8513,538.6555,387.2465,690.9991,-295.9666,-1382.8114
27840.0000,-129.0235,538.2002,378.8299,690.0385,-310.7278,-1417.1300
27860.0000,-90.7516,540.8443,395.9660,699.9063,-296.7424,-1404.8818
27880.0000,-94.0984,529.0770,388.0869,694.1224,-311.6911,-1429.1550
27900.0000,-96.7719,520.9505,391.6884,689.7855,-315.7228,-1436.7832
27920.0000,-94.1169,551.9866,387.4210,697.2241,-269.8939,-1438.0984
27940.0000,-127.7546,524.0497,381.3765,684.6732,-310.6183,-1489.9424
27960.0000,-90.0937,536.9606,397.6198,697.3406,-285.9412,-1469.0693
27980.0000,-95.7059,534.0812,407.2035,697.5495,-308.6130,-1494.1219
28000.0000,-126.0784,500.8502,416.9188,704.4809,-327.8282,-1520.0255
28020.0000,-122.7710,504.0937,409.8952,686.4384,-320.6555,-1525.0679
28040.0000,-110.0221,516.8669,429.1875,710.6246,-298.8689,-1513.7329
28060.0000,-96.7776,520.1774,468.7458,718.3143,-282.7526,-1513.3448
28080.0000,-99.0381,518.8192,442.3678,713.7509,-295.7637,-1531.7692
28100.0000,-70.7973,557.1896,416.5183,711.1615,-244.6601,-1495.3184
28120.0000,-94.9664,509.8154,462.5354,726.8868,-284.7323,-1520.5723
28140.0000,-78.8159,529.1826,496.4739,730.0344,-309.8503,-1523.6746
28160.0000,-58.9143,529.8495,480.6818,725.0417,-320.7943,-1511.3981
28180.0000,-63.8954,542.1068,475.3064,725.8985,-313.9174,-1514.8842
28200.0000,-32.8358,538.9097,557.7388,761.1885,-319.5670,-1514.0615
28220.0000,-20.9533,568.0558,509.2551,732.7507,-296.0932,-1487.9242
28240.0000,-34.7760,563.0139,454.7748,704.2923,-290.4578,-1504.8633
28260.0000,-80.0566,561.0239,402.2011,683.6140,-288.1624,-1528.1744
28280.0000,-59.6435,582.0837,393.8669,689.4067,-244.2160,-1504.6243
28300.0000,-65.0852,602.8986,316.1194,665.4819,-236.4293,-1506.3525
28320.0000,-83.5373,606.2408,287.7764,655.5374,-233.0163,-1510.5093
28340.0000,-62.1994,612.7296,246.1074,637.3526,-218.7101,-1498.6401
28360.0000,-44.4656,646.3752,209.7096,629.6494,-195.7125,-1471.2595
28380.0000,-67.2824,657.6541,85.1514,588.2418,-183.0256,-1479.8950
28400.0000,-51.3707,724.4926,-81.3604,516.6878,-125.2651,-1471.0031
28420.0000,-60.3718,566.4903,429.4474,738.1899,-282.1948,-1495.2665
28440.0000,-64.2213,529.6031,493.5267,746.8495,-328.1621,-1495.6542
28460.0000,-57.4799,523.3224,444.5754,714.0945,-319.5633,-1483.4751
28480.0000,-85.1382,507.7988,455.3334,718.9105,-341.6429,-1520.3109
28500.0000,-63.5261,529.0651,430.7504,710.0345,-298.8617,-1497.6243
28520.0000,-60.0710,535.0367,431.1431,706.9741,-298.3234,-1504.1058
28540.0000,-72.6188,533.9402,421.0437,699.0027,-343.2644,-1528.9171
28560.0000,-67.9592,532.2103,432.8809,711.0109,-326.0421,-1526.9261
28580.0000,-78.7347,534.7034,427.2833,708.9566,-329.5816,-1523.2452
28600.0000,-82.8602,514.3760,436.5672,708.0034,-331.6093,-1529.5352
28620.0000,-63.7473,516.5549,440.5667,714.9596,-320.9604,-1532.4823
28640.0000,-85.8509,502.5441,454.2666,717.0063,-351.4275,-1546.4540
28660.0000,-92.8703,488.3048,459.9591,718.9682,-379.3954,-1576.6179
28680.0000,-87.7971,498.7907,475.9045,717.9933,-369.9128,-1571.1281
28700.0000,-92.9333,481.1488,481.2419,724.9998,-387.6492,-1595.0320
28720.0000,-94.7479,473.9178,506.5367,728.9772,-403.7639,-1597.8584
28740.0000,-92.9708,477.9622,491.6621,723.0286,-387.1048,-1603.2170
28760.0000,-96.6512,480.1070,487.2192,721.9079,-382.3880,-1618.6815
28780.0000,-86.0013,509.7970,470.9879,715.0883,-350.3822,-1615.4708
28800.0000,-60.6190,529.3104,444.8503,712.8448,-339.9828,-1615.6235
28820.0000,-81.9962,520.6196,443.4130,705.1473,-345.6350,-1629.5427
28840.0000,-79.6099,538.4865,437.4538,710.7884,-328.7336,-1624.4309
28860.0000,-63.0077,539.4364,419.7098,704.2215,-311.9389,-1623.7892
28880.0000,-68.6529,557.6103,401.0538,694.6849,-303.4837,-1631.2148
28900.0000,-79.9989,565.3068,346.0638,681.3357,-288.2895,-1631.8993
28920.0000,-55.6176,587.7841,332.6232,674.6036,-253.2702,-1622.0881
28940.0000,-55.9858,605.1879,300.4626,667.4238,-252.3395,-1622.0242
28960.0000,-77.6180,577.8748,307.2342,663.4860,-251.0876,-1640.9521
28980.0000,-46.9370,609.1041,331.8069,684.5273,-233.6715,-1614.1700
29000.0000,-55.6670,583.0394,353.9058,686.3876,-257.7248,-1618.7924
29020.0000,-27.9013,630.0327,351.2086,684.6404,-223.7371,-1594.2490
29040.0000,-24.7041,602.1046,402.5821,710.2859,-283.6808,-1585.6237
29060.0000,-5.8873,583.9212,442.5095,729.7639,-243.8071,-1553.2830
29080.0000,-40.7916,532.1120,512.3350,749.1716,-311.6581,-1578.6171
29100.0000,-31.8454,506.7681,592.8502,781.9050,-337.9329,-1570.2920
29120.0000,-33.8422,487.1761,613.1072,777.0758,-349.5193,-1542.6187
29140.0000,-31.7770,502.7756,604.1080,766.9999,-327.0142,-1526.4081
29160.0000,-32.8484,492.2044,661.8596,794.9717,-336.5583,-1506.6312
29180.0000,-47.7460,481.7194,628.3053,770.0974,-371.0658,-1520.2930
29200.0000,-30.9835,524.2361,523.6396,735.8449,-304.5842,-1480.4781
29220.0000,-33.6561,547.7450,476.4742,723.2112,-289.8976,-1466.3563
29240.0000,-41.0412,547.2410,472.4494,727.7461,-293.6846,-1456.5898
29260.0000,-24.5777,580.7974,451.6197,725.2900,-236.7883,-1402.2035
29280.0000,-33.0467,561.2347,415.2191,716.6415,-249.6988,-1408.6108
29300.0000,-35.5604,575.7407,375.7498,693.3647,-248.7569,-1384.2045
29320.0000,-28.1235,634.2673,315.0983,669.5670,-216.7148,-1368.6200
29340.0000,-62.4660,621.7960,248.8580,647.4298,-204.5537,-1366.1754
29360.0000,-57.2625,640.2382,238.9813,650.4786,-205.0336,-1356.6235
29380.0000,-81.4110,580.8778,320.9821,688.5131,-256.5612,-1363.0455
29400.0000,-74.3084,566.1971,367.9047,699.4165,-246.2049,-1342.5851
29420.0000,-80.4056,551.9001,382.0854,694.5879,-264.2692,-1323.9794
29440.0000,-81.3646,548.1241,365.8756,691.3634,-275.3340,-1317.7378
29460.0000,-85.3552,557.9595,335.1065,682.6519,-260.9951,-1296.9360
29480.0000,-59.3437,605.0775,281.8941,662.2996,-233.4594,-1253.6897
29500.0000,-82.2538,601.9813,230.1059,647.6663,-231.8272,-1246.7998
29520.0000,-84.4101,576.0064,264.8205,662.2648,-229.7340,-1236.8153
29540.0000,-108.2601,547.0088,343.0630,696.7031,-260.5357,-1234.8778
29560.0000,-89.4215,546.9354,446.9325,734.2498,-284.1136,-1217.9039
29580.0000,-88.2861,539.0744,443.0226,720.7418,-286.3854,-1190.6830
29600.0000,-121.3918,525.8490,410.9500,707.2242,-292.2592,-1196.9500
29620.0000,-128.3051,531.1459,408.0151,706.7552,-304.1034,-1183.6429
29640.0000,-126.4773,536.8565,414.9699,714.2256,-296.4700,-1156.0011
29660.0000,-139.2557,525.1908,434.9715,721.7779,-306.9105,-1157.4103
29680.0000,-166.3880,500.7582,432.1036,712.2031,-335.7294,-1168.1285
29700.0000,-154.3440,515.2809,425.9011,710.7700,-332.5372,-1150.3911
29720.0000,-183.4377,490.7429,420.1251,710.2124,-339.9253,-1137.1700
29740.0000,-187.3979,506.3233,421.8362,708.7820,-327.4715,-1113.3475
29760.0000,-207.3951,491.6443,413.1942,700.2125,-338.1915,-1104.3623
29780.0000,-207.4280,493.3077,418.7246,704.7771,-335.1413,-1105.3284
29800.0000,-225.3014,493.6702,418.2915,702.2004,-337.5437,-1102.3899
29820.0000,-221.4981,484.3380,420.6192,700.7707,-344.9767,-1095.2458
29840.0000,-238.2965,486.5876,408.3243,697.2075,-350.7084,-1072.4436
29860.0000,-258.6037,492.4349,393.5179,693.7411,-348.7023,-1061.0806
29880.0000,-273.1790,510.5929,393.4199,690.2258,-343.0266,-1049.4240
29900.0000,-286.6213,507.4015,389.4660,687.7191,-352.4530,-1050.0160
29920.0000,-306.1153,499.5738,397.5009,688.2407,-363.1724,-1041.4971
29940.0000,-328.7204,494.4620,408.4541,689.7200,-374.3994,-1045.0651
29960.0000,-341.0746,481.5130,419.5781,700.2761,-380.2544,-1037.6711
29980.0000,-371.8009,467.4460,428.3855,706.7087,-382.1127,-1013.9904
30000.0000,-352.0307,513.4914,420.7302,707.2811,-371.4569,-970.5271
30020.0000,-380.9017,513.4970,428.3074,699.7110,-372.0743,-972.9077
30040.0000,-392.9473,520.4060,430.7708,702.2952,-385.6556,-961.5865
30060.0000,-412.9524,491.5426,436.2046,705.6866,-423.8801,-958.9981
30080.0000,-434.9061,499.4137,451.0241,710.3585,-404.8817,-951.6049
30100.0000,-487.1150,486.6423,464.9748,710.6133,-426.5428,-947.9418
30120.0000,-506.8242,459.2982,472.0245,720.3477,-412.8943,-932.6359
30140.0000,-532.2221,471.6552,477.8827,715.6140,-401.4334,-911.7908
30160.0000,-557.7996,473.3366,461.1158,714.3739,-390.2128,-908.7493
30180.0000,-574.2549,464.6545,440.8455,707.6147,-393.4391,-912.8060
30200.0000,-616.6801,442.2213,463.1949,711.3644,-420.1355,-921.6263
30220.0000,-638.3416,468.7280,443.7978,701.5931,-406.2657,-908.9120
30240.0000,-651.6525,458.2228,428.3146,698.3727,-412.3391,-907.7546
30260.0000,-646.4472,470.7582,437.6262,712.6022,-391.2627,-879.8995
30280.0000,-662.6344,475.1674,434.3679,707.3782,-368.3663,-870.8099
30300.0000,-661.4802,495.8809,422.5629,707.5919,-341.2086,-839.8609
30320.0000,-695.6125,468.0672,415.5122,697.3723,-366.4627,-850.8147
30340.0000,-716.5131,444.8833,445.5047,705.5757,-416.9698,-869.8505
30360.0000,-715.5579,459.9961,450.5730,711.3785,-404.4701,-844.7269
30380.0000,-721.5287,464.0191,452.4230,713.5986,-400.0201,-841.8358
30400.0000,-754.5207,440.9407,460.6040,704.3868,-431.7074,-840.8849
30420.0000,-745.5366,442.0453,464.2584,712.5983,-428.9057,-843.6375
30440.0000,-748.5540,446.8601,461.7543,711.3711,-431.7547,-827.8469
30460.0000,-750.5325,439.1248,472.2356,720.6008,-431.9376,-822.5621
30480.0000,-742.5241,435.6927,496.8265,726.3792,-421.7183,-809.9224
30500.0000,-754.5406,424.2805,484.0658,714.6000,-446.8055,-817.6133
30520.0000,-737.5072,441.5959,469.9124,711.3541,-423.7315,-809.9772
30540.0000,-737.5323,444.3852,459.9994,714.6127,-418.9453,-791.6226
30560.0000,-734.5479,443.5490,443.1150,702.3448,-432.7471,-803.1016
30580.0000,-724.4604,467.4889,421.9137,692.6248,-423.7545,-789.5142
30600.0000,-730.5601,458.3814,445.1994,712.3439,-422.9054,-786.0218
30620.0000,-740.4521,435.5688,447.7914,711.6507,-430.7558,-783.3099
30640.0000,-753.6271,433.2981,452.3075,710.3488,-445.7123,-794.0672
30660.0000,-723.4299,447.6815,444.7697,709.6730,-405.7671,-751.3790
30680.0000,-727.6650,450.2043,426.3111,703.3148,-408.8712,-752.2864
30700.0000,-727.4178,445.7166,424.6854,707.6774,-423.7584,-753.3447
30720.0000,-692.6859,480.1554,417.3785,694.2895,-394.8120,-728.2874
30740.0000,-664.3186,504.8828,393.4801,688.6782,-383.8799,-715.0629
30760.0000,-661.7353,530.0363,366.4507,684.2544,-359.7158,-694.4956
30780.0000,-663.2920,517.9537,350.4575,669.6798,-375.7736,-705.9670
30800.0000,-667.8362,509.9499,340.5605,678.2564,-373.7144,-709.5253
30820.0000,-694.2420,479.0565,350.3840,671.7123,-401.8980,-732.0062
30840.0000,-687.8713,467.8828,381.5502,679.2100,-443.6069,-741.7122
30860.0000,-670.1784,494.1674,395.3481,698.7392,-405.8741,-712.8904
30880.0000,-700.9831,440.7507,408.6608,690.2204,-456.7314,-750.8294
30900.0000,-686.0607,461.1872,446.2871,707.7615,-432.0145,-726.6664
30920.0000,-663.0313,465.7490,439.7160,702.1935,-411.5173,-719.9105
30940.0000,-693.0112,424.2359,437.2275,691.7900,-468.0323,-752.7032
30960.0000,-656.0895,467.6719,425.8673,706.1765,-406.6301,-713.0897
30980.0000,-635.9387,470.2915,431.1028,697.7911,-424.0497,-708.4893
31000.0000,-661.1422,435.5946,430.8463,697.1691,-444.4870,-724.2347
31020.0000,-629.9132,465.3498,431.0743,702.8141,-413.1690,-700.4106
31040.0000,-629.1512,464.5765,432.8821,704.1724,-417.4502,-698.2166
31060.0000,-645.8730,446.3285,438.0272,703.8273,-422.2163,-723.1618
31080.0000,-613.2738,468.5930,435.0124,700.1547,-405.3257,-700.3910
31100.0000,-602.7351,467.3734,434.0094,700.8518,-408.2592,-701.2026
31120.0000,-601.3251,456.5733,437.0390,699.1366,-429.1371,-724.5972
31140.0000,-593.7527,439.3804,437.0282,693.8502,-426.3256,-713.9772
31160.0000,-593.3300,443.5157,432.0528,704.1320,-434.0956,-721.6481
31180.0000,-594.6586,440.3263,442.9821,692.8603,-447.4586,-713.0644
31200.0000,-566.4047,439.5828,439.0834,694.1074,-437.0758,-694.7912
31220.0000,-562.6317,440.3215,432.9997,697.8683,-441.6209,-690.9196
31240.0000,-525.4703,471.6213,438.0192,705.0977,-412.8633,-662.8215
31260.0000,-549.5334,434.3754,437.8962,696.8805,-431.6274,-686.7556
31280.0000,-531.4645,458.6068,432.0791,699.0773,-424.8266,-665.9587
31300.0000,-503.5137,469.2794,437.8839,699.9129,-393.8005,-639.7238
31320.0000,-546.4876,471.6938,438.0507,696.0725,-413.7670,-636.0000
31340.0000,-564.4232,478.2603,434.9467,700.9313,-429.8372,-632.7185
31360.0000,-549.5880,471.7382,440.0457,701.0656,-407.7484,-601.9488
31380.0000,-536.4376,472.2104,431.9035,703.9354,-417.8726,-602.6478
31400.0000,-545.6030,440.7057,444.1421,698.0323,-429.5879,-606.0819
31420.0000,-541.3858,447.1843,437.8682,692.9328,-424.9734,-599.5502
31440.0000,-525.6658,457.7571,434.0857,693.0168,-418.5372,-572.0049
31460.0000,-504.3094,461.1250,434.9455,698.9553,-398.1039,-547.4533
31480.0000,-511.6872,431.8680,435.1337,686.0172,-436.4283,-574.0648
31500.0000,-499.2829,455.0681,431.9111,696.9538,-405.1990,-547.4449
31520.0000,-501.6542,459.9071,438.0530,687.9896,-412.2314,-543.0342
31540.0000,-529.2802,445.0572,434.9638,682.9926,-422.3843,-539.4862
31560.0000,-534.6992,451.9684,437.1093,692.0029,-400.3119,-509.1309
31580.0000,-542.2047,445.9587,436.9622,680.9972,-420.4700,-530.5022
31600.0000,-548.7437,461.9746,437.0971,684.9664,-420.1918,-523.0150
31620.0000,-538.2216,455.9611,440.9451,695.0224,-412.4277,-500.4977
31640.0000,-545.7978,453.0096,437.0842,683.9369,-411.1404,-481.9476
31660.0000,-508.1400,496.9607,433.0026,697.0248,-359.4303,-438.4429
31680.0000,-530.8584,470.0293,432.0419,687.9134,-393.1201,-457.0183
31700.0000,-518.0875,480.8736,433.9526,690.0588,-390.6078,-428.4656
31720.0000,-498.8399,489.1136,434.0117,693.9031,-377.0702,-404.9119
31740.0000,-503.0738,452.8619,433.9715,685.0718,-411.4649,-408.6931
31760.0000,-508.8394,439.0980,435.0394,688.8795,-418.9015,-406.9143
31780.0000,-497.0012,463.8263,433.9874,684.0872,-416.5437,-393.6236
31800.0000,-448.8648,473.1206,437.0037,689.8582,-395.8588,-351.9465
31820.0000,-448.0067,475.8249,437.9842,696.1370,-391.5839,-350.5789
31840.0000,-443.8891,475.1860,436.9851,685.8331,-386.8524,-333.9327
31860.0000,-450.9614,461.8231,433.1034,682.1586,-390.7267,-347.7688
31880.0000,-427.8701,487.1387,433.9109,698.8068,-353.9487,-313.8653
31900.0000,-428.9583,478.8119,439.1013,686.1854,-381.7489,-317.8080
31920.0000,-425.8679,481.1335,435.8759,687.7642,-391.8644,-307.6917
31940.0000,-422.9135,485.7613,443.1038,693.1975,-384.6126,-293.7696
31960.0000,-410.8878,495.2091,437.8349,693.7499,-364.8922,-262.7122
31980.0000,-383.9361,498.8091,442.2038,692.2477,-362.7059,-253.8069
32000.0000,-389.8691,486.1876,440.8453,694.7287,-382.8699,-256.5369
32020.0000,-381.9230,515.8212,435.2106,695.2677,-337.6956,-210.9638
32040.0000,-382.8492,521.2039,435.7815,697.6896,-343.8555,-218.5003
32060.0000,-361.8853,523.8137,435.2438,698.2847,-341.6411,-186.9203
32080.0000,-374.8468,519.1544,433.7578,693.6691,-343.8495,-191.4863
32100.0000,-370.9326,520.8121,439.2523,692.3277,-358.7296,-192.0713
32120.0000,-377.7971,518.2004,434.7758,692.6348,-359.8617,-193.4795
32140.0000,-379.9852,511.8049,437.2979,687.3481,-350.6127,-184.9734
32160.0000,-393.7901,514.1619,441.6318,686.6248,-348.9147,-166.4695
32180.0000,-525.0521,518.8579,435.3499,693.3594,-340.5036,-164.1850
32200.0000,-539.8325,517.1534,435.6335,689.5902,-327.0176,-155.3871
32220.0000,-540.0922,498.8469,439.3676,688.3780,-323.6188,-125.2377
32240.0000,-527.6857,518.1978,430.5709,696.5604,-314.9534,-124.2686
32260.0000,-523.1707,517.8057,439.4122,693.4097,-325.5901,-119.1653
32280.0000,-520.6080,514.1817,439.5310,690.5491,-334.0331,-127.2699
32300.0000,-508.2659,519.8519,438.3976,686.4439,-329.5207,-106.1429
32320.0000,-498.5408,524.1660,437.5062,693.5203,-330.9667,-88.1942
32340.0000,-477.3593,508.7469,438.4338,696.4675,-349.7083,-97.2203
32360.0000,-470.4283,506.2491,435.4877,688.5026,-346.9670,-64.0273
32380.0000,-473.4174,503.7403,432.5056,691.4794,-357.5869,-63.3615
32400.0000,-461.4121,503.2689,437.4434,688.4901,-379.8617,-64.9922
32420.0000,-434.5456,520.6863,440.4993,705.5020,-331.5099,-23.3866
32440.0000,-452.2886,512.3228,440.4575,689.4860,-361.0175,-36.9467
32460.0000,-443.5976,503.6289,436.5611,692.5139,-370.5378,-30.3868
32480.0000,-423.1932,509.3862,441.3621,696.4625,-361.8812,-2.7634
32500.0000,-412.6905,520.5769,434.6028,691.5179,-362.6495,3.2725
32520.0000,-412.0421,499.4221,435.3573,698.4671,-354.8432,0.9954
32540.0000,-414.8281,516.5361,439.6589,691.5193,-370.5694,1.3678
32560.0000,-413.9311,499.5201,439.3008,690.4712,-360.9445,22.1237
32580.0000,-419.9409,497.3881,433.7108,695.5129,-375.6340,16.2140
32600.0000,-413.8266,499.6036,441.2654,691.4801,-388.9895,28.3260
32620.0000,-397.0915,510.3523,433.7354,693.5016,-399.7539,32.0973
32640.0000,-380.7074,533.6887,440.3087,704.4773,-339.8830,83.3388
32660.0000,-391.1718,514.1962,439.7225,692.5211,-374.7895,50.0068
32680.0000,-380.5873,525.8234,441.2226,703.4788,-351.9024,70.3625
32700.0000,-381.3042,512.1000,439.7428,698.4922,-352.7025,74.0411
32720.0000,-385.4737,549.9766,438.2781,690.4885,-360.8477,62.4897
32740.0000,-354.4247,545.9875,436.7191,697.4744,-329.7190,104.0030
32760.0000,-344.4011,567.0796,443.2907,700.5090,-345.7032,102.5976
32780.0000,-358.4653,542.8660,439.7770,693.4651,-328.8686,91.8932
32800.0000,-321.2808,563.1755,440.2339,694.5110,-326.8036,119.6452
32820.0000,-325.5333,561.8080,441.7783,697.4517,-336.7859,121.8546
32840.0000,-338.1918,552.3050,441.1559,700.5347,-344.7431,118.7121
32860.0000,-325.6063,546.6640,440.7383,696.4595,-335.9457,136.8975
32880.0000,-332.1736,536.4573,436.2324,694.5395,-347.5639,132.8802
32900.0000,-321.7228,547.4883,438.7636,699.4329,-341.8979,151.7440
32920.0000,-346.1472,525.4987,436.2183,690.5556,-354.5511,120.9031
32940.0000,-348.7410,530.3728,434.8025,692.4300,-343.9107,127.7914
32960.0000,-318.0939,559.6805,437.1418,694.5712,-325.5760,143.0428
32980.0000,-313.7575,536.2642,441.8302,692.4122,-345.9221,114.6543
33000.0000,-334.0788,521.7623,439.1157,688.5781,-367.6316,97.9875
33020.0000,-310.7856,540.1937,440.7936,692.3939,-359.1033,119.4986
33040.0000,-326.0164,512.8555,439.0984,692.5936,-365.6406,88.2518
33060.0000,-293.8031,560.1018,444.9061,692.3740,-324.0489,103.5129
33080.0000,-304.9893,524.9824,437.0883,696.6127,-348.5041,83.2298
33100.0000,-304.8334,524.9824,440.8346,696.3541,-347.0933,69.3504
33120.0000,-283.0219,538.0289,438.1196,700.6570,-321.5227,85.3393
33140.0000,-281.7845,558.9056,442.9624,693.3166,-322.1275,79.3017
33160.0000,-271.0450,560.1728,435.0546,703.6661,-317.5453,89.2954
33180.0000,-268.7103,557.8881,440.8840,695.3144,-329.1531,78.4376
33200.0000,-261.0953,549.1595,440.0549,698.6748,-293.4262,97.5193
33220.0000,-274.6984,537.8388,437.9884,696.3110,-329.1546,86.3748
33240.0000,-280.1434,539.2346,440.9604,691.6964,-361.3883,69.3859
33260.0000,-269.6577,553.7731,436.9696,698.2865,-356.1103,88.3920
33280.0000,-257.1602,541.2404,445.0190,689.6929,-327.4164,96.5989
33300.0000,-244.5595,530.7412,433.0260,696.2892,-333.0862,92.2368
33320.0000,-252.2178,529.2431,438.9037,689.7057,-347.3741,91.5357
33340.0000,-247.5698,538.7047,440.0815,695.2736,-330.0162,91.1897
33360.0000,-243.2564,549.2567,439.9188,694.7166,-328.5347,93.6185
33380.0000,-224.4782,546.6888,440.1201,695.2684,-322.9745,94.2297
33400.0000,-224.3200,557.3110,433.9130,705.7063,-318.4825,97.7342
33420.0000,-253.4049,525.7656,437.1218,693.2523,-338.0601,84.1983
33440.0000,-223.4141,549.2266,439.8318,692.7101,-309.5219,89.6066
33460.0000,-220.3327,556.7771,440.2109,701.2745,-300.9830,112.1475
33480.0000,-227.5136,556.2283,441.7720,690.7268,-303.6481,100.6570
33500.0000,-217.2946,564.8016,440.2579,704.2616,-295.0234,109.0645
33520.0000,-219.5224,565.1937,438.6835,701.7150,-296.6841,120.6934
33540.0000,-216.1892,562.8823,444.2826,698.2504,-284.8881,111.0920
33560.0000,-206.6112,557.1508,438.6360,695.7297,-312.7445,135.8292
33580.0000,-197.1439,559.9326,439.2991,702.2515,-297.7621,147.0150
33600.0000,-187.6505,578.0395,437.6541,698.7196,-296.7938,150.7603
33620.0000,-198.1508,558.9691,439.3449,696.2708,-332.7751,146.9949
33640.0000,-194.6915,543.0272,433.6316,697.7115,-320.7458,160.7896
33660.0000,-159.0727,581.0924,436.4681,707.2585,-284.7086,186.1801
33680.0000,-153.6495,579.9672,437.5610,696.6996,-299.7562,173.8889
33700.0000,-171.1350,574.1154,437.4510,694.2642,-302.6355,157.9603
33720.0000,-163.7243,568.8278,439.5040,700.7219,-293.8990,157.7910
33740.0000,-172.1033,547.1415,433.5190,690.2703,-302.5798,149.9551
33760.0000,-162.6718,556.8223,441.4503,696.6929,-316.9778,120.8612
33780.0000,-165.0991,553.2213,438.5877,695.2799,-307.5543,123.9874
33800.0000,-161.6945,551.6931,438.3694,697.6944,-299.0659,102.9262
33820.0000,-150.1359,570.2877,437.5739,695.2841,-292.3622,97.8096
33840.0000,-172.6165,525.6255,440.3194,696.6848,-324.1187,62.9316
33860.0000,-155.1237,559.3454,441.5879,696.2913,-294.5056,55.8948
33880.0000,-126.5957,569.6141,439.3498,702.6945,-286.2526,55.0119
33900.0000,-159.1114,537.4174,440.6823,691.2903,-329.3081,-9.1106
33920.0000,-148.5343,535.5713,440.2587,688.6851,-316.1123,-25.8034
33940.0000,-150.2362,535.4730,440.7075,693.2751,-313.2662,-52.0638
33960.0000,-142.5153,530.5607,438.2441,691.7053,-336.3199,-82.7243
33980.0000,-141.2856,530.4321,429.7380,689.2767,-332.2985,-116.2591
34000.0000,-124.4150,552.5193,441.2630,704.7038,-286.3805,-135.7710
34020.0000,-120.3502,547.4463,436.7754,695.2850,-301.3498,-174.3240
34040.0000,-147.3663,520.4963,440.1933,692.6866,-327.4011,-227.6119
34060.0000,-116.4032,538.5123,434.8046,696.2887,-310.3039,-244.4434
34080.0000,-127.2355,544.5417,437.2550,692.6909,-296.2921,-279.6227
34100.0000,-135.5023,548.4471,436.8029,691.2769,-278.2835,-323.5621
34120.0000,-108.1397,576.5879,437.2450,704.7214,-255.3140,-329.5837
34140.0000,-90.5819,554.4279,441.7242,706.2542,-274.1004,-378.5758
34160.0000,-112.0778,537.5675,438.1705,699.7214,-271.3334,-447.5582
34180.0000,-139.7207,522.3607,441.7348,704.2661,-267.0808,-500.5757
34200.0000,-121.0030,542.6814,435.2401,693.7125,-255.3399,-526.5218
34220.0000,-123.7824,529.3459,437.7626,696.2669,-277.1581,-581.7256
34240.0000,-120.9082,543.6941,438.1605,696.7105,-284.2781,-624.4826
34260.0000,-107.9329,555.2882,435.7775,696.2577,-285.2741,-655.9324
34280.0000,-122.8288,556.8111,439.2107,691.7457,-284.2637,-706.3098
34300.0000,-118.9883,549.1978,441.7422,697.2271,-268.1846,-764.0455
34320.0000,-111.7098,571.8298,435.2347,698.7369,-255.3274,-805.3082
34340.0000,-122.0553,556.0701,436.8297,694.2309,-264.2549,-861.1133
34360.0000,-115.6515,562.9839,436.1715,695.7523,-215.4056,-920.2252
34380.0000,-124.1511,544.9896,440.8026,696.2384,-246.3056,-982.0774
34400.0000,-118.5493,545.0481,439.2177,697.7477,-242.3332,-1016.3517
34420.0000,-100.2291,570.9079,438.8089,701.2300,-201.1832,-1050.1525
34440.0000,-106.4834,562.1451,436.1813,696.7491,-232.2131,-1108.2031
34460.0000,-108.3461,549.7806,435.7640,701.2247,-248.3589,-1153.3365
34480.0000,-110.4565,531.2540,441.2165,693.7666,-292.2291,-1226.2031
34500.0000,-119.3613,540.7287,443.8259,693.1894,-279.3201,-1257.3412
34520.0000,-117.4043,537.3756,438.1809,699.7852,-269.1639,-1290.2889
34540.0000,-117.4000,538.5622,434.8145,702.1816,-248.4688,-1309.4630
34560.0000,-116.3111,544.4496,441.2310,698.7902,-258.1409,-1362.1372
34580.0000,-96.5072,552.4441,438.7817,705.1918,-253.5644,-1380.5719
34600.0000,-99.2757,576.5809,433.2891,702.8008,-224.1011,-1412.1331
34620.0000,-72.4515,599.3829,432.6907,700.1765,-240.4749,-1467.5945
34640.0000,-58.2769,594.7049,439.2634,698.8107,-258.8969,-1513.2129
34660.0000,-60.4755,595.2526,436.7711,702.1520,-239.6632,-1543.5768
34680.0000,-87.2509,567.7628,438.2225,699.8276,-233.8279,-1588.1418
34700.0000,-87.5466,567.1665,436.7598,697.1379,-215.6160,-1618.5410
34720.0000,-92.2318,549.8378,437.2992,704.8412,-232.8740,-1650.2031
34740.0000,-113.5678,532.0430,438.7320,693.1307,-265.6896,-1716.5811
34760.0000,-104.2359,539.9618,436.2659,701.8309,-255.8042,-1739.2321
34780.0000,-102.5211,545.0204,442.6893,697.1150,-254.8067,-1792.7482
34800.0000,-120.2877,526.9757,439.3253,697.8456,-250.6878,-1825.2150
34820.0000,-121.4989,511.9080,441.6176,697.1059,-272.8631,-1869.7356
34840.0000,-128.2914,499.0410,439.3454,692.8477,-304.5308,-1916.2992
34860.0000,-123.4869,505.8434,439.6104,702.1021,-292.0222,-1936.7200
34880.0000,-136.3826,498.1329,443.3387,699.8746,-290.4245,-2011.2629
34900.0000,-135.4406,520.8405,441.5792,697.0880,-288.1574,-2055.7676
34920.0000,-126.3622,520.1391,434.3557,699.8882,-285.5000,-2099.2866
34940.0000,-132.4155,512.8318,438.6330,696.0964,-285.1786,-2140.7197
34960.0000,-137.4490,517.1526,443.3836,699.9044,-283.2218,-2176.2891
34980.0000,-155.3200,509.8195,437.5562,696.0786,-297.3351,-2213.8232
35000.0000,-157.4671,507.1149,440.3688,687.9010,-293.2028,-2287.3955
35020.0000,-149.3051,507.8500,433.5530,696.0631,-288.4422,-2299.7874
35040.0000,-150.6090,516.1075,440.3974,692.9187,-298.1568,-2349.2937
35060.0000,-153.2822,506.8403,437.4984,691.0432,-300.3796,-2385.7607
35080.0000,-149.6207,501.1352,441.4832,694.9457,-296.0863,-2388.3115
35100.0000,-154.1757,503.8782,443.5478,692.0362,-314.5001,-2446.8118
35120.0000,-139.7088,517.0576,434.4991,695.9709,-290.9589,-2441.4282
35140.0000,-145.0881,508.9093,436.4971,695.0073,-295.7425,-2478.8726
35160.0000,-145.7362,509.0160,436.5208,696.9674,-291.7467,-2492.4993
35180.0000,-131.0109,520.9816,437.3972,699.9901,-279.8360,-2508.8953
35200.0000,-140.8116,506.8931,440.5326,705.0118,-285.7297,-2521.5100
35220.0000,-150.9900,496.0744,436.4241,699.9715,-297.9033,-2557.9080
35240.0000,-127.9257,510.8434,442.6780,703.0182,-294.6279,-2562.5859
35260.0000,-124.9054,521.1503,438.3732,699.9490,-293.8221,-2570.7756
35280.0000,-133.9637,509.7179,439.6776,698.0369,-316.6848,-2597.5186
35300.0000,-140.7700,504.2555,439.2680,694.9251,-337.0730,-2620.8140
35320.0000,-142.0934,507.6420,436.6769,697.0493,-339.4179,-2629.5999
35340.0000,-120.7326,501.3425,438.2936,703.9038,-337.1628,-2633.9028
35360.0000,-124.1356,501.5205,438.7023,696.0942,-338.4750,-2648.6111
35380.0000,-137.6388,503.4377,439.1914,699.8900,-333.0540,-2662.8936
35400.0000,-128.2458,506.3874,437.8032,697.0857,-314.3101,-2662.7207
35420.0000,-137.5514,511.6309,437.1685,697.8630,-311.1789,-2662.8892
35440.0000,-153.2971,490.2911,435.8500,691.1199,-320.3973,-2677.6382
35460.0000,-145.5179,512.7047,442.1605,698.8519,-306.1787,-2671.8784
35480.0000,-150.4026,496.1727,437.8738,699.1326,-341.4082,-2691.7417
35500.0000,-159.3689,484.8405,439.0874,700.8501,-327.2568,-2676.7717
35520.0000,-152.5000,503.0083,434.8631,701.1594,-308.2820,-2667.6628
35540.0000,-142.3034,504.9623,438.1222,701.8135,-310.1849,-2664.9148
35560.0000,-145.5837,501.9272,438.8670,698.1500,-313.3150,-2655.6396
35580.0000,-149.2079,498.1505,438.0943,696.8012,-333.1858,-2669.7852
35600.0000,-120.6322,509.7867,437.9575,700.1745,-296.2260,-2641.7739
35620.0000,-124.1518,512.2733,440.0608,701.7939,-301.1723,-2627.6873
35640.0000,-121.7786,523.6526,441.9557,709.1855,-299.3087,-2622.8108
35660.0000,-105.0518,530.3505,442.0327,706.7943,-287.3316,-2597.6294
35680.0000,-93.8488,532.5333,439.9784,709.1845,-286.4220,-2591.8000
35700.0000,-108.9124,524.4617,438.9803,705.7872,-300.2207,-2594.7393
35720.0000,-113.9861,520.4043,438.9370,706.1653,-311.4555,-2595.7070
35740.0000,-103.8298,515.6407,434.0609,703.8043,-305.2091,-2573.6626
35760.0000,-110.0581,540.2869,439.9960,702.1659,-334.5440,-2576.7590
35780.0000,-93.7460,538.7628,436.0447,700.8182,-316.0952,-2563.5964
35800.0000,-91.1484,543.1792,439.9980,704.1713,-320.5995,-2559.8638
35820.0000,-90.6830,533.8071,443.0610,701.8008,-305.9274,-2558.4346
35840.0000,-99.2110,533.1223,434.9657,702.1506,-299.6458,-2555.8208
35860.0000,-91.5424,539.9166,440.0243,708.8288,-284.7794,-2537.5286
35880.0000,-122.3369,507.9656,434.9621,708.1523,-295.8085,-2545.8774
35900.0000,-117.4634,517.0047,436.9928,707.8344,-280.7213,-2539.2976
35920.0000,-113.4071,526.9280,437.9871,709.1443,-277.9471,-2534.0957
35940.0000,-111.4200,532.1047,437.0108,705.8376,-272.7068,-2525.3337
35960.0000,-93.5169,530.8040,440.8905,703.1183,-283.9956,-2503.1255
35980.0000,-91.2843,536.2048,439.0192,710.8566,-278.5045,-2486.2388
36000.0000,-88.6057,543.7871,433.9696,711.0956,-267.0247,-2476.2383
