t,AF3,F7,F3,F4,F8,AF7
0.0000,-313.3723,433.7980,583.4380,716.5306,-437.4675,-222.6603
20.0000,-319.2061,431.0479,582.4879,728.2963,-422.0606,-209.9146
40.0000,-300.3029,447.0476,586.5106,738.7772,-394.2566,-207.3777
60.0000,-297.5907,448.9791,585.4639,736.9165,-397.4066,-206.0038
80.0000,-303.9692,436.2520,583.5301,754.1919,-432.9759,-209.3106
100.0000,-346.8282,414.5486,578.4241,724.6790,-454.7539,-272.4668
120.0000,-290.5696,437.4332,586.5934,743.5642,-437.6061,-214.9037
140.0000,-301.1784,435.3696,578.3835,753.3609,-414.2582,-219.7131
160.0000,-305.3869,420.7756,589.6013,725.8801,-430.1698,-236.6169
180.0000,-317.4199,435.0258,579.3563,705.8178,-425.5665,-255.0311
200.0000,-313.0387,424.1120,580.6708,700.2260,-454.7262,-263.3126
220.0000,-288.8697,428.6852,595.3430,746.3300,-450.0768,-250.4178
240.0000,-263.3975,438.5153,581.7061,778.9207,-410.2202,-217.6642
260.0000,-258.3100,431.2372,588.2628,750.8832,-401.5076,-218.9893
280.0000,-295.1092,438.0365,579.7135,713.2874,-429.7307,-284.2578
300.0000,-343.8604,393.8402,586.2819,669.4204,-493.9315,-348.5468
320.0000,-271.3581,465.3686,583.7056,731.8653,-445.3547,-286.8074
340.0000,-267.4021,433.2548,581.2348,754.9104,-442.4471,-275.9020
360.0000,-249.8855,457.8477,578.7272,759.3711,-423.7459,-260.3013
380.0000,-278.0903,420.7929,580.2763,708.4027,-469.9768,-306.5773
400.0000,-296.4102,429.4916,580.7454,709.8240,-432.3012,-306.7023
420.0000,-361.6645,365.1696,580.2751,673.7789,-509.5414,-390.1223
440.0000,-315.8184,405.0345,581.7484,675.3356,-502.8765,-376.2854
460.0000,-299.2982,433.6612,586.2756,707.3276,-461.0085,-317.5141
480.0000,-307.1535,417.5499,575.6915,704.9246,-444.2448,-333.5685
500.0000,-351.8466,383.9869,580.2986,686.9175,-467.3928,-371.1319
520.0000,-336.4418,391.2708,580.7105,705.4285,-456.9381,-357.0558
540.0000,-322.3392,401.5439,584.2974,699.2194,-467.8676,-369.7113
560.0000,-292.8784,427.8439,581.6921,735.8667,-460.3581,-351.5240
580.0000,-199.9270,496.9137,586.3400,787.9822,-374.2905,-268.2027
600.0000,-278.2854,433.1959,585.6401,728.3071,-439.9598,-355.1841
620.0000,-314.4903,401.3998,582.3423,698.3391,-461.8755,-397.7583
640.0000,-334.7572,393.7874,582.5814,679.7639,-497.7086,-439.6971
660.0000,-258.0036,455.9659,586.4109,740.9475,-442.0312,-370.0243
680.0000,-266.2264,451.3922,581.5872,759.0432,-447.2043,-364.3780
700.0000,-273.4100,460.3295,581.4150,718.6602,-468.4440,-422.6075
720.0000,-207.8409,488.7804,583.5079,779.5035,-416.0277,-335.8221
740.0000,-283.0231,428.9406,575.4655,720.4348,-461.6534,-408.7407
760.0000,-311.5891,406.1058,581.5021,719.5881,-479.8380,-443.6428
780.0000,-281.3244,437.7578,586.5392,725.2317,-472.9777,-426.0574
800.0000,-266.2057,448.4189,583.4213,716.8034,-492.6232,-453.4523
820.0000,-237.4737,476.4798,580.5888,743.1594,-463.1060,-426.2495
840.0000,-191.9204,513.6192,578.3943,734.0887,-422.5872,-391.2453
860.0000,-216.7799,489.0962,581.5865,782.8804,-429.1064,-412.4005
880.0000,-269.6609,449.7951,582.3273,695.9206,-479.5582,-495.1227
900.0000,-248.8825,471.0469,573.6742,711.9518,-474.0587,-478.4370
920.0000,-289.5384,421.0112,577.3041,668.9024,-555.6635,-557.1178
940.0000,-160.9219,540.0182,581.6671,749.0753,-444.0109,-445.4503
960.0000,-212.5033,488.0541,578.2729,740.8608,-459.7320,-472.1999
980.0000,-177.9238,471.8626,584.7247,734.1166,-462.9329,-462.4051
1000.0000,-267.7129,421.9574,589.2170,653.7545,-510.7726,-561.2146
1020.0000,-239.8985,501.9799,574.7314,700.4691,-483.6079,-571.2383
1040.0000,-162.7883,526.0288,587.2292,722.3671,-455.1662,-510.5165
1060.0000,-149.6286,536.9842,583.7701,739.6385,-436.3283,-479.0632
1080.0000,-202.9883,479.7369,582.1714,710.1546,-460.4768,-524.7557
1100.0000,-175.6150,491.2870,588.7722,709.0873,-463.9254,-522.9158
1120.0000,-201.1881,493.4986,583.1641,680.7225,-505.7976,-567.0056
1140.0000,-205.1927,475.4960,582.7899,694.4013,-497.5838,-557.5150
1160.0000,-152.5430,529.2390,583.1585,731.3172,-436.0492,-500.3041
1180.0000,-146.9141,509.7625,581.7852,729.8596,-446.0606,-494.0137
1200.0000,-153.8457,503.8901,585.1738,735.8679,-451.7162,-507.6978
1220.0000,-161.4491,522.2903,578.8118,701.2986,-460.8019,-525.7057
1240.0000,-180.2520,509.4705,579.1903,683.4130,-475.1407,-543.3027
1260.0000,-203.0452,470.6280,574.7717,662.9490,-494.1224,-563.2515
1280.0000,-167.8540,481.0477,581.2186,704.8290,-486.5652,-537.6539
1300.0000,-173.6000,482.0711,576.7684,705.3757,-472.6990,-537.6643
1320.0000,-123.3054,494.5955,578.2180,741.3123,-435.1064,-488.1123
1340.0000,-142.9561,487.5916,576.7421,735.9200,-458.0791,-516.2164
1360.0000,-138.7764,494.1213,579.2541,689.7092,-465.6364,-541.6772
1380.0000,-173.4378,477.0706,579.7343,646.6146,-507.4688,-582.7772
1400.0000,-142.3148,514.7426,579.2901,655.9514,-503.1999,-567.0598
1420.0000,-77.9478,569.5630,576.6736,696.1626,-454.0071,-511.3135
1440.0000,-51.8547,575.2780,575.2985,712.5461,-432.9132,-488.6904
1460.0000,-80.3615,537.0227,582.6251,672.7287,-468.4438,-521.7645
1480.0000,-86.4390,547.7165,582.3394,662.7864,-492.4916,-525.1852
1500.0000,-83.7001,546.4583,589.5806,641.2852,-491.9649,-553.4166
1520.0000,-66.0802,571.3309,581.4284,670.2281,-454.8687,-517.5363
1540.0000,-54.1934,573.9958,586.5662,676.8265,-462.3958,-511.9525
1560.0000,-62.4871,568.8077,584.4459,678.8322,-451.5112,-499.8137
1580.0000,-49.5224,569.3964,584.5031,668.4277,-460.9916,-504.5767
1600.0000,-64.1466,550.4858,584.4954,651.3478,-486.9515,-529.2185
1620.0000,-51.9938,566.8406,584.4517,673.9500,-489.3610,-525.1979
1640.0000,-18.6672,593.9134,585.5539,679.7051,-441.3027,-483.6671
1660.0000,-11.5181,593.1494,580.4260,688.3463,-424.0059,-487.9977
1680.0000,-46.0270,587.5769,590.5852,662.3419,-459.6496,-514.9639
1700.0000,-73.1356,567.5641,577.3582,628.8069,-467.6838,-533.6191
1720.0000,-50.3664,584.2659,580.6615,651.8975,-433.0010,-502.0914
1740.0000,-48.8074,572.0145,589.2972,647.0228,-448.2544,-492.5571
1760.0000,-22.9546,591.0789,580.7057,673.7347,-420.3788,-477.3872
1780.0000,-30.2572,590.1885,582.2569,673.4318,-420.9125,-487.3466
1800.0000,-23.3327,589.6694,585.7256,673.4277,-443.6143,-496.5576
1820.0000,-45.0633,558.5504,582.2233,676.6846,-445.6132,-495.0706
1840.0000,-19.5151,584.6369,579.7668,711.1616,-454.9872,-490.5383
1860.0000,-2.6897,606.6989,588.1852,706.9014,-432.4362,-480.1260
1880.0000,-34.7506,580.3225,575.7650,697.8762,-424.0984,-485.5867
1900.0000,-50.4825,570.8315,575.1635,692.2197,-439.2896,-499.9733
1920.0000,-34.1014,586.1210,585.8146,730.6190,-400.4682,-464.6743
1940.0000,30.6956,612.9814,584.1552,734.2831,-385.9645,-440.0711
1960.0000,5.4393,585.0737,584.8275,687.4618,-448.5416,-480.6287
1980.0000,-27.9154,569.0654,586.1546,676.5543,-471.8400,-516.9244
2000.0000,-9.5104,596.8594,576.8315,731.2266,-419.6558,-466.6852
2020.0000,-3.8265,615.2861,587.1540,754.6639,-386.7823,-437.8658
2040.0000,13.0758,625.9037,582.8304,763.1589,-368.9283,-431.7253
2060.0000,-47.5441,579.3721,578.1356,672.6552,-440.6749,-499.8886
2080.0000,-39.0448,606.7620,587.8691,700.1464,-426.9757,-498.7802
2100.0000,-16.3227,628.3578,586.1464,756.9509,-389.4323,-431.9304
2120.0000,38.7164,648.6562,584.8395,794.0833,-351.0353,-387.6080
2140.0000,-14.1206,590.5682,586.1545,751.9802,-384.3374,-432.8233
2160.0000,-36.1173,605.4498,586.8445,716.0082,-409.2773,-447.6683
2180.0000,-8.0105,620.4883,587.1761,734.8987,-401.2344,-440.8844
2200.0000,17.5442,627.3846,584.8124,769.0043,-374.4419,-399.6429
2220.0000,60.8292,663.7020,590.1619,830.1326,-325.9529,-345.8439
2240.0000,10.3063,601.3647,588.8214,774.8885,-372.5091,-407.7509
2260.0000,2.0681,634.8743,585.2014,803.1847,-359.9058,-386.8885
2280.0000,-15.5267,617.3394,585.7708,758.8246,-384.6589,-417.8287
2300.0000,-5.8770,626.9476,591.2234,769.1638,-373.8485,-390.7559
2320.0000,-1.8504,624.0948,584.7320,790.7632,-356.6606,-378.8229
2340.0000,25.0258,647.9459,588.2352,842.2206,-320.5586,-329.7190
2360.0000,-7.7052,628.0935,584.6985,782.6666,-347.9738,-361.0293
2380.0000,-42.6677,590.0419,582.2784,734.3482,-398.4778,-418.4612
2400.0000,-55.8853,594.8812,584.6614,728.5497,-419.2546,-436.1362
2420.0000,-15.4186,610.4078,585.3397,744.5303,-404.1784,-406.2640
2440.0000,12.7531,616.7417,584.6204,789.2975,-387.4319,-384.3189
2460.0000,14.3348,627.5709,577.3724,792.6893,-370.1249,-372.2115
2480.0000,-29.1987,576.3912,588.6089,755.3217,-406.4909,-424.4993
2500.0000,-55.2250,560.7510,583.4097,729.6553,-428.9646,-437.9637
2520.0000,-58.2748,564.2535,584.5344,729.1252,-438.7298,-461.8684
2540.0000,-45.2356,588.9553,588.4372,769.7958,-414.6596,-426.7874
2560.0000,-41.3438,561.9970,589.4748,771.1205,-406.9304,-390.0255
2580.0000,-73.1881,559.1064,584.5057,759.8541,-411.4709,-420.4025
2600.0000,-56.3754,564.7684,582.4303,762.9753,-409.1919,-407.3271
2620.0000,-40.0629,581.2858,589.5347,770.0153,-400.1644,-402.2593
2640.0000,-52.5414,573.7388,587.4225,764.9058,-417.3726,-402.5947
2660.0000,-59.0551,559.4968,586.6113,763.2883,-418.0806,-399.7632
2680.0000,-83.6181,552.4288,590.3442,766.6439,-422.5908,-418.8154
2700.0000,-70.0349,549.5895,587.6687,767.2791,-407.8696,-394.6459
2720.0000,-84.6278,551.2850,585.3108,772.6948,-412.8434,-398.1891
2740.0000,-55.9561,585.8220,584.6904,782.4879,-386.5228,-367.2427
2760.0000,-13.6281,613.0507,583.2539,828.4255,-365.1474,-319.4242
2780.0000,0.1784,625.0278,585.7399,838.4117,-370.4084,-307.9502
2800.0000,-23.7831,597.9384,589.2026,811.4061,-401.2236,-344.8505
2820.0000,-69.9044,562.3514,584.7787,770.5415,-415.1690,-377.5422
2840.0000,-45.6644,596.5910,586.1873,772.4280,-399.6247,-352.1704
2860.0000,-59.7611,578.3691,586.8359,776.5709,-422.9144,-359.3126
2880.0000,-34.6430,585.4226,586.1451,811.2429,-393.6789,-326.4856
2900.0000,-56.7754,561.5219,584.8644,821.7020,-413.6656,-333.0201
2920.0000,-88.6409,533.4476,580.1132,816.2529,-407.9018,-344.6694
2940.0000,-110.7982,534.5946,585.9116,785.8409,-409.6316,-347.7959
2960.0000,-52.7600,593.2163,585.0580,802.2455,-396.9249,-318.9525
2980.0000,-83.6976,550.7568,584.9407,800.7469,-429.4807,-346.4306
3000.0000,-96.6346,546.0925,589.0016,835.1721,-390.2343,-315.2774
3020.0000,-129.9368,522.8468,587.9954,822.9488,-390.3141,-321.0606
3040.0000,-136.5907,508.1636,584.9924,805.1960,-396.2420,-331.4574
3060.0000,-154.8213,488.9311,578.0040,769.8738,-428.1512,-351.8537
3080.0000,-137.6730,516.1624,582.9489,783.2687,-415.3748,-329.7000
3100.0000,-122.9633,516.0048,586.0408,798.8848,-423.1225,-319.7800
3120.0000,-160.5885,498.0255,582.9198,803.1915,-411.3531,-324.8734
3140.0000,-156.1522,488.9308,588.0796,781.6959,-419.2180,-332.4907
3160.0000,-188.5224,479.0143,584.9105,740.3356,-453.3695,-366.9577
3180.0000,-175.1043,476.9610,594.0927,751.6830,-469.1646,-364.4466
3200.0000,-157.3854,492.1377,586.9069,785.2253,-435.4448,-314.2375
3220.0000,-142.3462,495.7119,586.1039,823.6814,-434.1954,-287.2162
3240.0000,-152.2209,485.0917,584.8740,815.4804,-461.3433,-307.3759
3260.0000,-184.5280,464.6619,582.0897,765.5125,-460.0938,-329.2674
3280.0000,-218.9805,429.2115,590.8529,754.4848,-495.3653,-350.2565
3300.0000,-218.6712,408.5747,583.1074,753.5489,-482.1466,-363.0348
3320.0000,-217.0348,416.4577,584.8530,776.5085,-461.2907,-324.3568
3340.0000,-212.6082,430.4737,587.1430,799.4401,-443.3843,-307.0759
3360.0000,-197.8182,461.5625,582.8338,819.5950,-411.2788,-290.5411
3380.0000,-217.7720,437.4672,581.1548,785.4136,-419.3754,-293.0543
3400.0000,-245.7373,405.7153,583.8419,758.5974,-451.1774,-318.5198
3420.0000,-225.0222,439.1639,580.1433,779.4001,-443.5057,-293.9089
3440.0000,-218.5047,451.7383,585.8629,778.7939,-465.1966,-296.4795
3460.0000,-219.1680,450.0295,589.0972,786.1902,-442.4390,-281.0127
3480.0000,-279.5491,397.9601,586.8792,775.8755,-472.1719,-316.5839
3500.0000,-303.1572,387.9549,580.1255,744.0295,-490.6485,-343.9228
3520.0000,-281.5257,404.0468,582.8651,730.8708,-475.9636,-328.5782
3540.0000,-285.3323,401.8031,586.0964,825.1768,-469.6070,-329.9708
3560.0000,-210.3981,460.1732,585.9099,830.8988,-390.0847,-236.3881
3580.0000,-205.4214,481.7492,584.0628,845.9393,-373.6164,-229.9598
3600.0000,-274.2314,427.2532,584.9188,773.0419,-422.0695,-308.4545
3620.0000,-262.4967,408.6762,583.0342,786.8990,-417.7018,-288.9506
3640.0000,-266.1160,401.4490,580.9653,804.8892,-420.8757,-282.4133
3660.0000,-228.5352,447.5645,585.0249,845.8782,-374.8340,-240.0740
3680.0000,-191.1407,477.4856,586.9877,884.9622,-361.8252,-220.3582
3700.0000,-251.5474,450.4594,582.9754,837.8559,-387.8047,-264.1429
3720.0000,-275.0083,421.5874,588.0308,816.1262,-402.8987,-274.2493
3740.0000,-230.4119,459.3331,580.9797,852.0514,-362.8387,-242.1288
3760.0000,-285.1064,408.5707,580.0561,803.0887,-397.8853,-291.2203
3780.0000,-274.5732,413.1362,580.9424,822.9542,-392.8498,-275.2126
3800.0000,-265.1150,427.6706,580.0947,843.1286,-361.7813,-270.1922
3820.0000,-284.4268,411.2794,583.8712,814.0517,-398.7354,-288.3680
3840.0000,-254.9901,408.6726,581.1452,820.0516,-411.7192,-282.1096
3860.0000,-259.6114,421.0993,579.8509,822.0366,-397.8371,-270.3436
3880.0000,-237.0918,447.6967,588.1882,847.9485,-377.9058,-256.0471
3900.0000,-281.4600,418.9857,586.8047,780.8135,-457.8081,-316.5694
3920.0000,-273.1791,412.8637,584.2040,824.1918,-437.8325,-288.8893
3940.0000,-279.5794,404.9813,590.7368,790.8755,-463.9363,-314.7255
3960.0000,-210.2099,469.7779,588.2798,868.1470,-398.7606,-233.6991
3980.0000,-161.3944,505.0201,590.6890,910.9629,-349.7179,-181.8428
4000.0000,-215.0889,473.8857,580.3220,873.1895,-397.8698,-231.6127
4020.0000,-202.5266,460.0424,582.6352,850.7272,-389.9367,-244.0647
4040.0000,-234.1789,451.8616,585.3506,851.3073,-418.7385,-261.3474
4060.0000,-184.3173,495.1785,582.5928,893.7010,-364.7231,-201.1901
4080.0000,-183.1576,502.7950,589.3695,902.4037,-371.6898,-206.3032
4100.0000,-193.2773,517.2092,588.5421,898.6387,-360.9134,-207.3167
4120.0000,-217.2195,457.7941,587.4478,865.3974,-437.7514,-244.1220
4140.0000,-183.3766,495.2004,589.5152,888.4869,-403.8667,-208.6336
4160.0000,-171.2176,522.7471,582.4431,903.5056,-363.6516,-194.6981
4180.0000,-171.4307,515.1651,588.4730,899.5819,-391.8941,-220.9142
4200.0000,-171.1987,508.7529,589.4771,910.7297,-394.6706,-226.5182
4220.0000,-179.2800,486.2334,585.4696,900.3338,-392.0042,-231.2687
4240.0000,-187.2679,486.7386,593.5367,895.7764,-409.5602,-237.1574
4260.0000,-156.3202,513.0680,589.4205,973.1595,-395.2874,-222.3941
4280.0000,-52.9749,631.9941,588.5804,1011.9416,-299.3141,-122.8130
4300.0000,-49.5003,629.1381,589.3921,1018.9520,-309.3609,-131.8734
4320.0000,-92.9046,597.8310,583.5644,995.2097,-331.1880,-153.4862
4340.0000,-128.6583,571.9704,584.3931,958.8154,-346.5222,-190.1107
4360.0000,-79.9193,610.9656,584.5839,985.3718,-306.9356,-154.1905
4380.0000,-83.7204,611.1517,584.3795,987.6210,-312.6652,-145.5255
4400.0000,-75.8856,616.0719,591.5967,985.6237,-321.7122,-159.6816
4420.0000,-119.7153,576.8961,583.3629,941.3768,-352.8428,-193.9919
4440.0000,-135.7510,577.1267,584.6035,939.8969,-337.6115,-175.2209
4460.0000,-119.8807,578.8770,587.3909,942.9202,-354.2249,-186.3460
4480.0000,-81.5597,595.1163,577.6021,990.2853,-313.2920,-128.9181
4500.0000,-78.2035,611.8401,588.3497,968.7341,-322.4471,-137.8318
4520.0000,-116.3162,575.2402,589.5787,949.4033,-340.0467,-170.4243
4540.0000,-109.4370,563.7816,589.3643,970.4878,-334.7511,-154.2189
4560.0000,-79.1085,607.4670,584.5849,988.8085,-295.7336,-140.0773
4580.0000,-116.5504,567.5707,586.4106,911.1591,-347.9688,-185.6695
4600.0000,-125.7546,528.4468,586.5833,882.0570,-400.5667,-208.6526
4620.0000,-158.8463,530.5032,587.4366,910.8615,-386.1757,-228.2588
4640.0000,-178.6333,517.5400,590.5367,867.2464,-402.3245,-263.2845
4660.0000,-194.9530,520.2857,583.4323,834.3765,-433.4677,-298.5728
4680.0000,-217.4321,488.7838,589.5007,820.6519,-430.8574,-309.8221
4700.0000,-169.2309,533.2292,587.4918,899.2859,-390.8580,-262.9386
4720.0000,-150.0421,555.9256,588.5171,912.9166,-345.6306,-239.3071
4740.0000,-166.5115,530.1080,586.5181,846.8454,-384.1143,-242.3576
4760.0000,-176.8921,525.0905,581.4826,863.3131,-349.4152,-269.9512
4780.0000,-156.9251,555.8829,592.5450,893.6909,-301.3231,-234.8869
4800.0000,-138.4282,550.2545,588.4452,901.5667,-303.0112,-230.6945
4820.0000,-176.0480,518.8139,592.5807,884.3017,-319.7718,-251.1657
4840.0000,-178.1416,518.2642,586.3934,873.6799,-302.7117,-257.2278
4860.0000,-185.5472,516.5997,589.5941,872.1449,-296.0108,-264.3958
4880.0000,-196.0124,511.5202,585.3480,862.9299,-330.3559,-310.8740
4900.0000,-158.6922,544.4687,592.6575,896.8701,-228.1559,-245.6749
4920.0000,-179.6557,513.4804,589.2859,874.0994,-262.1932,-272.6058
4940.0000,-201.9448,500.2914,589.6736,852.7721,-246.5910,-293.9775
4960.0000,-213.4043,489.7470,591.2592,800.3796,-286.9010,-347.5083
4980.0000,-186.3269,516.2562,587.7522,847.5974,-228.6617,-289.1447
5000.0000,-129.2484,551.7999,596.2596,884.4767,-200.6133,-249.2516
5020.0000,-138.5271,519.1330,585.7720,910.6144,-175.9866,-241.2690
5040.0000,-172.9251,503.9258,593.2036,922.5393,-168.3993,-246.0444
5060.0000,-194.6130,479.1370,588.7740,879.4120,-206.1588,-299.5135
5080.0000,-186.7137,495.9886,586.1725,846.6791,-202.2489,-307.9445
5100.0000,-174.8137,493.9777,588.8052,852.3642,-200.4275,-296.5488
5120.0000,-146.5358,515.0855,590.1205,856.7816,-195.9436,-300.0121
5140.0000,-109.9393,523.9809,585.8602,901.2916,-161.5350,-255.7627
5160.0000,-157.3947,499.9944,588.1364,907.8138,-132.8996,-256.9433
5180.0000,-146.1618,540.9249,580.8979,869.2697,-138.5009,-288.7385
5200.0000,-137.2778,552.1046,592.0935,899.7950,-114.8405,-261.9857
5220.0000,-132.2604,548.9300,587.9136,898.3294,-95.6985,-244.5941
5240.0000,-124.0761,548.2236,585.0801,924.6924,-82.7297,-231.0257
5260.0000,-109.3927,558.9809,592.9087,969.5065,-45.8666,-204.5919
5280.0000,-182.1123,498.2425,585.0731,890.5729,-99.4186,-281.9489
5300.0000,-183.4849,498.8668,592.9140,887.4565,-94.9867,-289.4751
5320.0000,-138.8408,542.0662,580.0877,942.6378,-40.5387,-220.0208
5340.0000,-122.6423,549.7823,584.9042,965.5394,-31.0349,-199.3947
5360.0000,-182.0290,506.0299,587.0907,918.5019,-62.2919,-245.2743
5380.0000,-200.5613,503.9276,580.9213,893.6151,-83.9623,-276.3294
5400.0000,-189.8249,530.1144,584.0767,887.2765,-42.2796,-243.4587
5420.0000,-185.6282,542.9402,587.9090,898.7639,-66.0590,-260.0080
5440.0000,-157.8827,572.0930,589.0776,956.2415,-5.2476,-198.6391
5460.0000,-166.5056,555.8179,590.8608,933.9146,-22.0066,-202.8051
5480.0000,-222.0677,513.0933,592.1194,876.0207,-68.3788,-251.6949
5500.0000,-257.4738,488.8485,583.8390,842.1028,-88.9789,-280.7938
5520.0000,-212.0253,510.0882,589.1234,868.7852,-61.3450,-237.0540
5540.0000,-182.4654,534.9839,587.8408,914.3068,-29.9358,-185.5721
5560.0000,-118.1033,591.9641,590.1586,968.8306,27.4074,-118.2415
5580.0000,-153.3875,563.9286,584.7860,952.4481,6.8823,-147.3257
5600.0000,-201.1892,526.0970,590.1942,875.5720,-7.3531,-167.3953
5620.0000,-230.2627,513.0213,584.7480,882.6111,-45.9771,-197.9670
5640.0000,-257.4296,490.9510,590.2312,836.2816,-93.4621,-247.6026
5660.0000,-183.0324,557.0729,581.6871,891.6530,-31.8915,-153.8526
5680.0000,-156.4131,585.9334,587.3040,951.2225,3.2424,-99.9567
5700.0000,-181.9600,565.1311,589.6538,892.7208,7.8882,-122.5777
5720.0000,-232.6357,529.9479,588.3506,871.2490,-46.5090,-176.1946
5740.0000,-265.7322,491.9171,588.6057,815.9666,-98.8210,-237.2595
5760.0000,-258.7657,501.0426,590.3518,874.1015,-59.4845,-206.3447
5780.0000,-189.7054,563.0375,593.6017,935.9540,29.9558,-93.0891
5800.0000,-218.0132,529.0554,582.3865,901.9102,-26.5773,-148.4667
5820.0000,-283.5572,471.9310,590.5380,844.0955,-57.8838,-198.8012
5840.0000,-250.1389,496.9440,588.4744,859.7068,-64.5500,-173.8089
5860.0000,-266.3685,479.0334,588.4822,851.2786,-80.7722,-182.6324
5880.0000,-238.3683,527.0213,587.5060,885.6954,-40.7484,-163.1090
5900.0000,-208.0298,534.0780,591.4672,913.3584,-23.7489,-118.4286
5920.0000,-225.4503,532.0920,585.5255,873.7249,-55.7672,-155.2277
5940.0000,-240.9477,513.8593,583.4264,862.4020,-44.6026,-163.2240
5960.0000,-236.7074,507.9942,590.5443,855.5670,-88.7560,-175.5556
5980.0000,-203.7605,535.8449,594.4229,876.4152,-41.6172,-130.0542
6000.0000,-197.8076,555.0751,579.6002,832.4119,-77.8855,-166.5639
6020.0000,-232.5239,515.8689,591.3713,813.5740,-111.5017,-187.7383
6040.0000,-218.0148,525.0367,593.6237,859.3403,-69.7630,-132.9033
6060.0000,-224.2934,522.9362,586.3640,831.4528,-105.5715,-164.6439
6080.0000,-239.3524,501.2102,590.6211,844.4310,-109.7516,-161.8892
6100.0000,-232.1374,520.8463,589.3151,831.5005,-136.6388,-184.5722
6120.0000,-213.5643,522.1232,585.6533,867.2706,-78.0056,-140.2082
6140.0000,-205.9745,527.7017,587.3387,869.7527,-79.5984,-136.3526
6160.0000,-233.7516,500.1228,588.6901,832.2188,-115.0649,-167.2268
6180.0000,-230.8532,521.6979,589.2891,822.6569,-146.5442,-181.2135
6200.0000,-218.7517,533.2004,595.6974,840.2048,-121.9099,-152.4870
6220.0000,-196.6294,555.6529,588.2755,865.7115,-103.3436,-134.9846
6240.0000,-192.9872,551.3155,585.6794,857.3082,-115.1653,-138.4288
6260.0000,-212.2773,537.7691,588.2739,848.8495,-135.2796,-155.8023
6280.0000,-226.3029,533.1831,586.6839,840.0967,-160.1862,-152.7687
6300.0000,-185.1636,567.8410,591.3004,894.8858,-123.1791,-107.8117
6320.0000,-184.4204,560.2514,588.6927,892.2222,-133.2241,-101.7639
6340.0000,-225.8770,517.8409,590.3042,863.8433,-163.2792,-139.5663
6360.0000,-248.7581,514.1040,588.6791,834.9575,-176.2326,-163.9255
6380.0000,-226.8446,521.7526,586.3398,838.0297,-166.1631,-145.5779
6400.0000,-237.9351,520.2717,588.6652,841.9930,-179.2674,-153.1351
6420.0000,-233.5399,513.7654,588.3187,884.0891,-176.0681,-129.3017
6440.0000,-195.1404,537.1991,585.6266,886.9854,-144.3990,-71.1031
6460.0000,-234.2766,516.7918,589.3426,842.9807,-185.9888,-126.3709
6480.0000,-275.3109,480.0245,590.5905,798.8451,-230.5295,-165.3157
6500.0000,-243.2822,520.0746,588.3572,820.1920,-215.8740,-130.2087
6520.0000,-177.3271,565.0826,590.5688,900.7949,-136.6178,-41.3286
6540.0000,-224.0282,532.9966,592.4110,842.2446,-169.6894,-94.0786
6560.0000,-267.6194,500.9785,588.5799,801.6551,-223.6817,-137.2840
6580.0000,-233.7622,516.0818,587.4532,838.4318,-205.7308,-100.1463
6600.0000,-203.8834,548.8494,592.5308,858.5234,-176.7783,-77.5007
6620.0000,-200.7124,543.2581,594.4800,859.3661,-193.5865,-62.0536
6640.0000,-245.8762,511.8147,593.5092,817.4907,-238.8673,-126.4705
6660.0000,-269.5366,506.1660,591.4882,793.5728,-251.6281,-139.9875
6680.0000,-267.1834,516.5195,593.4777,767.5064,-256.0194,-150.5511
6700.0000,-268.4803,534.4953,593.5345,818.6080,-229.5033,-147.8060
6720.0000,-229.1479,514.5845,597.4249,845.4197,-238.1985,-111.4836
6740.0000,-271.3446,497.4218,595.5791,823.7411,-256.4175,-137.9435
6760.0000,-303.2737,467.4589,594.4279,777.1737,-304.3703,-172.6411
6780.0000,-276.3130,493.5985,592.5859,804.8438,-291.2957,-146.8998
6800.0000,-279.4884,481.3484,593.3897,797.2009,-311.5273,-155.6182
6820.0000,-249.1361,525.5476,591.6122,795.9749,-281.2361,-132.9549
6840.0000,-293.5463,509.2943,594.3654,811.0986,-304.5696,-184.6220
6860.0000,-241.0350,519.6356,596.6278,813.9013,-301.1316,-140.8409
6880.0000,-256.5872,511.2966,591.3104,800.9657,-321.6960,-151.3912
6900.0000,-284.0222,462.7578,594.6940,778.0176,-367.1620,-181.9869
6920.0000,-222.5877,537.1898,595.3155,849.8653,-295.6667,-110.4829
6940.0000,-272.0855,502.6907,592.7047,805.0333,-343.9525,-167.0141
6960.0000,-273.5811,505.0701,592.2657,792.9027,-348.8548,-170.2154
6980.0000,-264.0818,511.6318,591.7234,794.9818,-365.9271,-173.2455
7000.0000,-205.5123,550.2652,594.2571,840.0099,-335.7576,-130.1414
7020.0000,-226.2520,541.6324,593.7623,832.9055,-335.9493,-130.3988
7040.0000,-251.3711,494.3459,594.2323,797.0522,-368.9250,-172.9860
7060.0000,-276.4830,491.5332,594.7977,790.9938,-352.9691,-178.6325
7080.0000,-266.1959,492.3458,597.1775,795.9607,-354.8792,-182.8515
7100.0000,-251.6052,497.3802,594.8185,806.9163,-340.0331,-143.9254
7120.0000,-297.0670,475.4748,591.1635,751.1906,-385.9986,-185.6909
7140.0000,-284.6783,489.2019,597.8127,761.7373,-377.9962,-187.0117
7160.0000,-270.8828,504.5419,591.1350,768.2452,-363.9433,-169.2571
7180.0000,-286.9571,492.0244,590.8413,746.5135,-363.0411,-177.4545
7200.0000,-260.7789,509.7624,593.1255,770.4425,-357.7846,-158.0573
7220.0000,-264.2404,509.9327,592.8765,760.5212,-345.1750,-165.7762
7240.0000,-280.5334,502.8455,595.1201,770.5959,-311.8691,-151.8562
7260.0000,-296.4658,488.5956,591.8914,734.2598,-344.1122,-191.0170
7280.0000,-342.0508,476.2652,594.0916,700.8229,-380.8096,-221.3858
7300.0000,-308.7194,486.5019,595.9431,715.9691,-361.2216,-199.4586
7320.0000,-274.8311,516.4648,595.0773,750.9250,-325.5313,-160.0607
7340.0000,-271.1408,511.2076,594.9564,751.8636,-321.3721,-166.8882
7360.0000,-306.4559,474.7613,593.0435,718.2078,-355.4110,-219.7552
7380.0000,-331.4730,453.7840,594.9742,719.6071,-372.5711,-247.2230
7400.0000,-278.0297,517.0864,596.0458,738.3849,-315.3063,-190.2677
7420.0000,-307.9080,482.6169,596.9556,719.3694,-333.6196,-225.5551
7440.0000,-309.6175,488.5052,596.9830,743.6739,-324.2697,-211.9160
7460.0000,-313.3431,484.1049,597.9783,731.8963,-334.6703,-217.0458
7480.0000,-305.3432,492.7458,596.9704,718.1057,-334.1199,-218.4750
7500.0000,-332.5138,463.8441,595.0225,726.8430,-329.7835,-243.4251
7520.0000,-324.0697,459.1173,592.9756,752.2368,-316.0517,-222.8765
7540.0000,-326.8674,452.5233,591.0103,739.3961,-313.9941,-207.7727
7560.0000,-309.7078,476.4113,593.9683,755.4695,-290.7313,-179.6760
7580.0000,-309.2762,478.1342,593.0369,742.3283,-293.0004,-203.1440
7600.0000,-321.3343,458.5949,592.9498,720.7468,-297.6442,-201.1363
7620.0000,-304.4941,463.8687,591.0366,735.9265,-296.0424,-177.4881
7640.0000,-269.9982,498.1277,592.9348,750.9650,-275.4839,-154.9088
7660.0000,-271.6743,485.6243,592.0540,738.6626,-282.2954,-151.8340
7680.0000,-266.7463,443.3156,594.9444,724.2043,-311.4857,-167.4775
7700.0000,-253.0529,463.3715,599.0560,749.6744,-299.3909,-141.1919
7720.0000,-229.5131,497.4632,595.9449,791.4271,-258.2859,-112.1759
7740.0000,-240.1457,494.3705,595.0889,777.4146,-286.2631,-137.4968
7760.0000,-234.3826,496.7452,598.9057,797.7769,-263.4506,-123.9614
7780.0000,-230.4232,498.0854,600.0803,795.3284,-263.3703,-121.5373
7800.0000,-238.1545,478.7697,595.9316,752.8397,-282.2799,-170.9733
7820.0000,-279.5055,480.0535,598.0679,757.2216,-291.3253,-199.8922
7840.0000,-241.0266,497.9465,593.9171,793.0088,-266.3420,-169.7274
7860.0000,-261.6450,488.9065,590.0595,766.9588,-280.4207,-213.9787
7880.0000,-323.0481,431.9239,594.9229,704.0811,-338.3444,-272.7520
7900.0000,-274.5605,486.7898,595.0972,749.9713,-306.5125,-242.8909
7920.0000,-326.0252,437.0056,598.9032,723.1188,-359.2509,-295.6439
7940.0000,-221.4273,525.7928,601.0848,803.9363,-269.4514,-190.9028
7960.0000,-297.1059,466.1302,601.9305,735.9461,-317.2800,-310.7395
7980.0000,-295.3926,480.8496,597.0468,734.8320,-310.2679,-307.9427
8000.0000,-331.2143,455.9780,594.9395,697.0411,-367.5283,-353.8426
8020.0000,-250.4522,528.8809,599.0511,776.9611,-277.2589,-266.7804
8040.0000,-273.4084,534.8216,601.9515,774.0998,-300.6145,-302.8366
8060.0000,-217.2007,495.0364,599.0402,736.9898,-322.1176,-237.8108
8080.0000,-242.5239,502.8136,597.9341,764.8866,-305.6973,-270.0054
8100.0000,-225.0797,530.2774,597.0096,766.1042,-285.0088,-268.6664
8120.0000,-227.5555,527.6683,596.9449,751.7484,-273.8029,-277.2132
8140.0000,-278.8755,484.3319,599.0057,696.2182,-323.9283,-358.4229
8160.0000,-258.7929,492.3986,596.0085,692.6301,-283.8979,-342.5233
8180.0000,-300.7216,472.5789,595.0095,684.2142,-319.7074,-386.1429
8200.0000,-279.0490,480.2529,595.0201,681.4970,-304.0318,-397.6371
8220.0000,-240.4774,520.7401,602.9942,657.3621,-271.6592,-396.7876
8240.0000,-195.3846,564.0331,597.0061,691.4409,-221.9518,-352.9083
8260.0000,-186.2135,567.9843,593.9560,701.6398,-219.5319,-366.5896
8280.0000,-208.5190,548.8961,597.0315,667.2785,-241.1525,-405.4039
8300.0000,-211.9294,555.1266,595.9442,653.7401,-228.2517,-428.3272
8320.0000,-168.7625,602.6157,595.0957,647.2481,-196.2960,-420.5372
8340.0000,-188.6847,617.2878,592.8962,643.8129,-183.1745,-459.0456
8360.0000,-164.1738,617.5535,598.0916,629.0595,-171.4215,-458.8315
8380.0000,-168.4465,636.5227,589.8467,599.9921,-155.1542,-488.6789
8400.0000,-144.1947,665.3202,595.1490,636.0248,-109.5204,-446.2489
8420.0000,-173.0305,637.8654,589.8208,593.9380,-138.9309,-510.4384
8440.0000,-130.6095,683.0415,589.1327,589.7198,-93.4705,-479.5020
8460.0000,-61.8187,736.9081,590.8007,648.2383,-31.9254,-431.1198
8480.0000,2.0686,804.9515,581.2065,701.7329,28.1844,-389.7678
8500.0000,-63.7219,738.1874,586.7985,636.1816,-35.7404,-473.9092
8520.0000,-78.7619,732.7786,587.2224,616.7944,-29.5164,-483.0335
8540.0000,-56.6955,749.3160,588.7337,620.2229,4.9348,-451.6380
8560.0000,33.7313,826.7380,594.2463,674.6292,94.2131,-393.0441
8580.0000,67.3354,830.4233,585.7414,714.2840,132.1135,-364.4952
8600.0000,83.7181,853.7114,585.2552,692.6574,136.2022,-364.4218
8620.0000,110.4217,881.4351,592.7178,708.3558,195.0104,-320.1872
8640.0000,114.6906,885.5587,588.2993,683.5173,184.1518,-327.4415
8660.0000,176.4310,929.4066,589.6780,716.3282,241.0535,-282.0577
8680.0000,234.6316,990.6174,593.3032,805.7007,321.3495,-201.5480
8700.0000,226.5584,993.4311,587.6961,792.2278,330.9084,-205.0620
8720.0000,266.5891,1040.6508,584.3052,816.7462,369.3453,-191.5856
8740.0000,312.5216,1087.4911,579.6757,855.3017,420.9691,-147.9678
8760.0000,399.7006,1128.7698,587.3380,897.8044,452.5324,-65.6374
8780.0000,406.4972,1145.5099,581.6283,919.2626,482.8598,-55.7379
8800.0000,459.7582,1194.9004,573.3514,961.9694,573.6736,19.0638
8820.0000,507.5658,1230.5677,592.6464,1000.1349,625.7966,72.9476
8840.0000,493.8648,1211.9513,581.3663,1002.1205,611.9395,46.1253
8860.0000,523.3267,1248.3788,584.6344,1010.9982,657.6827,87.1524
8880.0000,539.0120,1265.0298,590.3292,1014.1269,676.0878,96.1245
8900.0000,574.2322,1298.2999,585.6422,1036.7067,674.5710,126.0221
8920.0000,564.2123,1297.0378,585.3441,1030.2921,689.1783,140.0505
8940.0000,554.1071,1290.1667,582.6237,1003.6312,691.4648,136.9397
8960.0000,542.2871,1281.0753,581.3622,1019.4572,699.3164,135.0478
8980.0000,550.0375,1301.9791,583.6391,1034.5807,719.2345,160.9191
9000.0000,536.4500,1290.3586,586.3336,1047.7390,700.3654,149.0522
9020.0000,556.7812,1308.9817,580.6851,1041.2981,713.1867,179.8905
9040.0000,546.5052,1283.3740,580.3280,1028.9175,709.6153,173.1390
9060.0000,493.6386,1235.9143,588.6520,988.2979,666.9481,120.0042
9080.0000,470.7906,1222.4272,583.2813,955.8438,662.7363,114.1859
9100.0000,450.5044,1204.8457,580.7191,938.9714,634.7936,91.8000
9120.0000,442.9034,1208.5363,584.2648,922.1168,609.7485,87.1339
9140.0000,445.2843,1206.5818,580.7437,921.9039,610.5795,81.9224
9160.0000,388.1351,1157.7004,582.2245,894.1172,584.9196,51.1487
9180.0000,357.0891,1133.5389,590.7402,878.7740,570.4789,37.7640
9200.0000,312.2032,1088.7225,583.2012,838.1779,521.0257,-4.5100
9220.0000,284.9799,1060.4952,583.7707,839.5409,497.2274,-12.0871
9240.0000,279.2500,1055.7498,589.1614,832.3257,493.2227,-20.4249
9260.0000,274.9477,1049.4182,585.8227,802.6205,487.1152,-12.9858
9280.0000,176.4229,971.8511,582.1269,720.5560,407.3082,-89.4073
9300.0000,129.7626,932.3485,584.8521,705.5507,340.9940,-125.0631
9320.0000,105.5230,895.9506,586.1176,697.5082,314.3305,-143.5469
9340.0000,93.5298,896.2770,582.8771,705.4928,314.9777,-127.2941
9360.0000,69.5815,874.9041,595.0911,674.4610,290.6245,-157.4817
9380.0000,58.4493,860.2097,586.9462,651.2237,272.8497,-163.1551
9400.0000,27.8663,841.8823,586.0346,615.4462,221.6994,-190.4470
9420.0000,32.1161,836.1052,589.9609,604.3167,222.5697,-181.3091
9440.0000,22.0175,861.8586,584.9788,615.4438,225.6606,-173.3830
9460.0000,19.1233,870.0513,591.0168,630.4045,238.5890,-157.3054
9480.0000,23.0503,875.8628,590.9214,637.6224,241.8835,-154.3496
9500.0000,-25.8002,827.1450,582.0519,597.2634,177.4185,-195.3184
9520.0000,-34.7650,821.9478,587.9034,618.5919,172.9551,-180.3170
9540.0000,-24.9869,856.0650,591.1148,660.4542,212.2989,-166.2802
9560.0000,20.3018,849.9399,588.8070,621.5195,188.9513,-94.2248
9580.0000,-20.0722,825.0838,592.1741,614.5190,156.3398,-135.3129
9600.0000,-42.3099,827.0099,586.7900,605.4470,142.0672,-145.2750
9620.0000,-32.1729,826.2148,593.2336,601.5340,108.0819,-140.4076
9640.0000,-18.2529,824.9590,590.7169,616.3658,100.1750,-131.2159
9660.0000,-21.2712,834.2424,595.3011,603.6871,95.9457,-132.3788
9680.0000,-6.1633,863.9673,595.7004,623.1343,112.3208,-104.0686
9700.0000,-10.4001,836.0516,592.3306,612.6768,49.9553,-133.5621
9720.0000,-44.8615,819.0071,588.5980,601.0721,36.3668,-140.0363
9740.0000,-93.5339,786.0411,591.3715,560.8778,-12.1209,-176.6689
9760.0000,-49.7615,805.0172,593.5845,600.0292,29.4238,-122.9154
9780.0000,-57.8351,783.0384,589.4077,610.8661,13.6602,-115.8118
9800.0000,-74.6721,782.0770,590.5113,608.8158,5.6611,-117.8227
9820.0000,-80.0430,779.1413,591.4736,597.9789,-18.2016,-113.6943
9840.0000,-83.4776,771.0896,592.4789,572.7687,-56.0141,-120.7938
9860.0000,-79.0433,794.9521,595.5516,586.2162,-51.2099,-93.8941
9880.0000,-51.3771,803.0005,595.4532,598.4771,-52.9800,-72.6557
9900.0000,-49.3419,793.0825,593.5831,601.2348,-48.3578,-66.0369
9920.0000,-56.2680,782.1379,597.3671,599.4705,-74.9352,-71.4659
9940.0000,-61.4604,788.0190,587.6399,597.4966,-98.3771,-79.0163
9960.0000,-79.0781,767.0291,592.3356,579.1935,-125.9553,-96.4747
9980.0000,-81.6281,751.0522,590.6548,593.5404,-143.6260,-83.0406
10000.0000,-82.8269,747.0811,591.2835,598.0253,-150.8903,-73.4462
10020.0000,-111.6737,734.0447,588.7376,577.9092,-167.5138,-80.2895
10040.0000,-110.7127,748.0226,590.2332,602.9060,-162.8916,-78.1544
10060.0000,-89.9932,739.9893,586.7640,605.0759,-180.7052,-54.3767
10080.0000,-118.6186,725.0862,584.2032,585.7994,-222.8421,-97.0889
10100.0000,-108.9756,745.0362,580.8079,599.0767,-193.6381,-71.2542
10120.0000,-80.3358,767.0616,584.1683,615.5997,-184.9521,-43.0803
10140.0000,-94.1786,759.9452,581.8469,615.2516,-196.5756,-43.3661
10160.0000,-87.3593,763.1393,578.1494,640.3442,-219.9715,-39.9780
10180.0000,-95.1999,763.8620,583.8373,633.5111,-225.5773,-44.4880
10200.0000,-87.2361,770.0249,584.1141,619.3701,-252.0379,-44.0695
10220.0000,-40.3690,791.8569,591.8663,643.7435,-221.4286,-10.4644
10240.0000,-70.1702,761.0334,583.0842,633.1328,-257.1475,-30.9566
10260.0000,-46.4305,765.9562,583.8801,662.8932,-239.5114,-11.5804
10280.0000,-62.9800,754.1187,587.0992,646.9236,-269.2827,-21.9850
10300.0000,-81.6605,738.9060,587.9193,657.1144,-294.3549,-28.6306
10320.0000,-53.9701,785.0560,577.0718,696.8635,-254.4239,24.7610
10340.0000,-48.6164,765.0878,573.9240,700.2780,-285.1518,18.3173
10360.0000,-36.9485,751.9470,581.0473,719.5494,-302.5096,7.6907
10380.0000,-24.7214,773.1813,581.9296,736.3658,-311.0865,13.3238
10400.0000,-39.0201,738.7971,576.0717,727.3979,-335.8445,1.9849
10420.0000,1.2489,801.2258,584.8889,745.4277,-303.8799,43.2633
10440.0000,-39.9867,746.7392,579.1046,744.3911,-334.0082,3.6670
10460.0000,-0.7937,774.2258,574.9038,765.6934,-328.6645,44.3919
10480.0000,-15.2064,763.6263,579.1286,764.1480,-353.0844,37.6828
10500.0000,-31.5643,748.3740,578.8489,758.7184,-363.4402,16.4661
10520.0000,-8.1366,774.5524,583.1384,755.0908,-358.2970,43.5381
10540.0000,19.2879,794.3433,581.8378,803.9067,-313.2775,77.4404
10560.0000,44.6555,799.4530,581.1580,832.9801,-309.7188,98.5226
10580.0000,1.4284,752.4510,574.7999,790.0661,-369.1183,47.3558
10600.0000,-14.2682,757.3682,578.2319,778.8851,-368.7768,27.4771
10620.0000,31.4027,805.5554,571.7315,823.1193,-334.8191,74.4952
10640.0000,49.3213,823.3550,571.2847,851.7720,-318.1598,110.4319
10660.0000,60.4632,815.7487,580.6906,845.1584,-323.4561,102.5017
10680.0000,43.2451,812.2329,572.3464,823.5460,-347.4681,84.3945
10700.0000,35.7333,792.6749,569.6052,801.3094,-376.3546,65.6226
10720.0000,54.1820,797.0017,581.3702,823.4887,-370.6399,84.3599
10740.0000,75.8472,819.8584,569.5399,852.3916,-336.1526,109.5705
10760.0000,56.1538,812.9669,570.4628,869.6623,-343.8483,89.3605
10780.0000,79.8711,799.0815,572.4944,870.5164,-349.7713,116.5970
10800.0000,88.9307,807.8275,573.5529,902.5724,-327.0405,142.4241
10820.0000,46.8574,778.0498,568.3945,875.3414,-353.6623,101.7469
10840.0000,67.0233,780.9296,574.5778,870.5413,-354.2542,116.4492
10860.0000,66.0283,784.0958,576.3267,861.3963,-375.4991,99.7734
10880.0000,95.9214,808.8685,587.6962,901.4435,-351.4765,134.3923
10900.0000,88.1757,801.1387,576.2555,894.3177,-363.2998,126.6105
10920.0000,91.7194,796.6702,571.7518,903.5328,-373.6513,120.4611
10940.0000,69.1579,754.1439,566.2164,867.2969,-432.1940,95.5438
10960.0000,51.6962,761.7789,572.8311,854.6448,-422.8136,69.4300
10980.0000,42.3261,736.2928,570.1220,855.3612,-440.0097,42.6393
11000.0000,81.7732,778.7433,572.8984,884.6752,-374.7797,111.6615
11020.0000,17.2972,729.1788,567.0354,848.1998,-421.9983,62.4210
11040.0000,47.7425,760.6299,574.9208,881.7855,-395.9682,90.7970
11060.0000,43.2873,757.1664,574.0283,902.1161,-403.9993,91.3694
11080.0000,68.6724,730.8340,571.0020,895.8481,-406.8909,117.7924
11100.0000,46.2340,737.1491,578.9559,905.1839,-405.8306,99.2923
11120.0000,36.7412,724.9038,568.0359,889.0955,-424.8445,81.0060
11140.0000,70.3339,752.2335,581.8721,927.9303,-390.8714,119.0122
11160.0000,38.8411,727.9432,572.1152,897.2272,-428.0005,75.0360
11180.0000,35.1267,719.1349,578.8596,901.7297,-426.1003,68.8522
11200.0000,0.9673,675.9367,581.1719,888.2067,-475.8574,33.2476
11220.0000,39.1965,739.0013,584.8101,943.6662,-412.1143,97.7393
11240.0000,58.9463,707.0037,574.2076,934.3497,-443.7567,99.3518
11260.0000,49.9367,705.8680,590.7711,936.4184,-442.1905,91.6806
11280.0000,20.8726,678.1989,580.2278,922.6093,-461.5798,75.4909
11300.0000,16.0622,682.8135,579.7710,921.3887,-458.4408,84.5226
11320.0000,17.9595,681.2964,576.2174,903.7757,-460.5294,81.7639
11340.0000,44.9318,693.6956,590.7285,937.2363,-443.3955,106.1954
11360.0000,53.2107,709.4016,582.2214,978.9681,-444.2523,123.8463
11380.0000,45.7641,678.4350,576.7205,955.1526,-463.7647,139.0322
11400.0000,18.1366,674.4338,587.2680,929.9443,-471.0919,104.9851
11420.0000,8.6825,672.3340,589.7062,934.8707,-483.9306,98.9325
11440.0000,24.4107,682.5944,588.2769,955.2524,-475.9048,112.0813
11460.0000,59.6267,710.2856,589.7061,994.6550,-435.9962,163.8948
11480.0000,52.3093,697.6488,585.2530,981.2464,-444.8086,180.3394
11500.0000,37.4794,651.1731,578.7345,962.7150,-473.2251,171.8561
11520.0000,30.5423,683.7990,585.2457,997.4090,-437.5385,160.3432
11540.0000,66.3800,674.8890,581.7114,992.5497,-457.5604,197.7583
11560.0000,79.5419,685.9955,581.2604,1013.5327,-408.2607,218.4900
11580.0000,39.4444,656.8616,586.7587,979.4023,-450.7443,167.5664
11600.0000,21.4336,634.0540,586.2318,978.6482,-451.1611,168.5254
11620.0000,10.4483,607.6257,584.7580,973.3532,-460.0517,158.5798
11640.0000,25.5812,622.2371,586.2191,978.7286,-429.8314,176.3855
11660.0000,2.3899,602.4617,586.7871,965.2558,-450.2791,162.5066
11680.0000,23.5201,617.3168,585.1979,1002.8463,-428.6867,192.3243
11700.0000,5.4280,601.4532,581.7621,973.2233,-455.4715,161.7015
11720.0000,12.4377,593.5311,588.2087,980.9032,-462.5615,170.4082
11740.0000,30.5191,593.3403,579.8097,983.0201,-448.6235,174.6454
11760.0000,14.4446,576.6241,590.1643,989.8385,-452.3830,176.2187
11780.0000,25.5604,610.2638,589.7878,995.1562,-432.6762,191.8033
11800.0000,-3.3753,549.5801,594.1866,963.9631,-469.0288,155.0948
11820.0000,12.5825,566.1791,589.7937,986.0340,-460.9728,167.0703
11840.0000,22.2243,579.6554,585.1717,988.8455,-460.0298,166.9231
11860.0000,-10.0183,558.3612,586.8237,966.1967,-479.0284,138.2214
11880.0000,-8.7321,565.6706,591.1639,966.8293,-494.8712,138.7680
11900.0000,25.0900,587.2706,590.7952,1001.2775,-460.0650,170.3247
11920.0000,4.8672,563.5902,590.1636,975.6427,-466.8569,134.3726
11940.0000,10.1116,560.2222,590.7855,992.4578,-477.1717,140.6463
11960.0000,-14.2062,561.4785,592.1898,959.4984,-498.8094,107.2336
11980.0000,-6.4170,554.3360,586.7943,975.4583,-489.2249,108.8339
12000.0000,-0.4343,573.3188,591.2018,963.4443,-481.7681,121.7799
12020.0000,-6.1545,583.5618,587.7839,986.6071,-469.2449,121.1581
12040.0000,-14.7464,552.3406,589.2045,945.1741,-535.8063,78.6464
12060.0000,-25.8615,544.6656,583.7326,939.9106,-528.2496,77.5976
12080.0000,-37.1044,544.2035,588.2742,936.0466,-532.6571,80.2695
12100.0000,-14.5313,561.7570,592.7237,956.1409,-507.0902,105.9028
12120.0000,-23.3885,554.1685,593.2833,964.8587,-508.8752,104.8083
12140.0000,-41.1216,540.7977,593.7037,947.4596,-519.9478,81.3602
12160.0000,-43.7046,541.8474,596.3342,969.4135,-490.7956,78.4434
12180.0000,-21.9167,551.9988,594.6816,987.5359,-490.9846,77.6109
12200.0000,-13.9601,556.7772,593.3400,991.3201,-475.9479,96.1612
12220.0000,-4.5455,581.3511,595.6580,991.9343,-469.7223,98.1035
12240.0000,-15.2431,562.5254,593.3726,968.8282,-490.1844,60.5912
12260.0000,-25.0894,550.3922,596.5815,966.1741,-467.4823,60.5209
12280.0000,-24.7920,552.1899,593.4058,962.5722,-466.3058,60.1958
12300.0000,-46.8003,521.7205,590.5591,929.4224,-469.3244,32.9608
12320.0000,-56.2018,517.9612,592.4303,950.3438,-469.4794,12.8111
12340.0000,-43.4415,552.0527,599.5403,961.7839,-441.1623,17.2126
12360.0000,-41.3895,541.7780,592.4613,963.0504,-427.6997,22.4629
12380.0000,-53.8823,525.2684,591.5059,948.1791,-419.7794,11.7253
12400.0000,-50.7153,529.3220,586.4938,952.6384,-400.0302,22.9372
12420.0000,-45.7270,547.5820,583.4766,947.5837,-394.5528,14.0627
12440.0000,-79.0974,525.1158,584.5016,921.1883,-401.2030,-21.1154
12460.0000,-87.2267,539.8764,588.4404,941.9791,-354.2929,-21.3852
12480.0000,-61.4965,558.7533,588.5506,947.8503,-314.5239,-4.4368
12500.0000,-77.9155,529.1920,592.4552,941.1705,-306.0815,-24.0712
12520.0000,-66.8894,516.4288,591.5308,937.6837,-287.8100,-22.9311
12540.0000,-76.6703,522.6461,593.4514,930.5188,-254.6774,-24.5861
12560.0000,-70.1825,524.1269,587.5625,952.2324,-223.1744,-20.2144
12580.0000,-74.2913,490.8772,593.4446,937.9293,-235.2841,-41.2850
12600.0000,-74.3842,498.7638,591.5468,940.0214,-193.5122,-41.5065
12620.0000,-67.1223,519.2167,592.4347,935.2575,-150.9452,-37.0427
12640.0000,-83.6088,487.4011,595.5754,906.5668,-143.6494,-73.9117
12660.0000,-60.8629,515.6934,597.4231,913.3680,-107.6849,-52.6572
12680.0000,-46.8667,545.9937,592.5474,902.3911,-69.9631,-42.1113
12700.0000,-49.5744,531.8915,594.4617,914.7870,-36.2863,-39.2633
12720.0000,-60.2086,520.6234,592.5355,887.0239,-44.3993,-45.4523
12740.0000,-71.4230,502.4136,599.4606,880.0164,-43.9238,-76.1361
12760.0000,35.4312,596.4623,594.5362,998.9029,83.1344,42.0962
12780.0000,42.7970,591.7727,591.4673,996.2069,119.1779,49.0511
12800.0000,72.2656,611.0461,593.5139,1016.7828,159.8367,96.9142
12820.0000,89.8482,617.1054,587.5076,1017.4376,173.4877,90.1136
12840.0000,110.0516,629.7750,591.4789,1013.6441,205.6743,100.6481
12860.0000,118.0351,643.3522,581.4819,1025.5970,237.7796,113.4670
12880.0000,131.9922,638.4170,590.4467,1025.3950,255.3914,109.6411
12900.0000,140.2209,649.6160,590.5203,1022.7466,293.8705,112.5501
12920.0000,142.9093,647.0710,587.4552,1041.2931,327.1458,137.4185
12940.0000,149.2962,660.9381,588.5262,1052.8237,355.1913,154.6719
12960.0000,140.7549,644.9487,583.3994,1060.1840,380.0615,155.1662
12980.0000,168.4663,668.3299,587.6006,1068.9175,396.4937,176.0126
13000.0000,184.8099,675.6505,590.3731,1095.1321,438.9145,196.0886
13020.0000,204.3982,706.4579,593.6174,1098.0217,464.5737,219.1883
13040.0000,190.7195,674.2425,594.3755,1086.1594,465.7675,206.8666
13060.0000,211.5816,695.6953,590.6249,1098.0436,505.8250,246.1790
13080.0000,200.5704,713.0126,592.3316,1106.0640,514.4469,230.7766
13100.0000,228.6390,734.9346,590.6519,1114.0516,547.9720,280.3650
13120.0000,240.5348,730.9184,598.2971,1101.0538,535.4523,270.6458
13140.0000,242.6803,738.1152,591.6856,1122.0129,538.9861,292.4735
13160.0000,265.5732,757.8021,592.2776,1126.2638,559.4305,337.5916
13180.0000,263.6039,746.3315,592.7217,1110.7424,566.0839,331.4369
13200.0000,263.5146,749.6054,593.2599,1109.1783,579.3539,332.5030
13220.0000,288.6422,752.6772,588.7175,1140.8616,618.1287,382.6125
13240.0000,277.5547,763.4583,593.2328,1116.3625,607.2419,365.6414
13260.0000,234.6059,723.6732,594.7901,1076.7079,573.2005,317.5880
13280.0000,273.6918,767.2623,596.2284,1097.5037,609.2953,355.5546
13300.0000,297.5544,794.9045,593.8040,1132.6180,654.2423,405.6438
13320.0000,347.7499,835.3215,588.2001,1175.6559,686.2972,446.3907
13340.0000,277.5136,753.9050,593.8269,1054.4620,599.2578,361.7633
13360.0000,221.8396,749.2352,593.1605,1027.7949,591.4473,284.5318
13380.0000,251.4764,775.9658,594.8602,1078.0912,632.1231,320.7082
13400.0000,296.8488,797.1768,599.1293,1120.8580,656.4829,381.5240
13420.0000,299.4333,804.8780,593.8749,1143.0962,671.0654,379.6471
13440.0000,242.9237,770.1208,589.0821,1090.1731,655.6966,344.4419
13460.0000,282.3247,812.8704,592.8895,1109.7179,656.8589,380.6813
13480.0000,268.0835,802.3019,588.1047,1110.2874,644.7128,342.5416
13500.0000,307.0409,824.7373,586.9199,1120.7103,641.7285,375.5910
13520.0000,288.1957,833.3488,584.0538,1100.6791,627.8513,351.5915
13540.0000,246.9368,798.7254,588.9056,1052.3097,601.5911,306.4701
13560.0000,238.2057,808.4469,586.0447,1054.9332,615.1154,319.8278
13580.0000,257.8308,816.7191,590.9414,1087.0640,637.2497,342.3520
13600.0000,297.4242,843.4788,595.0356,1111.0004,654.3842,380.0456
13620.0000,309.6193,854.4108,589.9584,1120.8914,648.1519,378.2137
13640.0000,287.4645,802.8121,594.0030,1073.2877,610.5804,374.1137
13660.0000,247.6310,817.2931,589.9856,1068.7063,605.0061,321.8940
13680.0000,255.6745,833.0651,593.9761,1091.6180,616.7253,354.4334
13700.0000,283.3091,848.0377,594.0420,1101.3807,596.5671,337.8295
13720.0000,270.8071,839.2872,591.9362,1091.9052,587.0631,336.5619
13740.0000,243.1184,808.7739,596.0848,1064.0458,570.3948,308.5215
13760.0000,261.1298,835.4297,579.9219,1088.0603,589.3984,324.8182
13780.0000,241.9831,816.5162,592.0806,1091.6838,568.9617,321.1243
13800.0000,300.4362,840.7828,594.9019,1111.4398,579.7120,365.0905
13820.0000,239.6795,799.2184,593.1144,1065.5537,535.7256,319.9335
13840.0000,220.6832,811.0537,590.8456,1077.6313,520.9868,315.4123
13860.0000,254.3829,836.7474,596.1623,1086.3191,528.3729,334.4460
13880.0000,212.8672,804.5086,595.8603,1076.0623,496.3169,313.7851
13900.0000,195.3061,785.4651,594.1693,1052.8896,474.0287,292.1642
13920.0000,202.9855,785.8148,596.7906,1051.1592,466.6581,286.1970
13940.0000,178.9773,776.1563,589.1555,1045.7699,463.7206,266.8953
13960.0000,171.2905,777.2474,591.7848,1037.4706,437.0030,252.5134
13980.0000,188.8399,794.8251,589.1782,1038.4240,440.4764,281.3614
14000.0000,166.4984,785.6721,589.7460,1023.7636,424.1501,252.9274
14020.0000,158.4630,770.3259,591.2125,1051.2139,403.1452,247.9758
14040.0000,167.9052,783.9998,593.7593,1018.9684,372.4455,227.3302
14060.0000,153.1570,780.9601,589.2151,1031.9980,364.7074,225.5203
14080.0000,187.0099,811.4644,592.7368,1063.1104,392.7071,262.8977
14100.0000,163.9363,804.6567,593.2607,1049.8568,359.4311,230.1433
14120.0000,171.4060,787.7665,588.6951,1022.3795,317.1438,221.1588
14140.0000,128.7594,771.2353,587.2772,986.5135,272.2026,150.6878
14160.0000,115.5386,793.1777,586.7249,996.4899,276.2744,158.6348
14180.0000,141.4059,811.9395,593.2766,1011.2686,294.8960,182.4172
14200.0000,103.8110,802.5001,589.6878,997.8071,278.5536,156.8408
14220.0000,70.1678,755.3729,581.2966,971.3036,235.8582,133.1213
14240.0000,30.0037,723.9197,591.7009,951.9738,213.5873,110.2533
14260.0000,49.9701,763.0786,586.2825,978.9467,212.5151,128.6285
14280.0000,87.1991,799.0398,592.7087,998.0807,221.9280,154.7177
14300.0000,80.8139,800.8414,589.2465,990.9487,226.4153,166.3004
14320.0000,-1.5864,724.5533,587.7310,919.0453,126.9376,63.9687
14340.0000,28.7022,768.4296,586.2684,941.8970,141.1254,76.0122
14360.0000,24.5340,752.8063,590.7119,931.2587,118.1914,74.3006
14380.0000,47.6461,771.1590,590.2319,958.7501,142.1470,109.8165
14400.0000,34.5343,762.9016,581.7125,971.3516,127.1274,100.5431
14420.0000,50.5438,756.9651,585.2289,937.6680,134.1385,105.6726
14440.0000,22.6463,768.1215,586.7696,965.4118,108.0817,76.7142
14460.0000,7.4814,749.9186,586.2178,944.7417,65.0668,74.4532
14480.0000,16.7392,760.2361,581.7518,928.3588,71.0819,47.8456
14500.0000,-15.3348,729.8214,586.1981,914.7663,41.8910,36.2812
14520.0000,9.6303,754.3729,592.8040,948.2569,55.1750,56.9473
14540.0000,1.4341,752.6779,593.1754,947.7198,29.8681,36.1498
14560.0000,-2.0982,741.3654,592.8263,932.2209,13.1343,20.1482
14580.0000,-27.5018,729.6954,590.1273,923.7361,-8.6932,14.0047
14600.0000,-29.0378,696.4063,593.8609,912.2648,-60.7319,-19.5388
14620.0000,-41.4792,707.6541,599.1136,945.7484,-44.7419,-14.8964
14640.0000,-49.0845,716.3647,595.9052,935.0922,-46.7300,-8.5576
14660.0000,-46.2369,713.6487,591.0789,922.9262,-82.5785,-42.0210
14680.0000,-86.1774,679.3741,587.9237,878.0633,-131.9725,-79.5194
14700.0000,-71.1908,685.7251,593.0668,897.8297,-134.4870,-73.9266
14720.0000,-85.3795,693.2776,592.9344,909.0978,-113.0187,-75.5995
14740.0000,-91.0681,703.7294,586.0423,913.9209,-114.3915,-62.9956
14760.0000,-125.5094,661.0289,585.9614,894.8332,-151.2835,-48.5338
14780.0000,-121.0421,682.9886,584.0025,876.9413,-167.4044,-81.9816
14800.0000,-157.6148,659.9473,584.9775,867.7524,-196.3669,-117.5879
14820.0000,-132.8416,681.0991,592.9957,895.0869,-174.3164,-79.9828
14840.0000,-121.9239,689.8178,590.9882,909.7678,-166.5264,-67.6306
14860.0000,-140.7210,673.2631,582.9553,885.1061,-200.0800,-101.7756
14880.0000,-150.1539,673.5489,584.0052,858.6732,-201.6319,-122.7461
14900.0000,-169.5176,689.5335,592.9634,859.3146,-207.0058,-146.9458
14920.0000,-151.2607,672.4070,576.0096,853.5762,-221.7414,-134.8295
14940.0000,-181.2725,655.8160,585.9525,827.3625,-250.9179,-151.6701
14960.0000,-180.4289,642.0969,596.0620,854.6570,-234.8141,-134.9140
14980.0000,-183.1638,645.0278,587.9606,847.2971,-260.8104,-149.6591
15000.0000,-191.6581,644.8355,588.0637,842.4827,-269.8963,-157.9194
15020.0000,-206.8630,620.2787,592.9396,837.5273,-295.6544,-168.5782
15040.0000,-198.7101,633.5953,586.0492,840.4147,-321.9723,-185.0220
15060.0000,-208.7721,616.3665,580.9571,816.4681,-349.6349,-184.7126
15080.0000,-203.9478,616.3934,590.0201,837.4346,-326.1340,-168.0403
15100.0000,-216.6485,615.6694,590.9351,818.5154,-347.5309,-200.6169
15120.0000,-205.2256,615.2739,592.0269,827.6387,-364.0947,-197.9756
15140.0000,-195.3759,620.9042,589.9381,852.3258,-332.5174,-163.4841
15160.0000,-198.2229,618.9869,595.0367,835.4617,-370.2406,-212.1698
15180.0000,-211.3544,618.1035,593.9841,809.2643,-378.6004,-226.6116
15200.0000,-219.2420,612.8469,588.9749,829.5862,-371.1418,-213.0253
15220.0000,-196.3033,614.1403,588.0107,823.1488,-409.4861,-234.6981
15240.0000,-213.3504,614.7659,596.9617,813.6793,-396.0925,-185.9104
15260.0000,-197.1596,585.3531,596.9936,828.0597,-391.5957,-162.6740
15280.0000,-159.4104,613.4952,593.9662,845.8110,-387.2010,-121.8866
15300.0000,-128.1383,617.3602,596.0663,846.0029,-398.6770,-104.6111
15320.0000,-167.4965,580.3818,591.9224,821.9514,-457.0555,-134.9378
15340.0000,-143.0599,595.3776,595.0891,842.8666,-417.8397,-100.7473
15360.0000,-124.5362,613.3610,592.8984,837.2065,-424.9549,-89.8873
15380.0000,-139.1581,574.5320,591.0905,803.5732,-490.8183,-108.9078
15400.0000,-120.6001,608.5427,587.8841,831.4437,-469.7999,-94.8234
15420.0000,-138.0176,587.6219,601.1400,825.5817,-482.9792,-96.9691
15440.0000,-123.5525,597.5376,596.8199,805.5778,-491.7045,-121.5897
15460.0000,-175.0766,563.4875,597.1385,791.2777,-508.9931,-135.9499
15480.0000,-101.4535,620.5330,594.8260,830.6994,-467.7380,-91.5971
15500.0000,-151.2059,592.3474,594.1994,794.0600,-500.2545,-141.0446
15520.0000,-149.3909,572.6826,596.7596,803.0193,-495.4996,-130.5699
15540.0000,-133.3658,580.3093,589.1884,837.7606,-480.4267,-113.1847
15560.0000,-176.1940,541.5880,596.7316,797.2966,-528.2727,-163.4699
15580.0000,-125.4334,593.2479,598.2311,838.6619,-496.4873,-131.1981
15600.0000,-146.2146,584.8613,595.7493,819.4762,-511.0851,-155.3012
15620.0000,-169.4082,558.0206,593.2739,798.4299,-521.5923,-176.2417
15640.0000,-151.1324,569.8965,594.7199,826.5904,-519.9973,-164.1511
15660.0000,-178.5134,541.7498,601.3015,817.1711,-546.7494,-205.3912
15680.0000,-159.9868,574.2034,597.6711,819.9460,-519.8550,-198.1740
15700.0000,-167.8470,580.5627,595.3266,825.8592,-503.9712,-170.5063
15720.0000,-177.7691,548.4976,597.6550,823.1481,-518.7825,-196.1317
15740.0000,-186.7952,551.4688,597.3019,844.6580,-514.9798,-193.4561
15760.0000,-183.6226,543.6515,598.6533,835.2429,-515.4850,-201.1286
15780.0000,-178.8875,551.2430,591.3148,830.5084,-519.1893,-210.5225
15800.0000,-196.6216,526.8764,599.6594,819.3907,-552.3883,-251.1544
15820.0000,-153.0387,564.1146,594.3379,818.4468,-513.3635,-219.4795
15840.0000,-164.5422,564.9419,591.6545,820.6899,-522.3339,-236.0928
15860.0000,-168.3087,549.9257,593.3228,819.2401,-566.3339,-267.4940
15880.0000,-196.3835,532.0954,593.6794,818.7659,-552.2446,-277.1891
15900.0000,-195.2901,532.7702,598.2971,805.1760,-568.4155,-311.5587
15920.0000,-203.1944,525.3935,588.6547,799.8734,-582.4063,-328.1488
15940.0000,-188.4800,521.5701,594.3033,813.9971,-587.5259,-334.4370
15960.0000,-174.1827,547.5634,599.7023,834.9283,-579.2318,-326.2930
15980.0000,-165.5318,529.2320,593.2738,823.1425,-582.4940,-345.2157
16000.0000,-175.0095,534.6699,594.7440,818.0471,-583.2953,-371.3544
16020.0000,-189.4765,515.0877,593.2458,810.0808,-589.2851,-378.0739
16040.0000,-177.9820,547.8604,597.7435,811.8524,-585.3980,-384.6201
16060.0000,-158.4905,561.9951,595.2264,843.9434,-554.2744,-368.1125
16080.0000,-194.0486,533.9645,599.7994,807.9281,-590.4580,-421.6934
16100.0000,-213.4084,511.9241,595.1844,791.1840,-612.2868,-459.8572
16120.0000,-214.9654,481.0285,597.8266,762.7866,-636.6434,-464.8990
16140.0000,-274.5216,489.8512,598.1106,772.2947,-618.0746,-495.6972
16160.0000,-245.1366,495.9509,596.8655,776.6158,-621.5842,-494.1774
16180.0000,-217.4684,515.9982,593.0777,780.1975,-612.9285,-489.3571
16200.0000,-238.2989,492.9603,594.9504,780.5829,-630.8196,-508.3866
16220.0000,-235.3129,491.9429,597.0035,775.5678,-626.8185,-498.2708
16240.0000,-283.1803,450.0363,595.0023,762.3553,-653.9206,-547.7161
16260.0000,-238.2322,503.9091,596.9511,788.5522,-623.6934,-517.0357
16280.0000,-237.3233,526.8221,598.0261,769.2183,-609.1611,-516.9719
16300.0000,-272.1440,498.0263,596.8924,741.8759,-635.2920,-554.7659
16320.0000,-281.5389,496.9253,594.1077,755.0588,-639.3221,-556.0947
16340.0000,-309.9638,476.0962,598.8517,729.0767,-676.1743,-586.3811
16360.0000,-333.5915,464.6995,595.1727,732.6378,-653.6022,-582.3384
16380.0000,-289.8663,497.3110,595.8228,759.2739,-618.9788,-542.2370
16400.0000,-297.6371,482.4539,596.2397,745.4048,-654.7479,-562.7369
16420.0000,-294.7890,468.5430,591.7355,744.6750,-669.8356,-573.8651
16440.0000,-298.8925,459.3927,594.2817,734.1815,-681.0582,-558.8297
16460.0000,-311.6684,488.6448,586.6965,766.9138,-677.5627,-580.5906
16480.0000,-285.9266,463.3661,588.3446,771.8832,-668.3225,-546.1825
16500.0000,-307.6626,455.7376,595.6533,764.1724,-688.2705,-568.3729
16520.0000,-280.0769,464.1277,592.3763,749.6459,-661.5012,-532.4431
16540.0000,-250.4962,477.9472,596.5574,772.4782,-642.1745,-487.0768
16560.0000,-222.2501,483.0276,593.4343,777.5640,-630.5693,-464.4774
16580.0000,-201.4029,489.1017,598.5215,797.6525,-607.0343,-427.8936
16600.0000,-201.2515,478.7391,596.5076,783.2450,-629.8458,-436.7532
16620.0000,-174.1767,518.1509,597.4668,795.8238,-614.8184,-400.6331
16640.0000,-169.4055,520.8121,597.5021,812.0614,-617.0688,-393.0274
16660.0000,-177.9639,511.4204,591.4375,807.0508,-609.6517,-389.5193
16680.0000,-200.5158,506.4608,594.5692,796.7673,-616.0651,-406.0509
16700.0000,-217.8669,487.4622,595.4319,784.3748,-636.5351,-438.5162
16720.0000,-202.6755,509.5342,596.6179,817.5992,-607.3442,-417.3285
16740.0000,-198.9650,472.6581,598.3732,792.5620,-615.3033,-421.3831
16760.0000,-232.5896,471.3698,593.6209,777.4196,-630.3745,-448.4322
16780.0000,-261.8950,455.5351,596.3314,755.6611,-644.2739,-460.1581
16800.0000,-231.7189,488.2707,594.6528,793.2915,-604.3335,-438.4634
16820.0000,-260.9585,456.7372,596.3108,784.8174,-636.2825,-447.2326
16840.0000,-252.6782,459.2958,595.6762,770.0581,-610.5222,-455.5588
16860.0000,-281.8496,440.7304,596.2960,768.0026,-637.1360,-476.2225
16880.0000,-263.6984,466.1630,595.6896,788.0627,-617.5859,-463.4328
16900.0000,-275.8742,442.8177,593.3191,731.0137,-650.0356,-503.0594
16920.0000,-241.6306,479.2264,593.6788,763.0552,-620.5687,-449.4966
16940.0000,-235.9136,467.8215,594.3216,779.0860,-609.1743,-438.2083
16960.0000,-277.7036,415.2158,595.6941,776.0699,-649.6243,-479.6273
16980.0000,-254.7988,421.6924,597.2943,745.9409,-656.1841,-468.1564
17000.0000,-188.6910,499.2356,594.6818,793.0021,-609.3937,-402.4837
17020.0000,-157.8604,512.7271,598.3094,788.0052,-608.0898,-382.1531
17040.0000,-160.5994,499.2765,593.6644,785.9287,-610.5004,-360.5104
17060.0000,-207.0936,453.7243,593.3394,782.9686,-613.0942,-374.1019
17080.0000,-233.4030,432.3342,600.6485,779.0975,-631.3549,-394.3085
17100.0000,-248.9816,451.6072,596.3223,707.8875,-628.1131,-434.2157
17120.0000,-223.4591,484.4797,594.6381,736.1438,-624.2794,-409.3190
17140.0000,-183.0702,480.4429,594.3813,819.0139,-582.2900,-350.4033
17160.0000,-245.4707,434.5223,597.5859,763.1950,-640.3774,-406.2100
17180.0000,-311.1737,383.5490,594.4061,737.7377,-681.3177,-483.4757
17200.0000,-344.2303,358.4342,598.5661,705.1570,-692.3366,-512.2953
17220.0000,-284.3634,432.3414,598.4149,738.7935,-639.3463,-432.4349
17240.0000,-234.2728,467.4975,594.5552,792.1685,-587.1758,-385.1079
17260.0000,-194.3590,500.3863,600.4611,852.6253,-577.3993,-359.5652
17280.0000,-327.0444,382.6926,596.5388,734.3963,-676.3774,-475.0148
17300.0000,-389.5766,352.1088,593.4952,671.5986,-700.4630,-541.5418
17320.0000,-346.9678,439.6649,593.4812,732.4134,-609.1544,-488.9394
17340.0000,-272.4168,490.1703,593.5299,769.4211,-565.3663,-395.6911
17360.0000,-226.9318,491.7819,588.4612,792.4125,-577.1691,-384.9476
17380.0000,-303.5220,413.0171,594.5753,772.3134,-632.3432,-449.6966
17400.0000,-388.9090,337.8950,591.3922,701.6797,-705.2347,-540.8434
17420.0000,-411.5965,336.1317,589.5760,663.3645,-711.3169,-559.7847
17440.0000,-343.8061,390.9207,593.3676,699.6793,-659.4103,-499.9820
17460.0000,-286.5993,439.1259,591.6335,782.2698,-615.2222,-426.7794
17480.0000,-215.7374,439.7974,592.3168,818.6708,-637.4539,-345.7827
17500.0000,-251.6902,421.0014,594.6976,803.2924,-630.1403,-365.6122
17520.0000,-308.8103,360.8549,596.3071,724.6664,-676.5880,-429.8908
17540.0000,-304.7877,392.1407,593.7303,704.2308,-661.1326,-427.5939
17560.0000,-293.8696,384.8935,598.2283,725.8015,-652.6344,-412.0285
17580.0000,-252.5989,428.2234,593.7711,745.2097,-639.8937,-386.4671
17600.0000,-239.8609,430.7122,597.1815,794.6422,-579.6353,-315.9728
17620.0000,-209.6109,469.3688,597.7869,807.2175,-549.8688,-287.4747
17640.0000,-271.8311,416.6229,596.1848,676.5594,-652.8705,-416.0739
17660.0000,-346.5898,341.2144,598.8364,672.2819,-719.8096,-510.4050
17680.0000,-373.0110,367.4077,596.1455,699.6136,-671.8572,-476.2194
17700.0000,-330.6707,391.3741,597.8677,736.4092,-627.4719,-434.2953
17720.0000,-249.8480,466.3862,598.0693,791.5117,-568.0146,-368.1948
17740.0000,-298.6836,429.5884,592.9205,741.5084,-610.5263,-402.3162
17760.0000,-370.1360,369.1771,598.0327,696.4860,-685.3309,-495.4267
17780.0000,-399.5231,331.7967,595.9775,646.4330,-716.3917,-532.1495
17800.0000,-404.2357,366.0251,593.0129,663.2178,-654.3856,-507.5691
17820.0000,-334.3579,418.9507,596.9656,718.6179,-588.1588,-433.9255
17840.0000,-303.1653,440.8691,593.9904,754.1768,-579.6064,-422.7137
17860.0000,-317.2865,432.2060,598.0049,736.7957,-601.8647,-447.7880
17880.0000,-380.2547,373.6711,595.9732,691.1249,-652.6472,-501.6964
17900.0000,-434.2235,333.2747,600.0503,633.9678,-662.8092,-528.7128
17920.0000,-365.3741,386.5591,596.8996,694.9011,-602.8208,-479.9566
17940.0000,-269.0894,472.5198,596.0991,803.1676,-530.7521,-387.7012
17960.0000,-295.3340,436.3779,599.8974,745.8024,-575.0123,-446.8653
17980.0000,-367.1457,364.6695,597.0768,685.2618,-632.5759,-513.5948
18000.0000,-365.5249,376.0634,595.8994,674.7405,-613.0397,-521.0319
18020.0000,-367.9872,392.8573,599.1118,677.3757,-605.4532,-522.4402
18040.0000,-312.5014,430.9352,600.8649,731.5881,-556.1399,-456.2671
18060.0000,-256.8961,473.1122,594.1454,780.4360,-512.2927,-406.3658
18080.0000,-279.6961,442.6898,600.8474,739.4804,-551.2026,-426.2137
18100.0000,-322.7895,398.2744,601.1600,682.4174,-588.2949,-485.1179
18120.0000,-332.6395,400.5289,597.8113,662.2722,-578.2578,-498.3844
18140.0000,-273.7638,438.5795,599.1603,693.7222,-581.2350,-484.1668
18160.0000,-187.6697,498.3434,601.8281,786.3809,-528.3303,-399.5325
18180.0000,-201.7495,488.7428,598.1608,808.6705,-502.2062,-387.1091
18200.0000,-300.8245,413.3185,600.8153,707.1397,-565.3377,-484.5645
18220.0000,-373.6589,366.7973,599.1726,597.8200,-638.2402,-588.0249
18240.0000,-398.8014,397.1429,597.7891,648.0365,-579.1545,-575.6996
18260.0000,-298.7018,436.8646,600.1821,722.7838,-550.4370,-461.9855
18280.0000,-238.8395,483.1011,599.8020,784.1034,-490.0714,-406.6595
18300.0000,-236.6162,498.8828,598.1678,777.0552,-494.4290,-422.8785
18320.0000,-308.9616,444.9588,595.8256,701.0095,-535.1641,-504.5154
18340.0000,-351.7786,425.0456,601.1891,644.8524,-563.5667,-557.0054
18360.0000,-363.9015,418.9909,595.8289,653.8586,-555.9443,-564.5656
18380.0000,-329.7042,484.0434,600.1769,735.0236,-482.6113,-520.9644
18400.0000,-256.7773,496.0753,597.7960,754.9581,-472.7080,-444.6274
18420.0000,-367.6385,423.9394,596.1921,662.0534,-499.7746,-520.1214
18440.0000,-357.9022,435.0578,601.8363,654.9821,-499.5845,-528.4627
18460.0000,-351.7800,434.9300,593.1585,657.0295,-499.9217,-534.1310
18480.0000,-299.9792,472.0158,598.8262,708.9487,-461.5418,-470.5645
18500.0000,-242.6054,506.0208,597.1229,783.9984,-409.0087,-409.0162
18520.0000,-261.7884,478.9698,600.8527,754.0494,-438.4304,-450.3987
18540.0000,-329.7668,417.8269,598.1179,679.8627,-475.2697,-537.0837
18560.0000,-350.9494,421.2266,595.8831,676.9796,-506.1536,-546.4448
18580.0000,-305.6559,426.6863,592.1113,743.9041,-459.3209,-477.2850
18600.0000,-254.8359,480.2847,598.8687,768.9686,-414.0280,-437.4024
18620.0000,-258.7903,473.6263,602.1168,737.9186,-433.6024,-476.2477
18640.0000,-280.7665,445.3054,596.8701,701.9749,-430.8844,-481.2322
18660.0000,-289.8692,422.5582,600.0836,699.9033,-454.6671,-493.3575
18680.0000,-251.7985,462.3776,596.8881,753.0125,-429.6036,-470.2797
18700.0000,-247.8449,460.5157,598.0497,760.9550,-421.8931,-454.3184
18720.0000,-297.7188,441.6530,593.9363,705.0268,-440.5647,-507.1198
18740.0000,-310.8295,431.2666,598.0340,701.9116,-453.1275,-522.5022
18760.0000,-356.7764,400.7127,597.9264,699.0983,-464.5119,-564.0875
18780.0000,-320.9751,422.1655,599.0268,722.7033,-439.1833,-525.6085
18800.0000,-329.6412,446.9519,600.9664,710.1005,-419.2244,-534.1290
18820.0000,-315.9505,458.9702,596.9947,711.6728,-394.3315,-515.6171
18840.0000,-318.5581,445.0479,598.9694,713.1242,-399.1252,-520.0821
18860.0000,-316.8682,457.9286,597.9850,735.6782,-397.3547,-513.6631
18880.0000,-332.5659,431.1877,592.9952,727.3331,-417.2230,-534.0259
18900.0000,-284.9472,477.7346,599.9813,773.6183,-376.3204,-483.5791
18920.0000,-256.4782,493.2638,599.0042,777.2125,-358.1521,-453.8446
18940.0000,-290.9406,463.6046,596.9424,711.5936,-385.4408,-500.6474
18960.0000,-321.4874,443.4035,601.0364,699.2487,-430.0693,-562.9930
18980.0000,-344.9419,422.4272,599.9503,683.7005,-455.3820,-580.5844
19000.0000,-311.6243,440.5038,598.0272,736.2925,-420.1032,-521.9305
19020.0000,-258.0659,489.3023,596.9142,775.6509,-367.5150,-465.7411
19040.0000,-209.5903,522.7443,599.0507,812.2274,-347.0157,-421.8930
19060.0000,-275.0367,470.4162,596.9001,735.6317,-399.4843,-488.6621
19080.0000,-316.7004,430.8538,600.0712,700.3704,-436.0353,-548.9741
19100.0000,-332.0226,434.3083,598.9027,689.6786,-439.3921,-554.6203
19120.0000,-299.7344,460.7525,597.0587,721.1500,-427.2510,-522.7828
19140.0000,-281.9024,476.2112,599.8959,753.7326,-370.3088,-477.7630
19160.0000,-308.7575,461.9540,600.0947,733.2305,-395.3223,-499.8842
19180.0000,-312.9031,448.1610,599.8838,740.7228,-391.1123,-500.6946
19200.0000,-354.7338,401.0055,599.0969,715.1580,-431.2716,-534.7996
19220.0000,-311.9542,451.0823,599.8757,758.8367,-393.0557,-495.6728
19240.0000,-330.8545,432.9489,594.1216,691.1022,-425.4768,-514.9208
19260.0000,-327.7976,443.9192,599.8694,703.7264,-424.0544,-528.6725
19280.0000,-288.8184,463.0408,599.1127,738.1886,-367.4749,-463.8036
19300.0000,-323.8785,442.9547,601.8756,730.7473,-405.7876,-498.7844
19320.0000,-299.8514,465.1514,599.1191,765.1935,-362.5637,-463.7334
19340.0000,-285.6850,462.9086,598.8464,765.7648,-367.7383,-461.6685
19360.0000,-321.6960,425.0079,599.1245,736.1089,-377.6837,-474.8401
19380.0000,-347.7382,402.7784,595.8742,720.9442,-387.6069,-495.7938
19400.0000,-300.8075,452.9969,598.1188,731.9693,-377.8249,-455.8033
19420.0000,-238.7600,484.0000,594.8658,769.0016,-353.4109,-400.8255
19440.0000,-241.7232,457.1472,602.1508,794.1829,-370.8914,-395.6637
19460.0000,-206.8005,473.9114,602.8710,807.9243,-341.4803,-358.9435
19480.0000,-282.8492,412.1851,602.1525,744.9998,-401.2009,-432.4891
19500.0000,-334.8733,385.7786,594.8633,660.8074,-430.4079,-492.9431
19520.0000,-297.7768,423.2028,597.1143,700.1614,-397.2052,-458.3790
19540.0000,-271.6924,457.8050,601.8629,766.9410,-372.1923,-423.1545
19560.0000,-206.6976,514.0935,595.1514,799.0215,-325.2871,-361.2714
19580.0000,-244.8170,504.8407,596.8270,760.9921,-356.2278,-403.1689
19600.0000,-301.5973,458.1149,599.1252,697.0034,-385.3129,-448.2986
19620.0000,-364.9009,404.7542,594.8702,654.7696,-434.0891,-507.5370
19640.0000,-367.7362,401.2342,599.1180,658.1574,-424.4018,-513.0090
19660.0000,-369.1148,391.6579,596.8391,690.6440,-429.0584,-496.5597
19680.0000,-324.4230,430.1818,596.1416,747.2178,-398.2960,-452.7520
19700.0000,-317.0156,428.8073,595.8922,703.6381,-414.0506,-465.7126
19720.0000,-316.5177,438.2353,597.0867,709.2965,-407.3903,-473.7662
19740.0000,-342.2178,415.6658,598.8734,700.5672,-404.0974,-484.9436
19760.0000,-368.3445,399.2801,603.1183,682.3865,-413.4841,-495.4047
19780.0000,-343.2714,411.7229,600.9008,695.4614,-427.0593,-481.2182
19800.0000,-331.2033,421.3533,597.0610,707.4063,-402.3129,-462.1998
19820.0000,-298.5938,448.6078,604.8917,735.4075,-378.2949,-416.3541
19840.0000,-317.0356,456.2845,601.0753,707.4837,-394.3094,-458.0490
19860.0000,-306.5653,440.5093,596.9022,711.2916,-392.2319,-446.7288
19880.0000,-287.8825,451.5605,598.0341,726.5876,-406.2372,-435.7226
19900.0000,-265.8095,458.5573,598.9357,736.3712,-403.4455,-400.8622
19920.0000,-239.6539,489.4951,597.0076,761.6770,-367.0898,-372.5786
19940.0000,-251.9992,483.4669,600.9679,733.0413,-387.4567,-385.1938
19960.0000,-272.3305,457.6916,597.9954,723.8178,-406.0169,-405.3020
19980.0000,-296.3444,436.3219,600.9908,723.0894,-415.7481,-422.3596
20000.0000,-246.1249,462.8661,600.9969,777.0208,-381.7832,-367.8911
20020.0000,-242.5186,494.2769,601.0120,766.0063,-367.7563,-373.6646
20040.0000,-242.9270,473.9809,597.9530,732.0583,-406.6101,-402.8116
20060.0000,-269.6311,451.0125,602.0408,697.7081,-442.8746,-435.9524
20080.0000,-278.8183,436.0081,600.9532,728.2698,-456.3915,-427.4883
20100.0000,-260.8575,454.8152,600.0485,754.8230,-427.1496,-409.0878
20120.0000,-278.6003,443.0068,601.9365,729.2792,-437.3609,-430.3078
20140.0000,-229.1416,492.7760,598.0600,805.7439,-353.3156,-356.2446
20160.0000,-237.4691,463.3060,598.8885,751.3118,-413.1193,-378.9928
20180.0000,-270.3040,434.5936,603.1215,717.5684,-478.6379,-437.5221
20200.0000,-197.0091,506.3439,599.8733,796.4575,-394.9736,-354.7336
20220.0000,-197.4108,511.5779,598.1076,791.4213,-393.6643,-362.7775
20240.0000,-216.7772,519.5396,600.8583,780.5009,-366.6281,-371.5621
20260.0000,-228.6945,515.3465,597.1230,789.5046,-372.9889,-380.9270
20280.0000,-267.6069,478.5746,597.8120,770.4779,-404.5854,-427.5161
20300.0000,-253.0247,495.2812,596.1890,789.4890,-380.1981,-414.0528
20320.0000,-238.4145,532.6296,599.8086,815.6004,-336.2772,-393.2614
20340.0000,-195.0873,567.1977,599.1767,837.4777,-330.2255,-347.1842
20360.0000,-205.3477,551.7723,601.8072,797.5363,-351.0827,-382.1862
20380.0000,-267.4592,492.0702,605.1842,751.4579,-404.4161,-446.4855
20400.0000,-333.1770,445.8806,599.7773,686.6047,-451.9353,-508.0591
20420.0000,-262.5754,497.0285,607.2134,756.2682,-391.6362,-433.4977
20440.0000,-235.9772,528.1228,601.7786,790.6806,-361.8553,-406.8056
20460.0000,-208.7198,555.9129,602.2408,810.5184,-324.8113,-381.6140
20480.0000,-215.5769,546.0968,602.7744,790.6547,-360.5743,-403.6494
20500.0000,-257.8427,510.8601,596.2595,769.3851,-391.0347,-442.8725
20520.0000,-257.5088,517.2478,600.7509,762.4572,-387.4730,-455.7875
20540.0000,-226.0420,538.7801,593.2433,779.4935,-362.0988,-430.9426
20560.0000,-212.3232,549.2067,600.7481,810.4345,-334.4464,-410.5123
20580.0000,-247.0791,515.7930,601.2516,776.5897,-345.1818,-443.8875
20600.0000,-239.3568,516.1852,597.7239,781.2875,-348.2211,-436.7001
20620.0000,-261.2011,502.6916,595.2623,757.7130,-376.3629,-471.8685
20640.0000,-243.1644,507.2711,596.7125,757.1714,-368.1068,-472.4812
20660.0000,-236.2003,518.7583,601.2560,749.8183,-370.2855,-479.9459
20680.0000,-227.2500,519.1968,599.7367,778.0959,-363.0685,-449.5670
20700.0000,-226.3800,516.6877,596.2686,782.8726,-339.4643,-440.8470
20720.0000,-233.2191,511.3564,593.7482,788.9309,-331.0387,-441.5385
20740.0000,-238.3401,502.7309,595.2582,772.9559,-363.3078,-471.8037
20760.0000,-216.1881,509.2634,597.7281,769.8053,-362.1353,-477.6208
20780.0000,-207.2827,481.9150,600.2373,799.1982,-382.3670,-461.8919
20800.0000,-213.2249,470.1888,612.7410,797.7877,-381.2247,-451.7130
20820.0000,-169.3250,516.8575,602.2447,829.3143,-334.2162,-399.7817
20840.0000,-151.2055,523.1090,605.7477,831.4936,-336.3003,-401.7899
20860.0000,-177.3344,493.9878,605.2075,812.5117,-360.3019,-429.6242
20880.0000,-189.1840,498.0379,602.7863,789.4987,-375.1604,-449.9388
20900.0000,-200.2361,488.1148,598.2007,789.5620,-372.2699,-441.5141
20920.0000,-210.4045,475.9079,594.7898,792.3493,-379.3045,-446.9889
20940.0000,-208.2002,479.0395,596.2280,782.8375,-397.1758,-482.4459
20960.0000,-196.5082,488.8570,599.7822,773.2043,-382.3497,-465.2802
20980.0000,-211.0648,483.2957,603.2190,773.8141,-395.0453,-489.2864
21000.0000,-197.5529,492.6281,601.8051,811.0478,-373.5921,-455.3893
21020.0000,-195.7468,520.3791,606.1821,813.0800,-359.9748,-463.9937
21040.0000,-236.7693,483.5521,596.7748,784.8397,-392.5402,-487.6665
21060.0000,-238.5741,483.5869,605.1683,747.0903,-357.8172,-484.7801
21080.0000,-260.8772,458.3636,600.8104,782.6392,-405.6174,-514.7560
21100.0000,-207.6005,501.6374,599.1730,837.3413,-343.8428,-439.5848
21120.0000,-235.0837,467.1655,598.7952,791.6796,-374.8607,-480.0135
21140.0000,-251.3212,451.7786,601.1862,767.4389,-400.7123,-511.4575
21160.0000,-261.2328,452.1126,597.7891,764.6094,-411.9773,-534.1573
21180.0000,-248.1186,459.0478,603.2026,761.5918,-412.6180,-542.2357
21200.0000,-238.4678,480.8539,601.8189,777.5653,-414.1586,-541.3864
21220.0000,-215.9591,475.2625,600.1799,779.4824,-417.4889,-516.0212
21240.0000,-261.6843,457.7386,600.8096,750.4974,-419.3000,-563.7013
21260.0000,-258.7105,452.2552,601.1914,758.5020,-394.1853,-550.7100
21280.0000,-249.0209,474.5676,600.8040,780.4503,-362.4296,-524.8345
21300.0000,-196.4083,516.4327,602.2070,827.6241,-338.1943,-477.5018
21320.0000,-132.2457,564.3593,603.7645,869.4166,-297.3975,-423.0822
21340.0000,-171.1273,521.6291,603.2227,824.6487,-363.9587,-473.3305
21360.0000,-222.3556,459.3592,603.7563,773.3276,-417.6292,-525.3416
21380.0000,-227.9059,466.7003,601.2173,757.6266,-418.7793,-523.9554
21400.0000,-163.7331,506.0325,603.7459,800.3486,-376.6467,-472.7334
21420.0000,-149.7608,517.9893,603.2429,809.5110,-384.8440,-441.8047
21440.0000,-88.7822,540.1094,602.7776,839.5145,-366.7605,-408.9837
21460.0000,-62.4283,561.0043,602.2489,864.5970,-374.7412,-407.4825
21480.0000,-114.0593,512.9233,602.7659,830.4116,-385.0334,-425.1843
21500.0000,-178.2963,474.1463,600.2438,793.3790,-397.5822,-467.3083
21520.0000,-180.2367,484.8313,600.7402,764.6082,-396.9262,-492.4742
21540.0000,-161.0941,483.1810,603.2808,805.4099,-395.4591,-488.0447
21560.0000,-135.3882,531.7820,603.6957,856.6606,-362.0360,-465.6370
21580.0000,-129.8712,520.4277,605.2562,865.2519,-363.3590,-452.8646
21600.0000,-141.5609,522.7616,611.6882,864.7660,-348.2690,-466.9659
21620.0000,-207.8370,489.2902,609.2994,772.2638,-399.3931,-552.6720
21640.0000,-168.8702,518.5741,604.6757,799.8911,-404.1971,-530.1043
21660.0000,-189.5076,483.3682,604.2750,805.0928,-428.1777,-548.3101
21680.0000,-203.0604,460.4838,602.7001,802.9880,-436.2661,-565.2638
21700.0000,-178.3000,491.4424,603.3337,802.9246,-399.2820,-541.0993
21720.0000,-206.2158,489.5802,605.6592,793.0428,-399.3033,-551.4898
21740.0000,-202.2946,479.5324,603.3440,780.8243,-400.1527,-550.9647
21760.0000,-204.2883,480.3805,608.6720,790.1995,-410.4614,-557.7856
21780.0000,-186.0483,488.5090,605.3147,809.7573,-411.2373,-545.7460
21800.0000,-163.5046,499.4061,603.6262,809.3186,-417.5487,-547.9148
21820.0000,-168.0133,518.5576,605.3217,822.6369,-390.1150,-523.5479
21840.0000,-163.6290,515.4630,603.6224,802.5941,-377.3830,-515.9674
21860.0000,-163.9825,517.4286,599.3301,830.5261,-389.1507,-528.4019
21880.0000,-175.7015,513.3860,598.6378,789.6622,-437.6165,-575.3208
21900.0000,-170.7663,537.6280,602.3547,821.2584,-382.0714,-579.3626
21920.0000,-116.7254,558.5778,601.6589,854.7500,-366.5991,-500.3216
21940.0000,-96.6509,569.5181,605.3251,857.2868,-387.9373,-506.2827
21960.0000,-173.8137,517.5166,601.6588,792.8714,-449.7268,-595.4349
21980.0000,-208.5142,479.5739,602.3529,756.0568,-453.0813,-622.1610
22000.0000,-164.9486,544.3338,600.6554,847.8602,-361.6964,-533.5294
22020.0000,-172.5826,550.4708,598.3186,833.0568,-370.8548,-551.0900
22040.0000,-195.1436,526.4251,601.6684,798.0901,-414.6411,-592.5850
22060.0000,-193.3833,525.5124,602.3390,787.0167,-444.7989,-604.9183
22080.0000,-223.2544,505.3029,600.6727,795.1970,-452.8351,-620.8356
22100.0000,-240.4528,498.6803,600.3098,786.9375,-452.9381,-611.8541
22120.0000,-300.3373,461.4405,601.6940,740.1131,-467.8895,-668.9584
22140.0000,-329.3411,442.5000,601.3059,720.7773,-484.8979,-673.8245
22160.0000,-313.2840,464.3786,603.6685,716.1246,-471.8126,-633.8480
22180.0000,-275.2457,497.6225,601.2933,736.7737,-436.6852,-593.8284
22200.0000,-220.2624,531.3130,605.6965,779.2839,-414.9005,-532.9802
22220.0000,-228.0662,501.8062,599.2668,767.8604,-431.6242,-542.6924
22240.0000,-258.4834,458.2864,603.6943,749.0946,-436.0993,-540.8760
22260.0000,-242.0183,497.7545,599.2504,770.8495,-398.6156,-534.5714
22280.0000,-183.4017,520.1403,599.7349,775.1434,-398.0558,-486.9732
22300.0000,-213.9118,481.7800,606.2327,770.8643,-436.4460,-516.6414
22320.0000,-248.5111,451.9098,599.7524,768.2619,-440.1544,-523.8928
22340.0000,-260.0401,450.9222,600.2211,747.8200,-445.4056,-536.4743
22360.0000,-257.5487,454.7745,603.7469,732.9683,-436.4149,-540.9661
22380.0000,-207.8160,494.1461,602.2208,770.9568,-402.1870,-494.5559
22400.0000,-200.5969,505.8332,598.7804,777.9824,-411.5435,-504.0475
22420.0000,-191.8747,516.3076,603.2100,827.9980,-378.2178,-458.4945
22440.0000,-259.7249,453.6383,601.8205,753.9088,-417.5432,-538.0947
22460.0000,-254.8198,477.4210,603.1905,769.9397,-413.0891,-517.5019
22480.0000,-281.8510,451.4432,601.8355,730.9498,-442.6316,-561.0195
22500.0000,-240.7755,487.3905,607.1522,761.0698,-416.8687,-523.6744
22520.0000,-176.8441,530.4871,602.8608,838.8653,-363.7010,-454.8265
22540.0000,-185.7704,478.5862,604.1113,793.1923,-386.7856,-466.6730
22560.0000,-252.9501,451.2183,600.8639,734.7227,-443.9274,-516.8015
22580.0000,-295.6140,457.5947,599.1127,702.2166,-455.7308,-573.7452
22600.0000,-227.9300,489.1826,602.8943,732.5743,-431.9869,-533.8013
22620.0000,-219.7495,497.8506,603.1275,728.3676,-457.6990,-542.7803
22640.0000,-188.8648,521.1970,602.9076,798.6230,-407.0815,-488.7486
22660.0000,-236.7508,487.8520,603.1136,733.2420,-444.6836,-542.8384
22680.0000,-267.9444,469.0158,601.9111,697.4305,-445.9701,-561.6409
22700.0000,-277.6805,453.9677,598.0647,713.3920,-453.4937,-576.9871
22720.0000,-239.8886,475.8211,603.8888,739.4647,-450.1031,-544.7524
22740.0000,-173.5506,526.1054,599.0561,798.5835,-396.4508,-473.9494
22760.0000,-211.8106,496.8679,599.9255,759.5402,-429.2370,-531.5576
22780.0000,-226.7077,482.0903,605.0379,737.5162,-419.6159,-547.0295
22800.0000,-226.9448,470.8960,601.9503,729.3080,-426.0733,-554.3976
22820.0000,-243.7429,451.1765,603.0664,724.5301,-454.5541,-572.2189
22840.0000,-219.7592,501.8456,603.9225,758.3357,-410.1751,-552.3217
22860.0000,-218.7485,482.1703,600.0318,743.5399,-426.4039,-553.3145
22880.0000,-219.7121,477.7222,601.9712,751.4390,-420.1584,-546.3328
22900.0000,-245.9394,456.2626,605.0081,768.7273,-421.4173,-552.3253
22920.0000,-250.6784,442.8409,602.9867,749.3688,-431.0424,-568.2914
22940.0000,-246.9191,459.2419,603.0380,726.6436,-437.5711,-575.5765
22960.0000,-225.5423,482.7866,599.9719,755.3237,-407.1606,-546.1230
22980.0000,-224.0402,474.1012,602.0234,765.4941,-394.5067,-541.6459
23000.0000,-214.4550,481.8795,603.9550,775.4523,-373.9798,-516.9940
23020.0000,-243.1750,453.1997,602.0161,740.5587,-416.5650,-541.7358
23040.0000,-255.4686,461.7777,603.0074,724.4827,-434.0578,-577.7897
23060.0000,-265.1090,448.0777,601.0027,697.5168,-438.6718,-583.7884
23080.0000,-227.3426,482.9580,602.0044,759.5157,-417.8572,-540.7746
23100.0000,-222.2509,457.8325,603.9679,756.4784,-415.8408,-545.9209
23120.0000,-226.3178,464.0143,603.0170,734.4122,-436.8255,-554.6310
23140.0000,-218.4548,466.9097,602.0011,759.3846,-425.0221,-548.0010
23160.0000,-258.1429,449.2275,606.9979,746.6166,-443.7515,-568.4880
23180.0000,-251.4246,458.7622,599.9828,751.3103,-440.1248,-559.2538
23200.0000,-218.0633,480.3094,602.0175,785.5768,-424.5750,-536.4944
23220.0000,-215.6667,481.5840,600.9855,781.1890,-421.1742,-516.3293
23240.0000,-226.0005,461.3947,601.0146,760.7283,-457.3732,-547.2943
23260.0000,-226.8055,450.4703,604.9573,757.0760,-449.2310,-551.3875
23280.0000,-234.8693,432.6212,602.0245,775.9227,-436.3586,-551.1128
23300.0000,-188.7399,474.4095,604.9537,860.1607,-383.5254,-484.4347
23320.0000,-157.7851,506.6406,601.0227,836.8709,-351.0698,-455.1220
23340.0000,-190.8900,489.1802,605.9571,790.0580,-384.5654,-497.6324
23360.0000,-246.6479,422.8333,601.0263,732.8983,-431.0745,-555.9140
23380.0000,-199.9469,488.0890,600.9699,800.9213,-392.6724,-503.6458
23400.0000,-150.4885,523.9434,596.9988,858.1480,-330.7988,-434.8045
23420.0000,-143.0066,547.8162,598.9525,839.7038,-349.8993,-460.7097
23440.0000,-226.5271,486.2295,599.0157,765.1381,-384.7118,-534.7610
23460.0000,-208.1124,513.7046,599.9583,795.6708,-340.0410,-503.8197
23480.0000,-180.5080,530.2130,602.0402,821.3149,-311.6720,-472.6295
23500.0000,-166.0996,541.5255,595.9798,840.6105,-301.1468,-455.8674
23520.0000,-152.4324,531.5139,605.0106,845.4557,-302.4507,-447.6487
23540.0000,-199.2408,483.3095,598.9507,822.3956,-291.3126,-479.9833
23560.0000,-217.4505,462.6077,599.0175,814.7029,-308.2017,-503.4648
23580.0000,-210.2991,465.2452,599.9581,819.3071,-283.5204,-485.0791
23600.0000,-195.3820,494.8804,597.0031,830.8328,-275.1275,-476.3135
23620.0000,-206.1849,479.0803,603.9350,808.2021,-297.5241,-501.1083
23640.0000,-183.3963,506.9808,604.0013,841.9459,-250.8956,-469.2162
23660.0000,-161.1298,525.9677,601.9742,846.9852,-210.7142,-431.2914
23680.0000,-155.3688,540.1493,598.0076,853.0180,-164.7208,-415.2134
23700.0000,-150.3261,536.8206,599.9634,816.9077,-174.7480,-429.3914
23720.0000,-212.3807,496.2523,602.0329,812.1844,-207.7095,-473.2329
23740.0000,-192.1459,497.6756,597.9528,819.7881,-186.9080,-447.3609
23760.0000,-172.3959,515.4395,604.9974,831.2615,-159.4393,-431.0089
23780.0000,-197.1854,493.4037,600.9798,793.8434,-171.1551,-467.5306
23800.0000,-205.5038,500.4432,597.9935,794.3062,-167.4746,-468.9294
23820.0000,-199.2399,498.3079,598.9720,814.5687,-160.1559,-470.4349
23840.0000,-171.4901,520.7784,601.0073,812.4737,-135.3281,-428.0130
23860.0000,-160.1681,524.0749,602.0026,807.6108,-133.2843,-442.5669
23880.0000,-145.3259,541.7797,596.0148,851.4270,-104.0996,-404.8150
23900.0000,-179.2318,511.0943,599.9976,797.4705,-138.4022,-443.7212
23920.0000,-153.3651,536.8894,598.9745,796.6052,-121.9051,-436.8453
23940.0000,-96.2409,581.8511,601.0161,854.3582,-75.6307,-373.6695
23960.0000,-66.5173,599.1745,601.9857,895.4871,-32.7986,-332.8385
23980.0000,-106.1151,576.6806,601.0252,870.3182,-45.7578,-362.8029
24000.0000,-157.5466,499.2677,602.9845,777.7214,-134.8732,-468.6399
24020.0000,-126.1027,550.6436,606.0212,833.2318,-67.8615,-394.7355
24040.0000,-73.4102,616.4012,599.9476,876.5884,-9.6777,-332.7244
24060.0000,-76.2443,605.5834,603.0645,881.2304,-6.8702,-341.9451
24080.0000,-155.4729,541.4796,602.9579,816.6659,-64.5480,-415.6730
24100.0000,-185.1921,516.4630,601.0631,797.2442,-88.0046,-459.9388
24120.0000,-147.3886,547.5765,604.9052,818.7696,-46.5270,-414.5040
24140.0000,-107.0630,592.2875,601.0768,874.3253,-7.9131,-382.0128
24160.0000,-66.4473,610.7783,603.8836,904.7979,12.3418,-325.3378
24180.0000,-88.2501,570.1565,598.0673,872.2628,-27.9435,-361.0916
24200.0000,-158.3814,521.8409,603.8715,813.7150,-61.4285,-435.4049
24220.0000,-201.3881,489.0763,601.1041,765.2074,-105.1762,-473.1879
24240.0000,-194.4220,503.8031,598.8729,765.6686,-82.5063,-471.4080
24260.0000,-155.2069,539.9354,603.1343,817.4069,-41.1450,-426.0163
24280.0000,-109.3281,566.9774,601.8801,832.6740,-10.2904,-398.4273
24300.0000,-137.3286,552.9393,603.1481,819.2745,-32.9634,-418.1695
24320.0000,-115.2668,581.0180,598.8445,816.5896,-40.5173,-409.3476
24340.0000,-126.3509,575.8306,609.1531,815.4341,-59.0494,-416.2217
24360.0000,-86.2320,612.0545,599.8396,851.5667,-42.3419,-395.3326
24380.0000,-61.3461,625.8151,597.1299,875.4134,-14.0605,-352.2365
24400.0000,-107.0786,568.9539,603.8040,797.5256,-85.5128,-435.2886
24420.0000,-136.5998,564.7406,600.1628,773.4346,-76.0074,-432.2016
24440.0000,-78.9665,607.0589,598.8105,838.4141,-26.5245,-358.3916
24460.0000,-65.6365,614.7526,601.1763,855.6302,-7.8314,-335.2276
24480.0000,-100.0472,571.9630,597.7972,825.3115,-45.6580,-377.3933
24500.0000,-136.7251,538.8149,598.1589,804.6820,-55.8893,-405.1169
24520.0000,-122.9606,546.9378,603.7840,822.2548,-60.7246,-401.2050
24540.0000,-87.6056,589.7776,598.1646,853.7172,-32.6429,-365.1426
24560.0000,-107.7181,543.0129,598.7955,821.2589,-78.7491,-395.3185
24580.0000,-42.8551,602.8920,598.1663,859.7332,-22.5663,-333.2541
24600.0000,-100.7422,567.9877,599.8019,828.2892,-64.7464,-375.2183
24620.0000,-108.8984,552.0035,599.1729,794.8519,-80.5908,-398.1103
24640.0000,-85.7342,576.8737,597.7915,851.0704,-22.8516,-334.3965
24660.0000,-20.9295,647.9793,598.1592,880.0389,42.3549,-273.1676
24680.0000,-115.5710,581.8325,601.8262,840.9025,-9.1203,-305.3836
24700.0000,-188.1136,551.0060,599.1600,835.9713,-21.3365,-355.0688
24720.0000,-194.5669,555.8309,600.8269,844.9457,-11.0241,-350.3699
24740.0000,-187.0102,543.0880,603.1812,839.0365,-31.2187,-357.0132
24760.0000,-124.4096,611.7031,598.8234,871.8420,12.4713,-310.4369
24780.0000,-179.0343,578.2922,600.1441,820.1270,-30.2015,-367.0505
24800.0000,-193.5511,545.5085,599.8452,819.8320,-35.3218,-372.4867
24820.0000,-207.1213,534.3661,602.1436,805.3297,-45.0766,-380.1399
24840.0000,-173.5037,575.4446,599.8625,828.6748,-13.4013,-340.3966
24860.0000,-88.0763,617.5615,601.1187,880.4502,26.7847,-285.1053
24880.0000,-117.3933,599.3882,600.8896,873.6506,38.2543,-314.4293
24900.0000,-164.1857,565.6242,598.0751,815.3311,-5.8090,-375.9570
24920.0000,-151.3900,582.0446,600.9114,814.5522,6.1431,-380.4142
24940.0000,-137.3078,600.8806,599.0592,809.4634,2.0055,-387.0762
24960.0000,-76.4420,656.0067,601.9429,869.3663,85.9626,-317.5347
24980.0000,-73.1929,659.9888,598.0262,867.6373,66.1301,-335.9417
25000.0000,-72.2968,661.8174,601.9705,838.4185,70.8746,-359.5001
25020.0000,-104.1994,640.2124,601.0203,815.5877,53.3016,-393.9883
25040.0000,-79.4026,668.7953,600.9893,834.2326,81.9269,-366.4972
25060.0000,-60.2911,674.3121,598.9809,846.7713,81.3105,-375.8401
25080.0000,-66.3313,674.5887,602.0264,828.1876,69.7956,-396.6867
25100.0000,-14.0848,730.4382,596.9357,887.7887,144.4974,-330.8356
25120.0000,-39.4369,704.5007,599.0328,836.1258,98.7793,-386.6548
25140.0000,-47.1579,690.6769,599.9283,804.8298,77.5860,-413.8037
25160.0000,-15.3147,709.1776,599.0618,815.0131,93.7229,-406.5523
25180.0000,7.5777,732.8132,600.9083,838.0718,112.6101,-384.9542
25200.0000,29.4565,761.1021,597.0734,884.0108,150.6450,-366.6198
25220.0000,23.7071,777.9337,603.8514,890.0724,186.6679,-362.8831
25240.0000,21.3631,790.0919,600.1220,839.7685,154.4424,-403.7868
25260.0000,30.6692,789.1108,597.8321,817.1965,129.7465,-423.7717
25280.0000,40.4006,794.7725,597.1279,833.7348,166.4208,-414.7395
25300.0000,37.8459,794.2897,599.8193,845.2005,174.7554,-415.8683
25320.0000,48.1395,811.8385,601.1832,853.7479,197.4511,-401.7064
25340.0000,69.8329,829.5033,601.8098,843.2216,204.7539,-395.7627
25360.0000,80.2712,852.5613,599.1921,843.5833,173.3240,-426.8660
25380.0000,106.0170,859.4782,600.7804,859.3694,194.8317,-392.6301
25400.0000,74.2517,831.5772,598.2040,823.3523,161.2520,-438.9082
25420.0000,109.9660,861.6437,601.7698,864.4870,197.8117,-405.7184
25440.0000,110.0375,858.3097,603.2579,852.2928,202.2917,-404.8882
25460.0000,143.1385,881.7139,598.7315,866.6601,212.8451,-396.7132
25480.0000,178.0438,909.3984,595.2671,889.2668,201.1279,-404.9091
25500.0000,129.1837,871.9421,599.7256,868.8261,191.0909,-459.5694
25520.0000,166.0104,911.1368,599.2553,888.2382,223.0936,-420.0477
25540.0000,199.1218,930.0696,595.7376,902.7809,217.0123,-410.6020
25560.0000,205.0351,945.2616,597.2518,913.9837,233.0497,-409.1621
25580.0000,166.3192,909.0287,594.7202,888.9370,192.9836,-459.4836
25600.0000,160.8524,896.1097,594.2878,904.0605,185.1084,-470.1287
25620.0000,211.3896,954.0203,597.6852,918.0556,221.1531,-444.4056
25640.0000,234.8182,973.1597,597.2604,919.9623,235.0086,-431.0813
25660.0000,257.4167,994.2081,593.7067,921.1360,237.0870,-416.4024
25680.0000,242.8613,950.2307,594.2928,880.7928,185.0612,-445.0421
25700.0000,221.3407,950.1477,597.6811,889.1688,187.1409,-460.5244
25720.0000,239.8355,938.0473,600.2870,888.7130,165.9479,-451.1906
25740.0000,256.2985,960.0147,599.6971,921.2585,173.0767,-447.4037
25760.0000,182.8450,904.1229,595.2986,902.6284,155.0525,-489.1739
25780.0000,158.3937,881.0796,598.6946,866.4247,124.0583,-526.4532
25800.0000,184.9136,915.1592,599.2704,871.6830,130.9516,-518.2371
25820.0000,185.4834,917.9622,599.7058,875.3640,122.2407,-517.5248
25840.0000,184.9274,916.1171,600.2744,872.5594,120.0415,-518.2319
25860.0000,178.3233,894.0549,595.7344,879.2863,109.0864,-521.4732
25880.0000,222.0181,948.3318,595.2810,945.5455,145.9503,-461.1573
25900.0000,251.3626,958.9086,597.7045,956.3956,144.0434,-427.5952
25920.0000,226.9158,948.4179,596.2843,932.5128,104.8734,-447.1249
25940.0000,168.2879,895.7046,596.7003,882.4769,63.1709,-492.5445
25960.0000,164.0166,911.3555,596.2792,873.5098,64.9416,-514.9830
25980.0000,188.1957,945.6096,595.7510,916.3144,85.1618,-491.7511
26000.0000,231.2570,969.5356,594.2614,959.5742,86.1146,-447.8306
26020.0000,223.9162,942.4807,595.7519,918.3186,37.8816,-488.8010
26040.0000,179.2119,925.8553,593.2536,932.6345,38.0323,-491.8438
26060.0000,121.6878,909.2728,592.7333,897.1904,11.9272,-523.8873
26080.0000,123.5393,912.9683,596.2708,862.7340,-27.4917,-553.7183
26100.0000,163.5762,949.2404,594.7510,894.1302,-11.9948,-513.9894
26120.0000,162.5752,941.1458,598.2297,910.8636,-21.5161,-504.4357
26140.0000,177.3792,938.9380,595.7610,896.0724,-30.9360,-487.3036
26160.0000,152.0082,947.3334,599.2383,918.0795,-28.4542,-490.2759
26180.0000,125.1929,916.6967,597.7207,915.8517,-56.2365,-498.4039
26200.0000,121.2180,904.6467,596.2722,919.1124,-59.2367,-501.0170
26220.0000,125.8508,902.4620,598.7242,922.8171,-62.2373,-486.5827
26240.0000,157.3537,916.8300,595.2703,944.2044,-45.2596,-455.8112
26260.0000,132.6724,901.2775,599.7241,897.7159,-103.4617,-487.9080
26280.0000,133.7539,897.1306,599.2572,893.3417,-113.0273,-496.6553
26300.0000,119.2769,887.0321,594.7264,913.5942,-108.5646,-486.1472
26320.0000,128.0726,880.4026,601.2875,892.5648,-132.9060,-471.5577
26340.0000,183.9986,924.8406,600.7034,948.4218,-109.6106,-416.2813
26360.0000,244.5040,960.5369,602.3102,979.6717,-79.8634,-359.2667
26380.0000,193.5795,906.4524,601.6937,966.1174,-138.7781,-406.4424
26400.0000,163.6969,858.9443,600.3137,964.0401,-128.7888,-416.9218
26420.0000,147.2655,856.1575,598.6519,957.9583,-119.8208,-389.6349
26440.0000,205.1604,908.0699,603.3571,972.1835,-117.5623,-355.7730
26460.0000,209.0185,911.8820,603.6138,989.8663,-94.0251,-346.8061
26480.0000,197.4554,884.4868,604.3359,994.2836,-108.5974,-340.4844
26500.0000,205.6843,885.6788,598.6015,1001.8540,-107.0751,-329.1172
26520.0000,164.6991,848.7343,601.3961,981.3845,-122.3400,-343.3251
26540.0000,161.4219,869.3445,600.5859,988.6748,-111.0374,-354.4529
26560.0000,145.0513,849.0099,601.4275,989.5126,-110.2074,-337.2149
26580.0000,153.9701,840.1809,603.5246,1003.4449,-94.3252,-304.6248
26600.0000,147.4464,834.1188,599.4448,998.5439,-85.1448,-292.9071
26620.0000,164.6782,838.7794,603.4915,1024.3826,-69.1953,-283.6130
26640.0000,148.6536,835.4822,601.4925,978.7085,-121.2134,-353.7092
26660.0000,108.2921,801.6115,600.4883,952.2479,-117.3851,-366.7614
26680.0000,48.9562,720.5214,600.5203,889.7981,-172.2463,-423.6696
26700.0000,21.1262,703.4377,609.4634,909.1821,-169.4138,-426.9508
26720.0000,-8.4813,698.6855,597.5372,872.6886,-197.1914,-454.5708
26740.0000,4.7767,704.1660,596.3810,872.3122,-201.4581,-451.0825
26760.0000,45.5535,739.0175,600.5979,934.7211,-140.1646,-367.5315
26780.0000,54.6547,748.0469,600.3718,964.2367,-85.4655,-335.2032
26800.0000,30.5932,714.1572,602.6538,932.9138,-124.0256,-373.3474
26820.0000,-51.5002,640.7726,600.3320,844.1602,-182.4083,-433.3192
26840.0000,-49.0093,650.2565,601.6862,872.7208,-160.1426,-409.3564
26860.0000,-3.8406,678.7534,600.2919,883.2971,-140.3948,-391.2002
26880.0000,43.0645,725.3653,598.7029,962.8062,-65.0337,-289.2199
26900.0000,84.0809,754.6147,604.2283,980.3394,-36.3841,-249.2278
26920.0000,4.3114,682.2868,604.7361,934.6324,-103.1984,-328.3205
26940.0000,-34.8443,641.6784,601.2195,905.3698,-115.3656,-346.1755
26960.0000,-25.7463,674.2867,601.8047,919.6918,-82.1203,-340.3750
26980.0000,35.0037,682.7405,599.1661,973.3907,-44.2516,-246.0856
27000.0000,80.2315,725.4373,603.8563,1020.4914,0.7033,-192.3584
27020.0000,52.0023,695.5937,603.1083,1024.4921,-12.2010,-196.0044
27040.0000,-82.7712,591.4069,602.8823,933.4653,-72.2219,-306.4488
27060.0000,-81.7304,604.7912,604.0838,937.6629,-74.1360,-304.0319
27080.0000,-31.8019,628.2939,604.8754,985.2958,-29.3496,-242.5482
27100.0000,-9.7205,645.6882,602.0933,1014.8555,-15.2899,-218.9630
27120.0000,-21.7854,622.2421,603.9463,1009.2079,-13.2729,-210.7836
27140.0000,-104.5425,568.9243,604.0307,954.8009,-69.0574,-280.8577
27160.0000,-138.9389,531.9498,601.9578,916.2044,-80.2956,-305.9415
27180.0000,-88.5299,580.0621,602.9987,957.8932,-44.0483,-253.6278
27200.0000,-107.1475,545.8063,602.9847,978.0788,-33.3288,-244.9357
27220.0000,-128.3676,521.0045,602.0275,952.9698,-77.1713,-292.5729
27240.0000,-153.3110,512.8427,604.9603,959.8881,-53.3401,-283.1002
27260.0000,-178.0354,498.2250,609.9691,930.2045,-78.0544,-310.3185
27280.0000,-138.5911,521.6254,604.9718,967.7847,-60.3798,-288.2770
27300.0000,-128.8581,532.3401,606.9918,1006.2552,-26.0663,-256.2184
27320.0000,-154.9236,518.4563,604.0216,958.7660,-53.3338,-296.5201
27340.0000,-199.6514,481.5895,600.9994,939.3198,-76.0298,-332.0695
27360.0000,-193.0867,493.2761,604.9744,946.5676,-80.3068,-334.6690
27380.0000,-175.4865,504.7192,601.0010,951.5264,-72.2040,-331.9050
27400.0000,-199.3451,483.8917,598.9763,962.4926,-59.3888,-346.8619
27420.0000,-190.1356,490.9433,604.9878,952.5299,-64.0522,-360.7691
27440.0000,-237.7628,456.8563,600.9789,915.5250,-94.3006,-388.9505
27460.0000,-231.9198,464.0688,601.0269,945.5032,-45.2613,-354.4978
27480.0000,-224.9544,467.6524,606.9526,968.3121,-69.2604,-350.2217
27500.0000,-207.4986,492.4956,600.0385,962.7175,-46.2347,-342.3322
27520.0000,-207.3010,475.4823,603.9603,958.4355,-78.2599,-358.2216
27540.0000,-248.3611,447.5084,612.0496,934.6157,-93.3138,-381.2938
27560.0000,-216.5726,467.2186,604.8872,949.2216,-69.1166,-363.4142
27580.0000,-214.9801,470.8908,603.0639,940.8322,-89.5317,-354.0762
27600.0000,-222.8108,461.0560,605.8657,935.2512,-83.9905,-351.5121
27620.0000,-228.7219,447.0112,607.1258,933.7664,-109.6064,-364.8714
27640.0000,-261.0074,433.7808,604.8219,903.2182,-101.8224,-358.6084
27660.0000,-280.4125,400.1629,603.1343,885.7209,-138.5461,-380.9282
27680.0000,-249.3239,424.6375,603.8292,897.2512,-112.8484,-359.8262
27700.0000,-250.2867,417.3253,602.2192,884.8065,-121.8416,-358.7649
27720.0000,-242.6628,432.4905,600.7662,897.2607,-122.7403,-345.9474
27740.0000,-247.0278,414.5305,606.2402,895.7938,-150.7647,-348.6100
27760.0000,-238.7545,437.1405,603.7421,912.3903,-132.6203,-322.8664
27780.0000,-267.7436,404.8142,615.2995,880.6547,-156.9997,-350.5125
27800.0000,-249.0864,427.1149,600.6732,898.2272,-140.4775,-310.0668
27820.0000,-266.5977,417.8341,606.3322,894.6038,-137.9921,-305.4268
27840.0000,-223.3070,447.8382,603.6470,920.4431,-123.3715,-276.0685
27860.0000,-218.3587,462.0404,601.3963,942.6024,-106.0425,-253.3731
27880.0000,-242.3522,441.7269,601.5864,881.3591,-161.4580,-299.0808
27900.0000,-248.0509,443.1445,605.4205,856.5558,-178.0684,-305.2801
27920.0000,-226.6825,455.5783,604.5080,890.3086,-182.3158,-277.3261
27940.0000,-227.8750,457.2784,600.4817,909.6037,-167.1871,-255.1822
27960.0000,-239.7117,442.3818,609.4998,883.4980,-186.3627,-277.3846
27980.0000,-218.7420,465.4372,600.5272,888.5119,-181.0512,-254.2321
28000.0000,-231.8141,429.4263,603.4626,915.5743,-191.3472,-244.4807
28020.0000,-230.5762,432.4858,600.5714,897.5940,-194.2253,-259.2053
28040.0000,-245.9935,420.3618,604.3709,864.5965,-247.2247,-287.3776
28060.0000,-244.4511,412.6396,602.6311,873.5316,-246.1803,-272.0181
28080.0000,-245.1833,417.0792,598.3384,862.5898,-247.2601,-273.4558
28100.0000,-220.4308,438.6465,603.6263,893.3908,-222.0689,-247.9344
28120.0000,-284.3896,394.0363,602.3274,832.6559,-281.3876,-292.5429
28140.0000,-252.2797,429.7731,600.6941,863.3690,-259.0116,-260.9761
28160.0000,-235.2893,440.0995,607.2741,860.6208,-259.4344,-250.6739
28180.0000,-270.1102,415.8417,599.7233,823.2899,-295.9277,-293.8766
28200.0000,-296.5186,384.9840,607.2421,804.6274,-332.6447,-322.8254
28220.0000,-317.1422,365.8775,600.7603,814.3091,-354.8513,-330.7150
28240.0000,-290.6264,381.9497,603.2352,820.6909,-310.7465,-286.8711
28260.0000,-303.9568,370.0605,599.7816,811.2839,-329.7454,-283.6842
28280.0000,-294.6131,380.9846,601.1950,855.7502,-338.8203,-285.8606
28300.0000,-276.0652,399.9312,603.7823,871.1623,-294.6269,-248.6523
28320.0000,-286.6331,395.8688,602.1762,851.9273,-306.9509,-255.9998
28340.0000,-303.8001,396.0570,601.8454,840.0023,-313.3020,-257.5127
28360.0000,-278.8853,402.7461,609.1530,860.9185,-345.2617,-253.0255
28380.0000,-278.8906,396.0870,604.8338,841.0856,-349.2213,-258.5115
28400.0000,-274.8023,407.7842,605.1072,833.0820,-352.4731,-257.0313
28420.0000,-298.8267,379.1156,605.8596,814.9485,-386.9560,-285.2901
28440.0000,-311.8845,367.8449,608.1126,842.9644,-390.5961,-279.2008
28460.0000,-307.7345,379.1178,603.8622,828.8264,-388.8190,-276.2572
28480.0000,-305.0405,378.8696,600.0875,791.0955,-397.8321,-272.2929
28500.0000,-303.5146,372.0201,603.8787,815.7501,-394.7285,-249.0639
28520.0000,-326.0118,364.8846,600.0726,826.1561,-385.0889,-232.4113
28540.0000,-324.6311,352.0252,608.9296,823.6831,-400.4478,-232.1725
28560.0000,-311.1254,373.8438,603.0829,821.1738,-403.2460,-229.4604
28580.0000,-303.4515,365.0645,600.9337,802.7901,-420.2431,-229.9192
28600.0000,-285.1750,400.9665,604.0250,815.3085,-386.3997,-216.6318
28620.0000,-287.5366,385.9232,606.9365,798.6115,-430.0366,-222.8477
28640.0000,-305.2124,367.9572,606.0328,790.4437,-444.4964,-226.5312
28660.0000,-287.5189,392.9892,605.9370,789.5986,-442.8081,-215.8234
28680.0000,-261.1245,418.0090,601.0412,814.5250,-409.7235,-179.6531
28700.0000,-251.3820,420.0249,607.9568,810.5797,-407.6570,-183.8568
28720.0000,-306.1832,377.0152,602.0446,787.6190,-439.8593,-195.8604
28740.0000,-274.3372,381.8799,605.9462,805.4833,-431.5525,-184.6585
28760.0000,-246.2305,407.1209,598.0091,802.5397,-433.2299,-177.8088
28780.0000,-247.4215,413.6983,605.9497,803.3445,-443.4462,-174.7821
28800.0000,-270.1654,390.2201,605.0057,797.5734,-460.4001,-201.9015
28820.0000,-240.2542,406.7565,599.9611,806.2663,-448.2910,-166.6361
28840.0000,-202.3459,430.2311,605.0034,815.7269,-425.3368,-120.8949
28860.0000,-250.3810,420.6594,605.9548,820.1506,-447.2754,-146.5257
28880.0000,-219.1311,412.4200,608.0244,821.7211,-446.5833,-155.8797
28900.0000,-229.2300,410.4869,609.9841,829.2499,-428.0859,-144.5272
28920.0000,-222.3389,425.3561,612.0017,850.8245,-426.7151,-115.9251
28940.0000,-198.1924,435.4181,605.9506,845.2332,-441.8308,-130.5223
28960.0000,-206.2572,433.4596,606.0145,846.9647,-445.6653,-115.9406
28980.0000,-217.2741,433.5066,605.9470,831.0085,-463.7691,-134.4415
29000.0000,-198.1984,419.5414,607.0264,840.8302,-474.8111,-132.9748
29020.0000,-254.2805,390.3062,606.9498,817.0334,-515.6899,-170.4726
29040.0000,-222.3306,427.6411,613.0229,826.8854,-496.0085,-165.0863
29060.0000,-190.3886,463.1975,607.9553,851.1113,-451.8218,-105.6069
29080.0000,-273.1175,385.7227,608.0427,778.8366,-526.9661,-201.9960
29100.0000,-265.3403,384.2018,610.9150,790.9521,-532.6042,-180.5301
29120.0000,-239.3038,440.8602,606.0367,829.8531,-504.0834,-144.9682
29140.0000,-229.2566,434.1660,604.9143,821.1640,-514.6293,-158.4837
29160.0000,-231.2616,443.8849,611.0302,803.9626,-520.0318,-175.9807
29180.0000,-261.4423,415.9954,608.9370,782.0885,-544.5610,-200.6480
29200.0000,-253.1033,422.8076,608.0683,787.8937,-543.2471,-181.8752
29220.0000,-212.2390,462.0923,605.9045,825.1661,-493.6469,-124.6365
29240.0000,-239.3195,437.9650,610.0958,772.7246,-532.1795,-165.0531
29260.0000,-273.3886,426.9719,598.8923,772.1663,-560.5889,-204.5957
29280.0000,-235.1756,440.9564,607.0837,788.6603,-527.2287,-169.8465
29300.0000,-233.3913,440.0528,607.8960,780.2559,-553.5099,-185.6045
29320.0000,-238.1581,432.0038,607.0950,771.6426,-562.2394,-182.9402
29340.0000,-245.3334,424.0240,603.8545,793.4106,-560.4997,-168.5769
29360.0000,-204.1575,458.8083,608.1157,815.4426,-523.4670,-123.9646
29380.0000,-200.2687,460.0889,604.8464,802.6921,-517.3196,-118.5686
29400.0000,-250.1446,439.7133,602.1411,765.2114,-533.5026,-129.8571
29420.0000,-264.3820,421.1479,606.8437,754.7870,-544.2885,-169.6788
29440.0000,-222.3483,447.6719,608.1493,789.0891,-518.5639,-124.8332
29460.0000,-221.3739,446.2403,607.8348,788.8072,-513.3643,-122.5014
29480.0000,-291.3310,399.6272,607.1573,725.1031,-567.6484,-177.0377
29500.0000,-294.2277,403.4264,611.7997,721.9312,-567.3751,-184.5513
29520.0000,-272.2800,407.5534,606.1631,755.8143,-559.5183,-158.9122
29540.0000,-238.3609,436.5642,604.7847,755.2627,-539.1895,-135.6443
29560.0000,-278.2610,398.5014,599.1795,723.6386,-562.5001,-170.8931
29580.0000,-247.3071,431.6348,607.7922,743.3199,-524.1606,-138.7149
29600.0000,-263.3481,403.1820,605.1844,738.5459,-538.7092,-149.9362
29620.0000,-271.1947,400.7914,605.7664,708.4879,-569.0883,-168.6549
29640.0000,-313.4674,365.1941,608.2155,694.2280,-590.7429,-215.8828
29660.0000,-315.3260,359.8519,605.7573,697.6808,-578.1420,-190.7354
29680.0000,-298.3003,376.9942,603.2404,727.2244,-570.7895,-189.8804
29700.0000,-275.3277,396.9289,614.7632,722.7798,-579.0310,-176.7714
29720.0000,-291.4078,381.8946,604.2035,722.0444,-573.7456,-154.9123
29740.0000,-308.2059,359.2264,605.7408,703.9454,-590.1371,-179.6387
29760.0000,-280.3609,380.8289,603.2572,697.8814,-579.6584,-169.7331
29780.0000,-279.2632,393.3184,606.7413,728.0984,-553.1321,-150.8512
29800.0000,-265.3870,393.5479,607.2381,730.7013,-559.6619,-133.8665
29820.0000,-297.2238,360.4070,611.7202,700.3033,-590.1626,-156.8036
29840.0000,-303.3006,367.4778,611.2182,680.4742,-587.8054,-191.7122
29860.0000,-303.2203,361.4736,602.7589,679.3881,-603.1083,-187.8571
29880.0000,-290.1388,357.2680,613.2344,706.4599,-595.7135,-164.7696
29900.0000,-294.3042,368.7027,609.7559,705.5507,-598.1501,-163.0300
29920.0000,-288.2568,366.1000,610.2671,695.4001,-589.5505,-158.5978
29940.0000,-301.4833,378.6776,603.7096,675.6546,-598.1982,-175.1150
29960.0000,-304.0549,365.9968,610.2702,674.2877,-605.6082,-185.5997
29980.0000,-337.4322,342.7319,614.7355,671.5676,-611.2337,-199.0320
30000.0000,-306.0282,395.9816,613.2419,678.3867,-618.4545,-209.5193
30020.0000,-269.4791,401.9966,611.7114,687.6058,-604.5140,-174.2338
30040.0000,-282.0244,395.9211,612.2333,688.2138,-607.4501,-178.3933
30060.0000,-306.6054,369.0003,607.7349,664.4864,-633.4663,-212.3655
30080.0000,-299.8376,386.9357,612.2369,666.2795,-601.1982,-197.2783
30100.0000,-311.7842,380.0439,604.7072,651.6423,-628.5899,-219.4726
30120.0000,-300.6148,377.9836,602.2729,678.4506,-625.1229,-205.0081
30140.0000,-306.8647,372.0097,609.7415,711.5159,-595.8145,-200.6115
30160.0000,-309.4466,375.0094,605.2489,706.4418,-607.0281,-206.8360
30180.0000,-318.0537,363.9540,608.7231,699.2859,-635.9524,-230.7012
30200.0000,-287.4477,400.0629,606.2684,714.5566,-598.6744,-198.8242
30220.0000,-317.2927,385.9316,609.7177,696.1959,-602.0703,-223.8674
30240.0000,-305.2229,404.0170,604.2672,698.6636,-591.6819,-216.5854
30260.0000,-297.4540,407.8973,611.6672,699.0385,-568.4204,-218.1230
30280.0000,-299.0872,401.1064,609.3193,694.9186,-570.3798,-211.4061
30300.0000,-308.6516,399.7740,603.6437,681.9541,-576.5591,-235.3198
30320.0000,-303.9769,402.1274,605.3079,696.9202,-564.2645,-197.2643
30340.0000,-302.8402,408.6090,601.6585,687.7302,-561.7730,-205.3408
30360.0000,-337.8286,387.3390,607.3510,662.1057,-579.9428,-245.1532
30380.0000,-283.9442,421.5404,602.6366,689.5826,-542.9345,-197.6553
30400.0000,-303.6274,406.5382,603.4016,666.4313,-564.7183,-244.1110
30420.0000,-285.0301,428.2749,606.5842,679.3050,-531.1252,-228.8329
30440.0000,-311.5190,439.7328,610.4332,695.7083,-498.4074,-240.8837
30460.0000,-261.2739,430.1720,606.5514,696.2474,-490.4824,-180.9436
30480.0000,-271.1363,438.7631,604.4230,710.8006,-469.3336,-186.5517
30500.0000,-309.4705,424.9435,607.5253,680.9149,-468.6813,-202.0727
30520.0000,-282.0468,437.1034,605.4622,681.9771,-435.0523,-188.6056
30540.0000,-272.5792,442.8824,606.4837,692.7989,-413.7339,-173.1602
30560.0000,-244.9274,463.2206,611.4881,716.2925,-378.7420,-147.4116
30580.0000,-265.5648,443.6074,607.4545,703.5438,-381.9424,-177.4370
30600.0000,-258.8427,449.4244,612.5316,685.6481,-375.5640,-179.1786
30620.0000,-260.8389,451.4408,606.4105,684.3190,-357.1757,-195.4638
30640.0000,-272.7798,427.5852,609.6027,669.8586,-383.3005,-233.2472
30660.0000,-277.9139,443.2249,606.3707,666.9478,-361.4541,-230.4960
30680.0000,-261.6833,442.6984,613.6196,681.0663,-328.1432,-204.9847
30700.0000,-255.8778,449.0111,608.3455,693.7206,-296.4729,-195.6200
30720.0000,-262.8112,433.9189,601.6718,687.2305,-290.9522,-183.9543
30740.0000,-257.7477,449.9697,609.3167,708.5977,-257.8349,-169.7011
30760.0000,-242.7792,461.1870,614.6984,715.3726,-217.6500,-153.9626
30780.0000,-247.8718,448.6525,612.2527,700.3766,-209.8574,-172.8085
30800.0000,-262.7964,441.3727,615.7386,695.6603,-201.6034,-188.0220
30820.0000,-232.9039,458.5892,608.2463,707.2737,-167.0861,-169.7592
30840.0000,-257.7832,445.4212,606.7475,693.7935,-157.4086,-181.0235
30860.0000,-223.8735,474.5182,613.2087,726.0914,-98.1789,-136.7623
30880.0000,-239.9220,477.6685,601.7865,703.1113,-107.3354,-158.9879
30900.0000,-230.7119,478.2805,605.1836,708.7571,-84.2286,-149.6424
30920.0000,-221.8325,487.6594,609.8071,714.2607,-52.0381,-138.0422
30940.0000,-233.5960,482.3160,615.1981,705.6395,-50.2517,-140.6252
30960.0000,-227.0095,499.8989,604.7734,734.2895,-19.9513,-128.9483
30980.0000,-224.5173,485.2234,615.1964,729.5341,-18.3005,-134.6521
31000.0000,-227.1290,480.9270,608.8013,720.4614,-9.8853,-120.0664
31020.0000,-211.2878,491.1278,612.1812,736.5107,12.2976,-111.4169
31040.0000,-220.3738,484.8716,616.7957,722.6168,28.7613,-115.1428
31060.0000,-214.1419,482.1367,610.1822,712.3958,41.3160,-111.3237
31080.0000,-236.3584,476.8781,613.7577,718.5991,37.8891,-138.3879
31100.0000,-231.0085,475.0059,612.2139,699.2748,36.2968,-137.2003
31120.0000,-230.5502,475.0419,604.7197,684.5699,54.9348,-132.4020
31140.0000,-226.0197,485.1061,617.2809,685.2603,30.1547,-138.1679
31160.0000,-197.5913,492.9365,602.7229,710.7150,72.8875,-102.5921
31180.0000,-203.7810,483.0688,608.3061,718.1766,67.1845,-93.8933
31200.0000,-179.8360,493.8173,616.6807,717.8237,86.0434,-77.6231
31220.0000,-201.5591,483.1045,609.3570,704.1995,105.3406,-116.9053
31240.0000,-199.9810,484.8273,611.5964,692.6785,108.9591,-96.7644
31260.0000,-180.4914,517.1096,611.3701,725.2304,156.4503,-50.5824
31280.0000,-189.1193,512.7346,610.5850,717.8225,163.8546,-53.0349
31300.0000,-198.2619,513.2956,612.4394,720.2231,195.3374,-43.4245
31320.0000,-186.2744,518.6232,614.4935,706.8239,198.7837,-45.0973
31340.0000,-194.1861,517.3027,615.5321,701.2760,208.5683,-34.3000
31360.0000,-176.5402,535.7265,613.4156,725.7657,227.7874,-35.2096
31380.0000,-160.9530,557.5557,610.5666,710.2458,227.4784,-3.1265
31400.0000,-138.5197,530.5662,612.3355,710.6133,209.7878,-9.3859
31420.0000,-165.8589,537.4942,613.6641,694.2986,209.6170,-16.9280
31440.0000,-155.6684,545.3527,610.2944,702.5322,216.7514,-5.6265
31460.0000,-151.7090,548.6345,616.7678,714.5054,229.6675,9.0080
31480.0000,-147.9856,551.1754,621.1877,733.5548,247.5485,23.9091
31500.0000,-120.5472,569.8959,617.8599,761.5153,261.7790,54.1746
31520.0000,-134.0846,530.1453,613.0922,724.2938,228.6064,46.9002
31540.0000,-172.3883,523.0136,611.9050,721.5946,237.8113,10.2181
31560.0000,-151.2007,550.8717,617.0366,733.3076,252.3504,46.7301
31580.0000,-131.3706,550.2374,615.0104,731.7982,263.1170,55.3782
31600.0000,-155.2112,544.7391,616.9547,717.1650,251.3320,33.4699
31620.0000,-134.2548,559.3501,611.0646,716.8552,268.2188,39.6004
31640.0000,-115.2945,578.5361,613.8477,734.8616,290.2839,72.4222
31660.0000,-135.0838,561.5845,613.1595,724.0989,258.1017,42.8116
31680.0000,-143.4118,556.3251,612.7599,700.8365,262.0167,41.2568
31700.0000,-151.1152,559.6741,617.2700,710.3091,280.2177,30.9304
31720.0000,-125.3186,579.3350,611.6733,734.5224,302.0898,76.0596
31740.0000,-123.9278,574.7534,609.3394,738.4024,301.4484,90.0551
31760.0000,-112.5060,579.1703,613.6155,733.4223,298.7882,82.0341
31780.0000,-133.9826,562.9856,611.3743,729.6797,285.4497,78.1917
31800.0000,-142.4336,565.0156,606.5490,732.3157,285.7235,81.9030
31820.0000,-104.9639,577.1485,610.4811,762.8184,289.6478,101.2612
31840.0000,-87.5606,588.6937,617.5203,784.9501,327.5901,137.6760
31860.0000,-87.8862,566.3124,611.4910,763.0446,292.7396,139.4214
31880.0000,-92.6903,579.5609,610.4153,761.8480,294.5134,130.5411
31900.0000,-74.7265,582.5325,610.5831,792.3255,321.0143,170.5728
31920.0000,-105.6198,549.3376,608.4128,780.6092,295.2787,132.3769
31940.0000,-90.7729,554.6896,607.5993,792.5502,312.0555,155.8435
31960.0000,-110.7308,561.3434,603.3405,789.2964,305.1292,135.3089
31980.0000,-80.6099,588.7924,605.6161,795.7493,318.0910,158.7993
32000.0000,-116.7591,554.9983,614.3446,768.2531,262.0643,127.1070
32020.0000,-138.7137,530.8816,600.6536,748.8704,240.3513,109.9928
32040.0000,-98.8760,568.8578,610.2976,787.0101,278.9519,146.0097
32060.0000,-95.6993,570.9240,612.6464,796.2216,265.4572,153.1110
32080.0000,-113.8679,554.7354,612.3095,784.7202,247.7025,133.0290
32100.0000,-124.6101,544.2050,611.6382,760.5413,220.6452,100.1355
32120.0000,-138.0681,541.7438,608.3367,740.3285,222.5389,110.8482
32140.0000,-142.4921,548.2256,603.6757,754.5986,214.6622,105.2271
32160.0000,-128.0224,542.5400,605.3296,765.2410,181.2740,108.7756
32180.0000,-124.4927,542.3710,614.6303,759.8799,178.9319,113.3840
32200.0000,-113.1585,552.5186,604.3492,781.0260,202.2188,131.6134
32220.0000,-113.3862,557.3952,614.5979,799.2401,196.1252,147.5436
32240.0000,-101.2956,562.2626,607.4051,794.7371,182.0339,139.5681
32260.0000,-126.1960,526.5161,614.5611,759.4254,155.1857,98.4631
32280.0000,-115.4030,525.2148,612.4323,772.5527,150.7484,130.5239
32300.0000,-122.2058,551.6204,606.5053,802.6652,155.3489,130.6524
32320.0000,-127.4294,527.2039,610.4734,758.3900,123.5625,115.3802
32340.0000,-162.1206,508.7927,603.4757,751.8622,102.3789,111.7038
32360.0000,-163.3820,508.0757,612.5540,766.1740,108.3812,129.2737
32380.0000,-144.1214,526.7574,609.3989,771.9667,115.7134,141.6686
32400.0000,-150.5938,521.0894,616.6575,767.8060,99.1203,138.1621
32420.0000,-147.9479,527.9661,612.2913,761.1779,115.8808,155.6849
32440.0000,-120.5691,536.8550,612.7064,784.7663,100.9706,185.0653
32460.0000,-126.9383,532.8568,609.2391,773.5006,87.9015,188.6994
32480.0000,-142.7146,550.8004,614.8055,790.5322,75.8134,179.1284
32500.0000,-116.7387,540.9325,618.1678,784.6680,64.2410,181.7395
32520.0000,-145.7732,539.7419,615.9035,777.3311,41.5786,171.0216
32540.0000,-124.7089,551.9796,606.0363,784.8243,49.4074,183.7073
32560.0000,-117.8056,569.7535,611.9709,796.1653,47.5382,195.0302
32580.0000,-132.6814,549.0330,608.9609,798.9350,22.5547,185.8944
32600.0000,-142.0118,532.7899,608.0920,792.1411,5.3688,170.9890
32620.0000,-114.6623,563.0694,611.8272,814.1831,21.5931,218.8899
32640.0000,-128.9860,543.7615,605.1732,813.9575,3.1490,199.1491
32660.0000,-122.4085,547.0308,610.7158,798.2973,-15.9478,190.7001
32680.0000,-116.1830,560.7180,605.2765,792.7885,-29.7041,181.0153
32700.0000,-132.4610,542.2266,612.6270,788.3468,-57.7940,162.7261
32720.0000,-116.2386,557.7158,606.3848,806.6499,-48.9290,182.1205
32740.0000,-143.4189,544.0972,602.5583,786.4069,-79.6593,139.7922
32760.0000,-104.1030,568.7138,615.4987,819.5833,-68.1480,177.9917
32780.0000,-97.3929,566.1288,606.4350,816.4691,-95.6437,164.6569
32800.0000,-111.2725,565.7275,608.6018,825.4677,-89.1525,171.0285
32820.0000,-109.2909,565.2253,611.3189,826.6182,-87.3250,156.7781
32840.0000,-133.3770,554.7135,603.7158,788.3345,-127.4236,112.0760
32860.0000,-123.2686,555.1442,602.2659,796.7108,-141.2410,104.7561
32880.0000,-112.2683,559.7525,614.7755,804.2941,-121.4029,109.0525
32900.0000,-140.2356,552.1722,608.1740,807.7534,-137.2705,96.6541
32920.0000,-117.3341,574.6816,609.8706,835.3816,-130.5565,113.2470
32940.0000,-74.2616,642.3234,610.0590,887.8344,-75.2176,171.4983
32960.0000,-55.2766,628.6047,606.9214,883.4014,-91.5879,167.2401
32980.0000,-70.1189,618.2292,619.0068,874.8126,-118.9644,144.5799
33000.0000,-107.2301,591.6730,611.0110,845.4194,-147.7333,107.2294
33020.0000,-135.1750,575.3160,613.9640,830.9000,-162.0364,80.5324
33040.0000,-100.3348,589.6114,606.0286,841.2996,-148.6895,100.2979
33060.0000,-109.2151,588.1500,606.9170,827.6849,-179.9363,81.3311
33080.0000,-132.2609,589.6395,614.0784,843.3884,-174.8146,69.3518
33100.0000,-146.2369,564.2734,615.8966,850.7703,-188.9860,79.3125
33120.0000,-143.2640,571.7569,611.1386,845.4747,-179.8204,72.4664
33140.0000,-127.2033,589.2545,612.8500,840.6518,-174.0062,70.2798
33160.0000,-134.2626,583.6992,604.1534,820.3527,-179.8197,63.5675
33180.0000,-102.2085,595.1891,619.8399,854.5376,-155.8588,93.1322
33200.0000,-103.1606,589.7050,611.1598,857.4925,-171.8246,81.5582
33220.0000,-106.3916,593.1030,601.8671,883.5161,-169.0628,92.1917
33240.0000,-114.1314,601.8881,612.1047,855.5183,-185.6280,66.5562
33260.0000,-87.4118,635.0408,602.8376,836.5095,-157.1040,54.0852
33280.0000,-126.9173,610.8729,608.1049,816.7264,-163.5354,31.6886
33300.0000,-140.6051,611.1330,607.9061,803.2303,-165.1262,9.8783
33320.0000,-142.9064,618.9582,609.0737,828.7383,-137.5563,17.8000
33340.0000,-181.6056,631.9766,610.9201,830.3415,-120.2423,27.9356
33360.0000,-173.8386,667.8695,604.9940,844.8786,-64.3427,50.8626
33380.0000,-170.6937,660.8211,613.9965,822.1921,-51.3434,46.8374
33400.0000,-137.6503,692.9171,611.9334,846.1438,-21.3289,55.9538
33420.0000,-152.8612,667.8966,611.0422,828.9280,-33.2804,37.5871
33440.0000,-139.5947,686.0934,603.9079,828.2203,-19.1468,26.1331
33460.0000,-192.9808,664.8568,611.1243,772.7348,-16.6087,-12.3056
33480.0000,-189.5846,662.0502,608.8158,769.3372,-4.0277,-15.7220
33500.0000,-146.2448,727.8738,608.2324,778.7338,54.0813,18.3805
33520.0000,-189.4585,691.2457,605.7072,744.5521,41.9784,-35.5172
33540.0000,-149.3597,733.7941,610.2914,752.5103,83.9249,-18.3939
33560.0000,-138.2786,752.3477,611.5975,753.6489,134.1051,-15.5309
33580.0000,-131.3450,762.6353,606.4178,753.2501,151.8821,-15.4429
33600.0000,-113.0899,786.3724,601.5255,767.7579,177.1730,-3.4299
33620.0000,-105.5334,793.5298,604.5116,782.1283,179.6378,-4.6276
33640.0000,-81.9072,816.5040,604.3831,826.0388,220.4911,39.4746
33660.0000,-92.8139,817.5491,601.6506,776.9378,232.6229,5.1245
33680.0000,-86.8024,842.5178,600.2894,749.1223,247.6867,4.6196
33700.0000,-84.9141,838.5862,600.7585,748.8586,242.4626,-8.7205
33720.0000,-39.5787,875.5972,609.1821,769.3744,279.8373,24.7623
33740.0000,-49.8844,855.4921,601.8781,763.5609,265.2399,12.8210
33760.0000,-39.4155,860.7733,600.0505,762.4613,265.0248,24.8592
33780.0000,-7.0255,896.2692,600.9839,748.5576,337.0825,89.0061
33800.0000,2.5656,924.8607,598.9269,760.5559,370.0769,151.8304
33820.0000,18.5771,917.3013,602.1050,800.3262,371.9072,181.7609
33840.0000,50.4925,951.7697,601.8372,782.6484,431.3008,268.9578
33860.0000,52.4720,956.2385,599.1893,767.2417,427.8644,271.9171
33880.0000,34.7573,940.8297,603.6940,720.7940,408.5035,262.0261
33900.0000,69.3721,983.2509,607.2991,749.9427,503.8029,383.6964
33920.0000,127.7250,1017.0615,597.6053,784.0569,542.5883,473.0581
33940.0000,159.1444,1058.2186,601.4079,802.8897,568.6273,519.7452
33960.0000,140.0041,1040.0724,603.5032,762.2202,576.7679,503.2267
33980.0000,136.0732,1026.0360,595.5116,747.8679,581.6975,554.8918
34000.0000,131.1306,1028.2037,602.4617,751.3655,599.8138,591.2786
34020.0000,161.0473,1050.9943,588.5948,787.7842,642.4539,651.8502
34040.0000,195.1148,1064.2827,596.3369,784.4158,643.9562,695.2603
34060.0000,211.0618,1059.8752,596.6755,784.4588,650.5310,734.8233
34080.0000,210.1339,1059.2902,594.3020,775.5948,646.0865,757.3026
34100.0000,213.9828,1061.8923,589.6928,790.5370,667.2569,787.8926
34120.0000,187.2038,1023.3090,593.2365,763.5604,658.1909,827.1878
34140.0000,186.7885,1017.7881,594.7921,771.4479,669.2331,859.7487
34160.0000,147.2721,1018.3084,592.1908,724.7623,616.2587,846.1989
34180.0000,128.8015,1025.7744,595.8456,702.2632,610.1431,851.8875
34200.0000,119.2821,1030.2858,594.1644,704.7166,628.1169,880.2598
34220.0000,117.7117,1042.7000,598.8533,701.2534,629.1586,897.7615
34240.0000,132.4236,1046.3860,598.1057,694.7386,623.1692,929.3917
34260.0000,97.6731,1002.7376,595.9370,638.9194,569.1833,934.9077
34280.0000,60.5222,972.3373,601.0945,625.9912,545.3503,909.3065
34300.0000,64.5208,1002.6785,601.9316,625.9917,554.1448,944.9416
34320.0000,68.3857,1027.4606,600.0655,640.9630,592.4061,993.4097
34340.0000,74.5825,1030.6111,600.9308,641.9058,577.0374,1015.9262
34360.0000,73.4900,1041.5145,605.0389,638.0948,541.3669,1032.2991
34380.0000,57.5249,1053.4990,602.9467,585.7470,523.8712,1034.9253
34400.0000,-4.1553,989.7229,606.0414,549.2088,473.5204,975.3062
34420.0000,-15.3952,996.5359,603.9551,567.5652,481.8281,992.7562
34440.0000,-18.1282,1023.7361,610.0190,583.4014,495.5928,1039.3273
34460.0000,-39.3684,999.4575,599.9202,521.4579,408.9088,1029.8647
34480.0000,-77.1362,970.8057,605.0432,503.4477,377.5672,993.4919
34500.0000,-119.4215,940.4279,600.9129,483.3640,344.8358,992.7047
34520.0000,-139.1305,919.7133,600.0767,485.5101,323.5814,1001.4123
34540.0000,-139.4956,925.2068,605.8792,477.2820,305.7367,990.6913
34560.0000,-171.9301,907.8685,611.0645,447.6625,260.5149,966.5228
34580.0000,-222.7944,848.0195,613.8663,400.0345,170.5743,934.7035
34600.0000,-188.8491,876.9905,613.1023,442.7708,199.7296,992.6026
34620.0000,-201.7377,872.9174,612.8336,433.9681,210.6900,1003.6342
34640.0000,-184.8481,869.0725,604.1128,431.9389,168.6958,1010.6078
34660.0000,-189.8854,855.8315,615.8306,432.6753,157.4980,997.4308
34680.0000,-181.7524,859.0910,614.1678,408.9800,101.7953,980.7924
34700.0000,-164.0251,861.9096,610.8311,411.4649,85.4407,969.3558
34720.0000,-178.6633,852.3159,613.1986,420.3353,85.7415,1001.8700
34740.0000,-218.1593,825.7756,608.7798,394.3895,51.3087,971.2091
34760.0000,-237.5940,819.4093,601.2417,373.3717,3.8685,950.0388
34780.0000,-240.3439,822.4468,606.7328,405.2237,-0.5330,961.0308
34800.0000,-220.4644,849.5884,601.2700,414.4634,8.0342,989.2738
34820.0000,-197.2781,881.4992,608.7031,438.0066,21.1658,1013.0734
34840.0000,-187.2285,888.7309,606.2872,433.6057,1.0862,1026.3483
34860.0000,-223.6213,876.3267,601.6812,436.0255,-34.7792,1001.7688
34880.0000,-243.1792,860.8802,601.3416,431.9071,-54.6758,1014.5024
34900.0000,-245.5634,859.2325,598.6230,419.9016,-69.8127,1003.6020
34920.0000,-178.9428,916.0521,598.3513,480.0482,-15.5582,1074.7032
34940.0000,-176.7392,920.1198,599.5924,499.6338,-10.8667,1101.5239
34960.0000,-168.9136,931.1165,597.3786,503.9540,-25.4522,1108.9545
34980.0000,-220.7271,867.0193,606.5518,477.6046,-85.8498,1057.5061
35000.0000,-249.7222,849.0956,597.4193,459.1850,-119.3949,1031.9894
35020.0000,-228.8637,878.8224,602.5349,481.6430,-124.9816,1059.3300
35040.0000,-176.5516,925.3589,600.4836,509.0967,-78.4974,1105.0542
35060.0000,-148.9572,957.6452,602.4912,541.5403,-45.1106,1147.2271
35080.0000,-226.5928,897.4639,600.5250,485.1061,-115.4642,1075.2518
35100.0000,-243.0124,886.6764,594.4440,480.4613,-150.0302,1052.1324
35120.0000,-238.4957,891.5865,581.5331,465.2009,-149.2720,1050.2347
35140.0000,-193.1652,940.5141,563.3774,515.4894,-128.0320,1095.9595
35160.0000,-153.4240,978.6107,594.6226,557.1268,-104.3124,1129.3746
35180.0000,-129.0638,1001.4594,568.3142,568.5931,-112.1674,1146.9867
35200.0000,-177.5550,943.5743,568.6377,526.1935,-164.2557,1088.5968
35220.0000,-196.1641,924.5479,577.2764,490.6657,-208.2038,1047.7971
35240.0000,-214.6016,911.7202,575.6888,492.9328,-229.4522,1047.5638
35260.0000,-140.0309,958.4738,569.2192,546.8165,-182.0703,1106.9771
35280.0000,-95.6102,979.6388,568.7452,566.0071,-159.3492,1129.4509
35300.0000,-88.0068,966.4849,577.1668,543.9686,-204.0508,1138.8864
35320.0000,-97.7805,932.6061,589.8013,507.7369,-273.6303,1072.4005
35340.0000,-114.7629,918.3376,591.1060,489.0312,-267.0816,1083.9333
35360.0000,-95.8545,933.7076,601.8998,527.4504,-279.6376,1102.4547
35380.0000,19.1705,1013.5948,615.0637,636.3240,-233.8339,1184.0624
35400.0000,4.8610,1009.5778,623.9662,653.2726,-227.7670,1189.2615
35420.0000,-54.4190,966.6414,632.0223,592.6404,-271.8478,1134.1821
35440.0000,-88.2009,945.4916,637.0256,539.1194,-308.9428,1066.1619
35460.0000,-108.2165,938.7386,648.9214,554.9252,-315.7721,1049.3662
35480.0000,-70.5233,953.4070,649.0804,584.8224,-322.0461,1085.8463
35500.0000,-33.0522,973.7108,652.8773,625.1740,-300.6463,1101.5068
35520.0000,-36.7682,974.1576,650.1647,631.6844,-336.3011,1079.7351
35540.0000,-62.6391,939.9000,655.7713,599.3968,-370.3908,1038.8331
35560.0000,-86.9391,923.0840,649.2339,604.1753,-371.4482,1038.4480
35580.0000,-62.3512,935.9070,641.6942,635.6017,-350.2527,1054.9814
35600.0000,-44.2928,961.9110,625.3479,670.8820,-334.6488,1058.2599
35620.0000,-32.1601,940.1926,624.6474,653.9692,-360.0532,1047.1379
35640.0000,-70.6027,922.7231,615.4036,615.6748,-390.9431,1014.9621
35660.0000,-62.8239,927.3334,610.5184,623.4219,-401.8406,1009.4238
35680.0000,-47.9647,930.5520,619.4585,650.3655,-382.0706,1016.6393
35700.0000,-43.3932,919.5051,614.4717,641.5771,-396.6405,999.8790
35720.0000,3.3754,952.3558,619.5378,690.9916,-364.3546,1040.3473
35740.0000,-6.9569,944.7240,622.3973,706.8429,-369.4215,1030.9540
35760.0000,-13.7611,929.2076,612.6205,701.6794,-383.4032,1021.9208
35780.0000,-13.7000,950.0042,601.3218,712.1874,-367.1597,1027.3378
35800.0000,24.7348,965.9221,586.7161,733.4165,-350.6963,1040.6166
35820.0000,14.4697,952.3058,533.2119,734.4335,-376.9473,1009.7089
35840.0000,10.3435,947.5442,532.7621,741.1348,-379.9618,1015.4021
35860.0000,30.9245,954.6142,531.1202,783.8979,-342.6819,1050.8529
35880.0000,35.9744,958.3190,539.8363,774.9554,-332.0300,1039.1356
35900.0000,56.0985,972.7451,542.0724,789.1971,-323.6446,1048.3011
35920.0000,52.6501,960.1611,461.9117,832.5978,-351.2755,1025.7544
35940.0000,54.6045,942.9386,489.9861,789.4536,-392.4653,991.5728
35960.0000,53.2739,939.0592,552.0130,829.4049,-378.4563,1001.4849
35980.0000,52.8226,940.1691,572.9590,826.4877,-401.1689,975.6395
36000.0000,74.1323,952.8210,592.0514,829.1990,-390.6600,982.2316
