t,AF3,F7,F3,F4,F8,AF7
0,254.3979,-153.4902,74.3768,1075.3422,-738.3428,524.7724
20,260.7332,-141.5784,76.8761,1075.1544,-751.5031,521.6807
40,254.0899,-134.5814,85.6071,1080.0167,-747.3373,525.3939
60,253.5648,-137.9658,84.7524,1080.2206,-744.0717,524.5308
80,256.8511,-153.4053,87.3483,1084.813,-754.0924,521.4028
100,247.0169,-149.2728,66.9941,1077.2273,-765.485,518.8318
120,250.0576,-160.6605,90.8368,1079.4282,-735.8051,527.0497
140,248.7425,-144.1979,88.6237,1076.3622,-752.5222,516.4174
160,246.1685,-147.7044,89.0132,1065.2712,-734.4835,532.4423
180,240.7235,-146.9665,69.4925,1070.3954,-736.0847,522.0579
200,237.4512,-162.7796,72.1875,1064.7963,-723.843,525.5677
220,237.7448,-165.4895,98.8665,1079.1157,-732.0727,538.3427
240,235.7109,-153.8322,111.9608,1072.7701,-736.3147,520.4885
260,233.0276,-148.3231,113.4752,1056.3065,-714.0883,531.0923
280,220.5893,-157.6936,80.1253,1067.8564,-720.9811,524.5695
300,217.3607,-169.3673,63.2759,1053.4437,-719.9998,537.2165
320,213.8976,-180.2533,84.2553,1092.8618,-716.033,527.7949
340,215.0549,-171.6232,103.934,1069.7258,-720.132,524.6669
360,213.5481,-172.5323,103.2133,1079.6146,-715.0177,520.8559
380,206.8857,-182.8891,89.8871,1054.3979,-695.652,529.2452
400,211.9592,-156.963,82.7288,1061.2363,-717.4524,527.2545
420,206.1072,-167.1076,65.0883,1038.9923,-729.6889,532.1057
440,194.9796,-187.5435,70.1654,1054.0338,-700.499,534.5751
460,212.3875,-173.1358,78.8065,1074.0514,-716.471,533.6492
480,204.3157,-158.8206,78.9186,1054.5903,-719.6936,523.1187
500,207.9377,-149.754,68.8934,1045.6279,-737.2595,529.5665
520,207.6033,-149.7545,78.2877,1049.3656,-737.882,528.5223
540,198.7925,-163.0666,79.2684,1054.5586,-722.8836,534.1693
560,195.2818,-174.0175,90.0951,1074.0533,-726.2751,528.0955
580,190.9684,-167.9367,124.4957,1094.3026,-701.5166,528.2411
600,187.4181,-167.8635,95.9927,1067.4392,-711.9095,533.9866
620,183.2587,-162.9063,82.8129,1049.1033,-715.5157,533.7976
640,176.272,-176.3738,69.7357,1053.2712,-716.142,536.412
660,174.9384,-181.1238,99.189,1083.713,-706.3929,534.5959
680,180.0035,-180.5364,99.5369,1088.0448,-723.1628,527.0425
700,160.0916,-194.7203,81.3934,1090.6361,-703.876,531.9288
720,168.4819,-189.4252,118.2055,1096.6533,-696.4484,528.6432
740,166.2165,-180.5694,88.3488,1064.2209,-707.5188,525.7247
760,165.36,-175.8464,86.3856,1062.9719,-724.2623,532.6943
780,162.6555,-188.3251,90.5174,1080.0253,-709.2224,537.6497
800,146.3677,-208.4879,87.8769,1083.6663,-691.1647,536.9251
820,144.9152,-206.9503,96.934,1096.4529,-691.4964,530.9017
840,138.6452,-207.3847,101.678,1096.4424,-659.0795,529.4658
860,141.5611,-195.6734,114.4707,1104.4373,-703.5005,528.4211
880,129.0704,-201.4523,82.0956,1076.4058,-682.1451,538.7963
900,126.2915,-210.9609,83.2607,1086.2667,-679.466,527.7594
920,114.267,-234.6721,69.8318,1066.7518,-668.9747,538.8453
940,108.149,-236.5256,108.5128,1118.0942,-643.9141,534.8892
960,115.8024,-217.1921,102.7058,1094.2599,-670.4194,531.7379
980,106.7811,-225.4217,124.604,1067.9438,-632.8558,542.8926
1000,103.0756,-214.4917,84.3796,1048.9319,-644.8166,554.7676
1020,87.0304,-228.7076,72.9493,1108.6754,-668.5905,532.5153
1040,83.3265,-239.8396,108.932,1103.8044,-623.9509,546.6225
1060,89.4945,-235.4686,114.4558,1107.4391,-627.7465,540.3823
1080,90.4302,-219.717,104.8217,1075.7695,-640.6722,542.1328
1100,82.5564,-232.5015,114.0374,1077.8898,-618.4969,551.0044
1120,75.9997,-251.3438,89.223,1088.2098,-619.4756,547.3317
1140,80.3127,-240.3978,98.7621,1076.8799,-628.2222,545.8939
1160,81.2831,-233.1005,114.3729,1099.2058,-623.1706,541.4974
1180,81.0451,-236.147,122.6344,1081.5857,-612.5493,541.5924
1200,79.4472,-235.2777,124.6569,1084.1715,-620.0143,545.0002
1220,74.1772,-244.7251,101.8833,1091.0784,-608.6872,540.4456
1240,74.704,-244.4341,93.4304,1085.4502,-609.7494,542.4813
1260,73.7676,-240.0072,90.7303,1057.5283,-606.764,540.8445
1280,72.6474,-247.2504,115.3822,1066.7552,-604.9149,545.2054
1300,72.8665,-238.222,112.1638,1065.0624,-611.729,539.6669
1320,71.8273,-233.9695,141.4063,1058.9893,-596.9867,539.1891
1340,69.2077,-240.0146,132.034,1063.9464,-606.6026,538.0818
1360,57.4178,-248.5462,120.0989,1055.8229,-575.3392,546.199
1380,55.9908,-259.019,97.8131,1051.2034,-571.0923,550.7553
1400,51.3712,-275.5621,98.3574,1072.483,-558.6811,549.235
1420,47.3321,-279.9711,117.0251,1093.6498,-544.6945,542.377
1440,44.7887,-277.085,131.273,1087.8634,-535.6379,540.1845
1460,44.5137,-279.4225,124.3438,1065.2983,-524.0741,553.2362
1480,47.5179,-294.4033,112.4193,1078.894,-523.4615,553.0774
1500,36.0809,-294.5472,112.154,1072.9893,-507.1722,564.3256
1520,40.6566,-284.7925,116.7599,1084.2771,-518.9259,551.1447
1540,40.2876,-292.6732,123.7754,1087.7832,-512.5651,556.7946
1560,47.0365,-282.4218,122.7753,1083.8634,-521.0702,553.3573
1580,40.3414,-292.6646,124.6437,1078.0255,-502.8257,555.7316
1600,36.8352,-299.1765,119.4967,1068.353,-498.3018,558.335
1620,35.0963,-307.9659,123.6077,1085.2114,-504.8055,556.094
1640,36.6161,-296.5446,132.9247,1085.9963,-490.4149,556.0555
1660,29.5907,-289.2886,138.2201,1079.2581,-490.8156,550.3358
1680,36.8039,-296.8591,120.0685,1092.4648,-499.8125,562.5323
1700,35.6061,-290.9322,101.9641,1071.7423,-497.9102,551.0061
1720,38.8656,-280.6936,115.1487,1077.6226,-499.3894,551.8885
1740,44.7321,-285.697,121.3889,1072.0643,-491.1634,562.3247
1760,37.8239,-283.0545,130.6329,1076.5112,-491.9847,550.7579
1780,37.1013,-280.6817,128.5367,1079.4441,-497.6124,552.2763
1800,33.1103,-295.6595,131.1021,1082.9335,-489.2667,557.1875
1820,40.4135,-282.5064,133.4729,1065.2012,-503.2183,552.989
1840,34.1608,-302.2116,140.7975,1089.3708,-506.8584,547.6154
1860,32.9315,-298.6228,143.5307,1098.3988,-496.5331,556.7271
1880,38.4457,-279.0318,133.851,1078.7415,-513.9752,543.0561
1900,39.3392,-280.8625,127.9726,1078.4296,-520.476,542.8203
1920,48.5949,-264.1878,146.2594,1092.7977,-536.6486,549.5743
1940,32.2927,-283.3434,164.5997,1086.7379,-490.5792,550.3295
1960,28.2963,-306.3733,147.8339,1072.7106,-471.8435,557.0239
1980,28.0415,-305.7371,136.0438,1075.0469,-487.7584,559.1453
2000,37.5445,-287.4851,147.1493,1092.819,-516.5929,541.4799
2020,48.5798,-272.0597,155.1057,1110.5112,-533.0118,548.5099
2040,42.5539,-270.1745,160.1587,1109.6101,-527.6149,543.4542
2060,38.8998,-284.7401,121.8443,1079.7251,-507.8231,547.6743
2080,39.3403,-284.0566,126.8328,1109.5515,-523.9152,554.5959
2100,56.6336,-272.7142,144.222,1127.4294,-547.889,545.1941
2120,51.19,-271.9441,171.7233,1125.1393,-531.4623,541.757
2140,53.1455,-261.3347,159.6992,1091.7526,-535.3121,548.0213
2160,57.7235,-273.3131,133.0488,1107.5107,-533.3238,550.2465
2180,49.8279,-280.9104,144.7594,1113.4666,-524.5197,550.0001
2200,54.928,-274.2318,162.6502,1112.7701,-527.7628,544.1931
2220,60.3747,-265.8749,188.3128,1137.0178,-540.2836,543.3333
2240,54.3864,-263.7142,173.5515,1096.8516,-531.8613,549.1437
2260,66.6301,-261.4196,163.0688,1133.1586,-564.8127,539.0204
2280,61.1411,-267.2719,149.549,1117.006,-546.694,544.7433
2300,69.5352,-264.9448,155.2768,1124.3002,-548.0634,548.8361
2320,70.2998,-255.8433,162.516,1120.5332,-558.8745,539.6552
2340,80.0851,-246.8641,181.7588,1139.6553,-575.9086,537.3223
2360,79.1984,-249.7525,156.7916,1121.483,-561.0565,538.9309
2380,70.0741,-260.8771,139.7916,1098.3505,-548.3717,542.7012
2400,70.435,-269.8927,129.9073,1111.7085,-555.0702,545.2743
2420,66.4452,-277.2018,146.4047,1110.5507,-535.0682,545.7811
2440,64.0742,-276.8972,168.4482,1114.9504,-541.015,541.7966
2460,65.8279,-270.8403,164.1175,1117.4928,-545.9517,532.5317
2480,64.3242,-265.213,158.4467,1092.7896,-545.4693,549.7799
2500,68.3096,-267.5924,142.8421,1084.5349,-546.9771,545.9765
2520,60.9812,-273.372,139.9299,1091.4581,-548.6451,547.7585
2540,71.3924,-267.5042,149.3279,1116.3278,-569.9424,546.2906
2560,83.2542,-256.8636,162.7357,1090.696,-563.0417,547.7335
2580,82.4003,-249.9085,145.3473,1096.4629,-582.1622,542.0597
2600,80.5867,-255.5159,150.2422,1094.0564,-571.2849,540.1046
2620,78.125,-258.2939,156.1297,1104.7996,-565.7397,547.3027
2640,83.2922,-262.8335,149.9226,1104.6948,-570.3423,545.0355
2660,86.2247,-257.7356,151.9957,1094.4731,-571.9457,544.4772
2680,89.4285,-250.2228,146.5623,1102.1469,-592.7391,547.2778
2700,91.8904,-245.4093,153.6281,1089.8413,-582.6666,544.606
2720,96.3369,-244.2307,146.6403,1099.0022,-598.4133,540.3755
2740,97.0726,-246.1206,149.3194,1113.5531,-589.9777,537.8402
2760,99.9688,-252.5434,168.9946,1128.8169,-589.887,531.9645
2780,100.9004,-262.2519,172.9647,1138.8571,-586.2921,533.8067
2800,96.7701,-266.4265,165.7246,1125.4365,-581.3276,541.2945
2820,99.279,-252.9229,147.1283,1101.9231,-587.0524,539.8669
2840,100.6236,-259.5316,145.8612,1118.7686,-576.5115,540.2256
2860,104.5885,-263.92,146.3154,1115.8771,-585.0424,540.8496
2880,106.7052,-255.5778,165.1889,1115.9148,-589.0312,537.0483
2900,113.337,-254.1507,165.6128,1111.8867,-607.4159,534.5742
2920,118.3967,-234.5238,160.6404,1095.7858,-625.9468,529.2419
2940,126.8761,-228.4339,145.0653,1098.5992,-626.6606,536.6172
2960,117.1531,-253.7028,150.9903,1127.0154,-600.819,534.4951
2980,118.8841,-252.6136,151.684,1110.4027,-614.0428,535.6268
3000,135.5693,-222.376,161.7685,1115.3693,-648.9167,534.4302
3020,145.0076,-206.3492,153.3341,1104.5955,-665.1815,533.2365
3040,142.0025,-205.0927,150.2165,1089.181,-656.4127,532.3895
3060,139.8572,-215.2737,135.4178,1073.0677,-643.6841,528.7701
3080,143.8407,-218.6696,138.1218,1092.6987,-644.2858,531.8105
3100,143.7134,-226.9401,148.8694,1094.7522,-640.4285,534.6244
3120,154.4456,-203.8006,140.9707,1091.9551,-672.5919,528.7684
3140,150.4492,-207.451,142.5327,1079.5396,-652.9179,537.6579
3160,149.6754,-216.3691,117.9267,1077.2676,-650.166,537.5656
3180,148.988,-227.7138,129.6389,1081.326,-643.4491,547.7318
3200,159.5249,-217.0798,139.181,1086.8846,-655.7949,535.2209
3220,165.3524,-220.9008,153.3893,1095.538,-667.4348,530.7374
3240,162.1529,-231.5961,148.5176,1093.5925,-665.9558,530.939
3260,163.2037,-217.278,129.383,1071.6407,-659.0723,531.9255
3280,171.4868,-217.0751,126.5348,1063.6172,-670.8062,542.675
3300,162.2665,-205.8593,133.1351,1039.5226,-666.5967,535.9406
3320,177.1885,-194.7083,138.5865,1048.688,-683.3079,533.7163
3340,182.9252,-187.9645,143.0979,1063.0345,-698.1806,532.7892
3360,182.1638,-181.6477,143.1677,1080.8158,-707.4839,524.7773
3380,187.3463,-175.0473,134.0705,1058.3596,-698.2332,526.0718
3400,189.149,-177.2672,126.4008,1042.4249,-696.0121,532.2128
3420,191.3857,-187.4598,125.9317,1065.7538,-699.1276,525.0741
3440,191.3292,-204.4802,123.7699,1080.983,-693.7639,531.4417
3460,197.1177,-189.646,129.3504,1078.3003,-700.6693,533.517
3480,206.0147,-175.5756,118.5179,1060.9471,-732.0357,531.5491
3500,202.7862,-178.4252,100.1109,1053.0665,-729.0353,527.0125
3520,200.2707,-180.5531,101.8438,1051.53,-707.4764,531.4487
3540,204.0264,-172.2674,127.3218,1081.7433,-767.4537,525.7672
3560,208.6783,-163.1833,143.5181,1084.3391,-727.787,523.8577
3580,208.981,-160.3303,141.5474,1100.976,-738.7941,519.2262
3600,204.1979,-155.5622,112.2144,1070.5319,-736.634,527.7361
3620,206.121,-151.9437,127.638,1052.6301,-731.7056,525.6691
3640,210.1115,-150.6084,132.3322,1053.5596,-744.0054,521.6038
3660,212.961,-145.0921,145.8418,1081.9559,-751.0029,520.6672
3680,207.8412,-155.5319,161.6469,1102.8467,-750.2083,519.6734
3700,212.8257,-146.7238,131.0112,1093.2524,-765.0352,518.1016
3720,218.6708,-140.6472,127.755,1076.7133,-764.3471,525.8285
3740,211.6731,-140.8914,141.4165,1090.2764,-759.9551,514.8341
3760,212.5184,-133.0669,122.8472,1061.0885,-762.6673,518.9069
3780,215.3701,-133.8201,131.2092,1066.3085,-767.2792,517.9656
3800,212.2714,-121.9474,137.2164,1074.002,-777.2213,514.64
3820,214.8466,-133.5386,126.2925,1068.4697,-769.1594,521.801
3840,205.8499,-150.2926,139.0825,1058.1874,-745.8849,520.7915
3860,211.7533,-143.6979,133.182,1067.4158,-755.2286,517.5402
3880,211.0056,-143.827,143.928,1088.3442,-758.9713,523.7872
3900,206.7919,-171.6303,111.8431,1077.8707,-742.4256,529.5071
3920,213.4516,-160.0985,129.4112,1077.5948,-762.4631,522.4069
3940,207.8629,-171.4912,121.8815,1071.5577,-743.2658,533.7568
3960,212.3857,-169.3303,149.3554,1107.4553,-751.3381,522.3148
3980,213.4877,-163.1396,172.0185,1121.2765,-747.9161,520.6101
4000,213.4576,-169.3041,143.6594,1110.9041,-759.7601,512.4737
4020,202.0807,-165.8012,150.881,1086.1768,-732.8171,519.3751
4040,210.2957,-170.037,139.278,1099.859,-755.7532,520.9417
4060,213.0362,-163.9536,157.2263,1116.5681,-753.6379,512.9503
4080,213.2977,-169.0737,159.0808,1129.9053,-758.6377,519.3773
4100,216.5085,-163.2509,148.6547,1142.1625,-769.1332,517.1023
4120,213.0588,-187.1726,146.4843,1107.7327,-749.5409,522.4874
4140,214.1568,-186.2369,155.4164,1126.3741,-745.9592,521.6385
4160,211.7986,-174.0646,154.175,1137.5469,-754.3955,511.1295
4180,204.4034,-188.1733,156.3388,1139.1212,-747.4222,519.6711
4200,202.501,-187.9575,162.143,1138.3212,-752.1643,520.3165
4220,201.3131,-179.1886,163.7939,1116.7988,-748.2643,517.7253
4240,205.38,-185.8671,160.6683,1126.3885,-750.6791,526.568
4260,200.0964,-192.6716,182.7034,1156.4132,-777.8469,515.1675
4280,197.9951,-197.3726,196.4147,1205.7383,-748.1497,507.9649
4300,193.9257,-203.5156,200.389,1206.9089,-747.6647,509.0564
4320,200.7368,-196.1617,184.0701,1192.58,-761.8459,504.1143
4340,199.4561,-188.3887,169.2646,1177.2292,-763.0845,508.4319
4360,193.992,-189.6086,184.6601,1190.3188,-749.6331,506.3228
4380,199.4926,-191.5785,182.7072,1193.845,-753.9947,505.2811
4400,193.2408,-199.7804,185.9345,1199.5028,-745.8367,514.2789
4420,194.239,-196.8626,165.682,1173.2007,-745.3279,509.6491
4440,207.4781,-182.3195,159.9344,1176.219,-760.0248,508.9384
4460,198.6614,-197.306,166.5797,1177.4063,-746.7791,513.4686
4480,203.0549,-189.438,187.6441,1177.3427,-750.7455,498.1709
4500,201.6446,-198.9683,180.4797,1189.9225,-737.2482,511.6096
4520,203.1956,-188.5612,173.2472,1172.5923,-748.3586,515.0207
4540,206.6067,-184.1728,186.3936,1165.5448,-753.4657,513.3708
4560,198.4979,-182.174,188.1422,1185.4846,-751.5339,505.6462
4580,195.5043,-192.8984,164.6286,1154.3354,-722.9594,516.2856
4600,191.2753,-211.9841,164.3258,1127.5271,-699.8939,522.0131
4620,196.6613,-192.7401,158.7474,1149.1171,-747.012,517.8816
4640,190.6177,-193.637,144.5895,1137.1348,-732.8211,525.9081
4660,182.6319,-209.5941,122.6711,1139.6144,-724.3864,521.3768
4680,186.645,-192.5472,125.1416,1119.5035,-728.6022,529.5653
4700,186.9278,-193.5778,150.41,1153.2141,-748.4301,519.3384
4720,187.0783,-178.2107,157.4465,1159.2545,-749.3958,518.21
4740,191.8862,-190.8681,139.2417,1130.3126,-714.929,522.8685
4760,181.2142,-166.8623,142.8943,1125.828,-735.2567,515.981
4780,188.8296,-149.9017,155.4861,1147.3943,-747.6371,523.2894
4800,182.1275,-155.95,165.8426,1136.4023,-735.2493,519.8405
4820,189.3656,-145.7762,158.3132,1124.8583,-748.5557,525.4935
4840,184.6031,-136.3437,154.1546,1115.343,-745.352,519.7337
4860,184.8619,-129.2595,153.3477,1116.3053,-750.8171,523.0283
4880,171.2084,-146.2435,144.2742,1119.5508,-749.2963,520.7283
4900,179.2834,-103.9876,167.6145,1123.0941,-754.7822,523.3943
4920,176.4556,-110.865,161.0168,1104.2644,-749.0278,523.2038
4940,174.5087,-92.0453,153.3482,1091.8782,-753.4821,525.1901
4960,158.8838,-111.0972,136.9044,1080.7581,-724.8719,533.8697
4980,168.9415,-90.9867,153.1913,1092.6023,-742.0439,523.674
5000,164.8046,-99.1992,178.4433,1108.9113,-725.7617,530.4504
5020,166.5302,-74.6668,192.3241,1083.29,-745.0281,517.1736
5040,179.3886,-53.8622,190.5757,1089.4773,-778.9929,522.1689
5060,165.8107,-65.2922,175.6329,1070.2197,-762.0751,523.3726
5080,158.136,-71.084,163.2955,1068.8156,-739.4109,523.654
5100,158.5575,-72.6944,171.7528,1064.8208,-732.4837,526.6494
5120,146.8265,-84.2788,177.6135,1072.473,-715.5757,528.9261
5140,148.024,-77.2684,202.0513,1069.8973,-716.7571,520.7145
5160,164.1925,-38.6453,196.7106,1065.103,-758.8792,519.7228
5180,146.1637,-58.2294,172.1863,1081.2914,-733.782,515.3809
5200,155.8379,-47.1672,185.7677,1096.3367,-749.2792,523.5233
5220,158.2179,-37.2854,188.6764,1084.9016,-745.5312,518.9296
5240,159.4326,-31.8169,199.1243,1085.3438,-755.6683,513.4637
5260,165.1731,-15.0452,218.9753,1097.9504,-775.89,517.009
5280,160.1765,-11.9198,184.8301,1059.2393,-771.9022,516.7003
5300,159.2552,-8.0171,186.9877,1061.7206,-771.396,525.5876
5320,165.6554,-1.0482,201.742,1080.0809,-781.9084,504.6785
5340,168.98,-1.0653,214.0244,1087.3276,-784.5408,507.7975
5360,173.8932,9.372,192.679,1067.0211,-794.2939,514.1077
5380,168.0422,1.2585,175.0534,1067.0864,-792.4267,509.6825
5400,175.7752,16.4751,172.2464,1074.5873,-789.262,511.5381
5420,170.9931,-1.2929,171.3739,1094.682,-792.7851,515.0334
5440,183.3845,20.4787,191.6347,1113.2224,-816.3057,508.6998
5460,185.5218,17.2016,187.9166,1100.1832,-805.2233,513.2623
5480,188.3188,16.8684,163.205,1078.7401,-804.0037,520.106
5500,188.201,19.826,144.1254,1062.6549,-806.6836,514.0143
5520,188.6088,18.0063,166.0794,1066.8352,-791.3442,517.9661
5540,197.3132,22.2625,182.0583,1082.8392,-802.4655,511.1292
5560,199.1018,23.3846,206.138,1110.6469,-798.4087,507.632
5580,199.9677,28.1583,194.3524,1098.2201,-810.6591,503.2477
5600,209.701,43.46,170.4561,1065.9136,-795.72,515.4315
5620,210.1085,32.5208,159.5376,1075.3751,-818.3018,508.6107
5640,203.554,18.0899,143.3501,1065.9535,-803.779,520.1863
5660,209.4281,14.9018,163.7312,1091.9509,-794.7229,504.1399
5680,222.3165,22.7802,183.6037,1119.1343,-817.9053,502.8459
5700,221.1341,37.5322,167.8054,1092.8323,-800.1466,510.8033
5720,221.3249,29.4831,149.7607,1088.434,-817.4925,511.6226
5740,210.5917,16.8759,132.7597,1063.8969,-798.7184,519.2637
5760,219.837,37.4688,151.0184,1079.3258,-833.7045,514.1985
5780,236.6603,55.6002,179.6493,1104.6158,-834.8582,509.144
5800,224.4992,36.7915,163.2972,1084.5083,-825.6071,502.3232
5820,230.6858,53.0943,144.4629,1054.4125,-831.0833,516.5394
5840,228.9128,32.5877,150.8098,1067.769,-817.0292,513.334
5860,232.0392,32.5043,147.4516,1060.0548,-820.5007,514.2659
5880,228.5693,35.8739,152.1507,1091.1455,-831.3018,508.4776
5900,235.2933,36.1275,171.9569,1091.4622,-825.657,510.4922
5920,227.0961,21.1739,150.1591,1088.8782,-812.9525,508.108
5940,227.5942,36.4954,148.319,1072.5724,-816.4408,506.8493
5960,225.5087,11.5658,149.5785,1076.8052,-803.13,516.7451
5980,230.006,23.2533,163.2702,1084.6594,-798.2557,518.0611
6000,211.437,-8.5351,137.7898,1086.5018,-767.1546,507.2513
6020,220.0009,-6.0843,135.7426,1073.7727,-773.6857,522.1921
6040,235.5424,13.5964,154.0508,1081.6608,-795.4528,518.5809
6060,225.1732,-7.0266,139.1178,1078.6019,-779.9879,514.4417
6080,233.1072,1.8341,146.0203,1073.1277,-795.7147,517.7253
6100,223.2056,-21.9048,135.1216,1088.4282,-783.1204,518.0967
6120,229.4727,6.8781,155.2401,1078.5211,-795.058,510.0697
6140,228.8441,2.4803,157.3623,1082.0768,-791.1105,511.8525
6160,228.211,-3.5192,144.5256,1066.4315,-782.7691,517.5757
6180,224.5861,-28.469,132.0088,1087.957,-776.0839,518.9305
6200,232.1525,-19.0059,141.6047,1095.4965,-781.3045,523.2923
6220,228.808,-21.2015,147.0771,1106.4884,-784.556,512.5905
6240,225.7451,-28.8857,146.0789,1100.2207,-774.3794,511.3624
6260,227.7697,-31.0409,140.4696,1099.4797,-780.8265,514.9427
6280,235.6732,-40.2352,130.8528,1103.2467,-784.5959,513.2283
6300,238.8176,-37.871,153.3675,1127.2439,-793.6195,512.5178
6320,240.6528,-42.4764,153.8962,1120.7421,-789.0575,510.3035
6340,241.9513,-37.0497,144.2741,1099.8995,-795.1519,515.3414
6360,240.8835,-37.5354,127.0023,1098.9209,-795.0842,515.6268
6380,238.5969,-40.7205,133.8424,1094.2307,-781.006,513.4458
6400,241.6004,-44.0177,130.4795,1102.7019,-791.2753,515.1275
6420,250.0314,-40.6318,145.5432,1108.0149,-812.2101,510.5717
6440,256.3078,-39.9147,154.2954,1104.684,-789.9561,506.8497
6460,251.5441,-47.7064,132.8254,1100.1656,-787.9431,515.3392
6480,253.0302,-52.7002,115.5004,1081.9447,-784.1249,521.3619
6500,255.1338,-63.7391,118.4774,1105.4916,-780.0338,515.8889
6520,263.5341,-46.4625,156.4907,1125.7914,-790.1018,509.6257
6540,260.8099,-44.5529,132.759,1106.9114,-784.1965,517.3346
6560,261.3373,-56.1555,110.3831,1094.8942,-784.9306,517.2631
6580,262.8403,-59.1725,128.9434,1101.2797,-783.4941,513.0016
6600,261.1493,-58.4872,138.2659,1119.1119,-779.756,516.1515
6620,267.6629,-67.3656,140.9634,1117.8582,-775.1492,518.3418
6640,260.2625,-73.4547,119.7848,1105.9937,-776.8289,522.042
6660,263.8489,-72.865,103.8752,1105.0032,-780.2708,521.0639
6680,259.2019,-79.2346,94.5937,1106.3164,-764.1299,525.7401
6700,261.0763,-66.4714,102.4787,1132.6968,-802.2202,519.4628
6720,261.4257,-77.6897,134.4553,1112.1302,-780.0922,524.3185
6740,267.2124,-71.5075,115.5535,1110.9171,-797.6324,522.9365
6760,266.6501,-83.508,97.3809,1093.7546,-785.8079,526.8413
6780,266.7434,-90.333,105.6032,1110.191,-786.5541,521.9206
6800,265.4283,-98.2765,105.7258,1103.5747,-780.0903,524.4502
6820,261.6749,-101.3616,102.4657,1120.7585,-765.8463,521.5728
6840,260.6844,-96.4557,93.5659,1136.512,-806.5322,522.4093
6860,258.1663,-113.0667,113.2146,1125.0463,-766.3524,526.7878
6880,259.6182,-119.2195,102.5363,1122.438,-768.2852,521.9855
6900,259.6568,-125.3364,101.9164,1096.7415,-763.0083,529.8275
6920,264.1031,-119.0643,122.7432,1142.1876,-777.008,521.3159
6940,261.2482,-124.9307,99.0478,1128.4009,-779.9348,523.0612
6960,260.5863,-128.2969,93.7205,1128.022,-773.9512,523.6391
6980,257.0197,-143.0503,93.8573,1134.127,-766.8734,523.5375
7000,252.288,-151.9552,118.2897,1152.051,-755.2574,522.8729
7020,259.8493,-143.402,110.7806,1150.519,-767.004,521.7654
7040,252.1224,-144.2789,107.6,1116.8212,-753.134,528.143
7060,258.6099,-126.2117,98.2472,1119.167,-771.8011,527.4448
7080,253.6599,-130.4744,104.5085,1118.8582,-765.7811,530.548
7100,262.4221,-127.3043,111.3378,1116.1484,-763.0608,526.3192
7120,263.7852,-136.4167,81.0107,1106.7848,-759.204,527.0214
7140,260.2386,-137.9116,87.0671,1117.9619,-758.3351,533.4661
7160,260.0398,-138.6039,86.794,1121.4001,-755.407,525.1145
7180,261.8887,-130.448,79.4541,1109.8768,-753.418,526.5229
7200,260.8559,-139.0611,90.8219,1121.8696,-749.8728,527.1498
7220,257.8487,-131.0317,87.9959,1117.2915,-747.8678,527.7029
7240,268.1002,-103.7227,90.3507,1114.3568,-769.618,527.4031
7260,258.5716,-115.8221,76.1405,1103.0822,-754.8494,528.5651
7280,266.436,-120.1968,50.7177,1109.4291,-767.4873,532.428
7300,261.7877,-121.2087,67.1367,1105.9149,-752.1972,534.2432
7320,263.5656,-117.5142,81.0448,1120.3855,-754.4229,529.3536
7340,258.747,-115.1214,85.4962,1113.8367,-750.8951,529.9654
7360,250.9875,-116.4209,73.2055,1093.4283,-749.2047,532.4565
7380,250.7584,-113.1843,70.872,1091.0165,-764.9789,534.6699
7400,251.7462,-111.3164,78.1723,1116.5055,-749.9916,532.3286
7420,248.9605,-104.635,73.5656,1097.8541,-754.5348,536.0441
7440,255.4279,-99.2491,77.3631,1109.1984,-773.0032,532.6885
7460,255.3529,-103.223,73.9899,1105.9442,-767.1451,535.1063
7480,251.2731,-108.1634,70.0741,1105.0635,-753.8468,535.5576
7500,250.1913,-90.1406,72.3754,1092.6445,-776.2098,532.8632
7520,254.0693,-83.1121,84.5773,1089.356,-784.8766,528.3292
7540,260.0401,-79.7492,81.8419,1079.26,-778.6998,526.9854
7560,265.0714,-76.3673,86.6936,1093.6514,-781.2742,527.4996
7580,255.0173,-79.1077,82.6486,1091.0078,-772.683,528.5716
7600,259.5447,-73.5724,79.2649,1073.2209,-765.5444,530.6001
7620,262.4173,-78.9933,87.2251,1074.5143,-761.9788,527.3088
7640,258.5969,-85.6986,94.5077,1090.6676,-750.8755,527.8724
7660,259.9067,-86.4366,94.5868,1077.8666,-741.7274,528.6093
7680,252.1478,-94.8385,108.7206,1043.2939,-716.7433,536.7943
7700,259.0445,-95.5052,115.4484,1061.8987,-726.0947,537.752
7720,260.1784,-86.6318,124.773,1084.1204,-742.5178,529.0082
7740,255.5289,-99.5767,115.2074,1087.3682,-739.6208,529.872
7760,258.6208,-87.4443,125.5257,1090.0554,-749.6101,531.7235
7780,258.2939,-88.8611,126.5089,1089.2791,-745.0442,533.3975
7800,239.6571,-95.1053,117.4396,1065.1385,-719.3788,535.4019
7820,245.9658,-87.164,100.7278,1087.3523,-756.4857,534.8796
7840,241.586,-88.8968,119.4845,1091.1296,-751.5986,527.8645
7860,230.8783,-90.0881,105.4148,1085.1638,-749.668,526.7039
7880,232.9973,-91.4589,83.1986,1056.5754,-746.1227,538.7197
7900,226.9945,-100.6369,96.3813,1091.3058,-747.1162,534.109
7920,228.2033,-103.1987,84.7646,1074.8894,-758.8213,541.7047
7940,228.6775,-102.9304,122.5417,1114.448,-746.3605,535.467
7960,209.7082,-94.8442,94.4401,1084.2004,-751.1271,544.7446
7980,209.0439,-95.6759,87.5711,1091.9456,-752.9219,538.6935
8000,206.4228,-113.1903,66.8182,1085.3014,-749.7916,540.599
8020,209.0231,-100.9474,101.6713,1121.4796,-753.5511,536.0872
8040,206.2921,-108.6926,88.2006,1141.5829,-770.0165,538.7592
8060,208.1145,-130.1796,114.47,1076.3848,-690.2736,543.944
8080,204.8439,-114.2413,109.335,1098.2616,-731.324,538.5544
8100,197.8622,-114.7411,107.7081,1109.9229,-724.7682,537.111
8120,194.0256,-107.2639,105.2454,1101.5575,-718.5046,538.5722
8140,182.494,-111.3764,83.7985,1080.1693,-713.8727,547.6873
8160,177.3853,-96.9178,90.6945,1067.3818,-700.0377,545.0859
8180,177.8544,-100.2456,75.3345,1072.6108,-722.8264,544.3199
8200,163.5523,-100.3605,82.661,1066.1783,-705.2722,546.278
8220,149.1254,-103.4157,83.1956,1073.3955,-668.8581,557.8572
8240,146.4564,-99.2485,95.5161,1089.0305,-665.1923,547.396
8260,136.7066,-102.2699,99.746,1090.3236,-664.25,544.1545
8280,130.5122,-103.8662,88.8785,1078.417,-655.922,551.5978
8300,121.2507,-97.641,82.669,1077.5035,-652.7141,551.8062
8320,106.402,-104.9962,83.0899,1090.8231,-624.7618,551.8719
8340,97.8259,-95.4823,68.7944,1106.5529,-643.3893,548.6075
8360,88.071,-96.2861,78.7708,1091.783,-614.3525,557.5969
8380,74.453,-92.5536,60.5688,1093.2218,-605.5868,550.951
8400,82.1322,-78.5807,74.5202,1111.2532,-617.3174,551.7001
8420,66.1357,-82.4415,58.4937,1090.7549,-607.1351,551.7063
8440,59.9828,-80.655,61.0656,1099.9509,-582.3741,550.824
8460,51.7729,-78.0917,89.8525,1123.606,-576.2047,547.4636
8480,40.4696,-80.2316,104.8614,1155.1891,-574.2587,531.4181
8500,34.1597,-81.6309,84.2121,1121.0907,-569.6995,545.6624
8520,35.3853,-72.304,75.8835,1115.0597,-570.1842,547.2943
8540,37.9017,-62.6917,83.0216,1113.981,-560.4247,548.0649
8560,24.9764,-56.1794,114.6875,1142.9427,-540.7415,549.1284
8580,19.3019,-45.917,137.5913,1133.113,-540.5247,537.3778
8600,12.7758,-55.2237,129.8936,1138.1781,-518.7594,538.9246
8620,19.1594,-34.2471,142.2639,1145.6475,-517.0573,544.0441
8640,13.7064,-44.4002,133.3102,1140.0063,-498.3141,542.108
8660,6.242,-40.4942,155.9786,1150.574,-480.1465,541.0134
8680,15.621,-23.7463,187.1878,1191.0011,-505.5339,534.1633
8700,15.0877,-17.4836,177.8049,1187.71,-505.8805,528.5741
8720,3.5181,-19.5147,184.4335,1209.5251,-499.9727,522.4117
8740,0.8856,-15.0596,197.585,1229.438,-499.1686,512.8575
8760,1.7995,-31.7967,234.1503,1238.8892,-462.7863,518.7923
8780,0.7255,-20.671,236.281,1247.9766,-476.4179,509.5467
8800,4.196,3.6297,254.3976,1257.7871,-476.519,494.6254
8820,10.4369,14.3984,282.4645,1277.3514,-471.1985,511.4582
8840,2.4633,13.2298,279.0966,1266.2349,-478.6701,500.0638
8860,6.5654,22.682,284.436,1278.9583,-471.2375,501.2503
8880,4.7885,25.2881,289.2632,1286.0392,-464.8447,507.0078
8900,3.8037,5.0061,294.1749,1305.6165,-455.8155,499.7469
8920,12.1478,17.1394,289.7576,1302.8978,-461.9134,498.6146
8940,13.0681,22.3436,280.4873,1290.787,-453.3093,497.8424
8960,16.1745,33.1819,283.4166,1290.6364,-471.7424,494.4918
8980,24.0119,38.2673,284.6003,1306.422,-480.8932,493.8443
9000,26.5804,35.1291,286.2885,1311.7758,-496.064,495.6294
9020,29.2143,30.8316,284.2346,1311.78,-480.5688,489.5166
9040,29.2871,37.9331,286.6009,1290.8525,-476.035,491.1907
9060,31.0227,41.4904,272.7577,1272.1523,-481.9393,504.6734
9080,35.3411,48.1116,257.4928,1257.986,-478.8512,501.0374
9100,34.6069,41.6192,248.128,1251.0994,-479.5521,500.2295
9120,38.2503,28.6839,238.1018,1258.9891,-474.3929,505.2108
9140,34.1298,28.225,238.5997,1254.6733,-471.8303,501.9142
9160,43.9719,43.0565,225.2141,1233.6735,-490.9627,505.499
9180,52.7517,51.4883,219.9677,1227.5863,-501.5779,515.5729
9200,52.3242,45.5294,201.1114,1202.6139,-501.1756,512.034
9220,60.8914,47.5169,199.1539,1195.649,-517.1537,512.3213
9240,61.0555,48.7556,198.7251,1194.8464,-516.0861,518.9843
9260,64.3381,47.0385,189.6779,1181.422,-500.2709,517.971
9280,72.2764,48.0482,149.4865,1145.3842,-510.6727,521.4188
9300,80.0296,33.8845,136.7232,1142.0615,-526.775,526.0098
9320,82.7226,34.9271,137.1538,1124.97,-532.2671,529.099
9340,93.532,39.1154,132.315,1130.936,-547.9616,523.1821
9360,93.9937,38.6781,125.84,1123.2628,-542.3069,539.9095
9380,94.1577,33.6467,116.0127,1108.2747,-533.2795,533.5577
9400,97.1847,16.9117,96.1309,1104.7023,-529.1575,535.8918
9420,99.5425,17.9345,98.9676,1095.8864,-517.7445,541.5531
9440,106.8284,16.3549,85.1563,1122.4659,-539.2274,532.4386
9460,115.8605,24.3996,87.8861,1134.9351,-553.8242,536.1362
9480,115.6688,23.8153,89.3156,1139.832,-556.3809,535.2057
9500,117.9861,11.1893,68.335,1116.0144,-557.4481,530.1691
9520,129.8425,14.4875,73.7247,1125.4703,-576.6954,533.4996
9540,132.1619,27.5849,79.8357,1156.4697,-604.4389,531.0052
9560,143.0199,0.5147,87.2412,1124.1807,-540.2189,533.9175
9580,144.5583,0.5335,77.0144,1126.097,-561.6742,538.049
9600,149.0308,-2.186,60.8717,1134.6592,-574.4644,531.5764
9620,150.9392,-24.12,63.774,1139.0464,-560.1901,539.945
9640,149.3649,-32.8621,72.1158,1137.8774,-556.4011,536.7781
9660,151.6582,-36.2253,65.2905,1145.7546,-552.8746,542.2473
9680,157.8325,-37.9278,66.0283,1167.4695,-559.9601,539.2081
9700,149.8098,-67.2871,65.8356,1154.9985,-545.316,539.42
9720,160.0584,-60.6919,52.1137,1152.0376,-563.149,534.8981
9740,166.5225,-66.0391,31.1598,1142.8835,-568.7755,541.2823
9760,170.0987,-58.6608,56.4255,1145.3188,-563.3956,540.2138
9780,175.6595,-60.074,61.2058,1135.1241,-571.0251,535.1006
9800,182.4066,-58.886,53.5004,1142.6453,-583.3375,535.2657
9820,187.8481,-70.3498,47.5496,1144.5298,-578.8027,537.1048
9840,188.376,-89.8492,39.6686,1139.9064,-561.3915,541.3533
9860,199.3875,-93.1049,36.6119,1162.7174,-571.7126,541.3681
9880,197.6715,-104.5489,47.8356,1162.6602,-557.2642,541.1974
9900,198.3476,-100.2067,52.9938,1152.4308,-555.6268,539.3631
9920,201.3238,-110.2731,53.0165,1152.9983,-555.6638,544.1026
9940,199.8698,-125.3594,41.7254,1160.6222,-558.2208,533.4484
9960,201.6656,-130.4985,37.4489,1152.2858,-555.0054,540.8799
9980,208.7112,-135.726,43.8069,1147.5563,-561.1862,538.0419
10000,213.7352,-138.2236,45.407,1147.9396,-563.6234,538.1274
10020,222.0477,-136.2495,30.498,1144.5697,-572.0562,535.9875
10040,223.8727,-136.4216,32.7133,1163.7377,-589.6807,534.387
10060,225.3343,-151.7185,41.8325,1151.6884,-570.4277,531.9003
10080,220.8191,-164.7953,26.1564,1153.0105,-575.7688,531.3398
10100,225.6651,-155.6195,26.6523,1162.1177,-582.9092,524.8567
10120,227.2166,-163.9617,36.059,1173.9618,-574.1729,526.9633
10140,232.6327,-164.8221,30.7752,1174.963,-583.402,523.8261
10160,232.9037,-181.3786,34.9874,1186.7762,-591.4103,517.8921
10180,235.9288,-181.6024,31.4255,1192.0276,-593.5029,524.2199
10200,234.8334,-201.4339,26.2384,1195.5709,-577.1434,526.3968
10220,230.9127,-201.9696,49.4735,1199.4161,-559.3052,533.6815
10240,233.3673,-207.41,39.6041,1186.2073,-568.6337,525.4841
10260,231.5831,-204.9597,57.2074,1186.7703,-569.0618,524.3666
10280,236.0885,-214.0285,49.3331,1186.3257,-568.2874,529.2966
10300,242.5807,-218.5071,48.0304,1190.248,-584.9061,528.9663
10320,250.5872,-215.4906,49.9948,1217.1229,-599.7298,510.7899
10340,246.4957,-230.762,57.0616,1204.8164,-590.1241,509.1506
10360,240.482,-240.0689,73.7886,1202.3425,-586.9271,517.3191
10380,240.1282,-253.6418,74.2139,1223.2009,-590.4097,516.3521
10400,239.8507,-256.2607,75.0085,1200.0182,-587.6843,512.2509
10420,243.5561,-263.662,77.7721,1238.9343,-580.6978,518.1106
10440,242.3715,-255.9057,77.1417,1213.5238,-600.5734,513.3035
10460,243.4967,-271.8522,86.4483,1224.7556,-586.931,506.8988
10480,248.9424,-278.238,83.5726,1228.3829,-593.7809,511.4713
10500,246.7751,-275.6909,80.5511,1222.6196,-599.9888,512.0532
10520,250.1228,-285.7709,80.9033,1234.7209,-584.1646,516.4792
10540,251.3777,-271.8477,100.5399,1245.4055,-598.8229,509.9592
10560,250.3013,-278.396,116.5684,1247.7854,-596.3132,507.4903
10580,246.4683,-290.1756,98.3924,1222.3782,-591.5292,506.1332
10600,245.4765,-286.1003,88.5763,1230.745,-598.9198,510.0453
10620,245.3964,-292.277,99.9552,1256.9048,-600.617,497.8457
10640,253.0083,-291.5921,108.6292,1269.88,-608.4635,493.6479
10660,247.5271,-295.2893,118.314,1262.1262,-592.4012,506.1937
10680,246.0611,-304.8967,101.2968,1261.0105,-591.1899,498.8296
10700,241.4355,-315.743,96.6342,1245.718,-577.2239,499.4069
10720,244.941,-316.8374,113.5926,1252.7974,-576.2272,510.6147
10740,242.7261,-310.1867,119.1854,1259.8711,-583.6586,494.3268
10760,243.4122,-306.2882,117.9127,1269.8064,-608.4192,493.2267
10780,245.2626,-313.3227,133.7212,1250.8044,-585.525,497.1889
10800,251.9411,-303.8239,144.5149,1260.1056,-601.3927,494.3929
10820,250.9688,-300.3705,127.4232,1246.9583,-611.8102,491.2831
10840,250.4139,-306.944,135.9369,1242.4395,-592.2802,499.4431
10860,245.9615,-319.9949,130.8221,1248.2474,-586.0615,502.7448
10880,251.2565,-318.5567,150.3838,1269.4618,-592.2852,510.8703
10900,248.6785,-323.0968,142.6144,1261.5361,-592.0715,499.3246
10920,244.4371,-329.7728,145.5664,1259.801,-592.6612,494.4365
10940,243.4685,-348.2034,136.1424,1232.0343,-575.6582,493.8433
10960,240.8631,-338.5927,126.4047,1242.3093,-584.8541,501.1956
10980,233.2125,-340.1334,130.5528,1227.64,-585.8711,500.0016
11000,243.9152,-323.1976,144.2026,1243.2612,-585.7324,498.0006
11020,248.704,-320.0177,120.9069,1223.6829,-603.6899,494.7409
11040,250.343,-320.0347,135.2308,1246.3608,-607.1031,499.5838
11060,253.1398,-322.0354,138.7627,1253.23,-621.7599,496.5469
11080,251.7285,-325.7755,156.7296,1217.859,-590.8307,496.5647
11100,255.7173,-318.183,150.6121,1238.5183,-616.6677,502.7153
11120,249.7939,-325.5422,141.3176,1226.4915,-610.733,493.1511
11140,254.9345,-319.7369,163.0609,1246.7819,-614.4745,504.0222
11160,248.1408,-328.0778,144.5653,1233.3843,-613.9703,497.0502
11180,248.3986,-322.5311,150.7578,1231.3654,-617.8729,504.3373
11200,249.6627,-330.2718,146.7288,1216.4978,-624.7508,509.4667
11220,260.9907,-318.1609,158.5298,1259.3269,-645.5673,504.8029
11240,251.6702,-337.0781,170.0985,1223.8955,-613.5668,497.9123
11260,256.236,-330.4214,174.308,1233.9821,-621.9398,515.2458
11280,258.5365,-327.6477,163.4618,1217.6387,-630.9457,505.0273
11300,263.975,-325.3252,159.1533,1222.0831,-635.8301,503.6143
11320,260.8057,-327.8226,154.4464,1213.2987,-623.1113,501.8087
11340,263.6996,-326.2426,176.8654,1226.0353,-624.3433,514.8676
11360,267.3069,-333.3273,180.8945,1246.0105,-646.1725,500.8179
11380,274.4994,-335.8445,179.6075,1216.889,-630.3654,497.8724
11400,274.1349,-329.6006,167.081,1222.7898,-636.5579,510.9292
11420,277.0965,-333.062,164.9664,1230.3708,-645.9157,512.7572
11440,276.1599,-335.5706,172.7991,1236.8827,-647.8322,509.4501
11460,282.7271,-328.6249,190.4635,1250.2524,-651.6857,506.3701
11480,290.9609,-329.0091,185.9549,1238.0262,-646.9016,502.3903
11500,291.355,-330.9085,188.2656,1202.2101,-636.0422,499.0584
11520,290.8702,-314.1754,187.4033,1238.7507,-672.623,500.4764
11540,291.6975,-335.4583,201.095,1217.9922,-636.0201,499.4305
11560,292.0942,-312.9987,211.9542,1217.4728,-644.4428,496.2294
11580,289.8677,-318.2639,196.6969,1210.0663,-647.3001,505.9753
11600,296.3569,-307.0899,197.6715,1197.5151,-657.4769,505.2287
11620,295.6886,-302.7071,200.9621,1179.2306,-657.1312,505.1678
11640,295.7454,-292.9977,206.2072,1180.9753,-653.4458,505.7633
11660,299.8589,-292.9208,199.2109,1174.0544,-658.9951,507.525
11680,303.1405,-289.7551,212.8926,1184.6147,-669.14,501.8632
11700,297.601,-297.2981,200.4165,1173.6123,-660.5912,501.7069
11720,300.3104,-300.4453,210.4062,1170.865,-656.8901,508.7476
11740,291.6378,-299.4006,216.6755,1157.4178,-644.0264,500.7058
11760,301.0643,-290.4081,222.1012,1157.1138,-657.8754,510.8536
11780,303.0282,-290.4975,216.1535,1178.1859,-660.7789,508.2025
11800,299.9845,-287.9788,219.1097,1138.5444,-649.8712,518.6508
11820,298.066,-292.5409,223.7195,1149.6284,-654.0098,511.6691
11840,293.5771,-299.1153,221.3523,1155.9452,-650.4619,506.4304
11860,295.162,-295.153,209.5747,1148.6373,-657.7534,510.102
11880,297.4912,-305.8934,207.5503,1159.9504,-657.1249,514.5502
11900,295.9045,-300.7054,224.9483,1167.6764,-657.0488,511.0211
11920,288.0203,-293.5397,218.9616,1148.9263,-652.6279,513.8215
11940,289.6841,-299.8303,226.0293,1151.9772,-656.7163,513.3842
11960,287.0438,-305.9041,205.6341,1157.8199,-655.4874,517.3439
11980,282.5871,-301.5508,214.683,1149.3651,-657.8286,510.9016
12000,286.5286,-303.2165,208.8022,1159.252,-650.353,515.6974
12020,287.8813,-296.5368,207.9822,1173.465,-672.574,508.6296
12040,276.8521,-326.3244,201.0903,1152.9763,-641.5903,517.3277
12060,278.4745,-317.3952,196.556,1145.1555,-647.1209,511.3725
12080,285.439,-315.5023,192.2761,1150.8945,-653.9643,515.6777
12100,287.3089,-310.7097,203.9477,1159.2037,-653.0437,518.319
12120,290.599,-306.7009,205.5064,1159.7814,-664.1037,517.8365
12140,288.0707,-304.8017,198.3141,1152.7542,-664.5757,520.183
12160,287.0515,-286.3328,206.424,1156.3798,-682.6599,520.5245
12180,278.4805,-295.9085,215.7035,1161.5417,-676.9534,518.299
12200,281.6717,-290.742,218.7549,1159.5125,-675.1392,516.066
12220,279.9206,-295.8218,214.5705,1176.3671,-673.2012,517.7818
12240,268.4573,-301.156,209.3878,1161.1539,-661.9377,519.2496
12260,270.8836,-281.2918,212.9162,1150.1729,-668.1385,522.6545
12280,269.7299,-281.7344,210.2087,1148.791,-666.268,519.4792
12300,264.7566,-270.5052,203.5596,1120.6738,-657.9764,520.4772
12320,261.2341,-266.1201,207.5347,1129.0538,-677.3696,520.682
12340,259.4146,-260.7106,207.8272,1153.2019,-682.9792,526.0192
12360,257.501,-252.0098,211.5094,1137.974,-681.2126,518.6781
12380,256.1861,-239.9394,209.5613,1122.0256,-679.9775,519.2821
12400,257.036,-230.9574,210.1062,1118.9492,-682.8788,512.8748
12420,250.9463,-234.6234,203.0465,1128.3656,-679.8118,509.7433
12440,249.1184,-223.1078,191.3754,1116.3036,-686.524,513.2002
12460,251.0073,-195.6194,193.483,1129.9149,-713.2157,513.5661
12480,245.5977,-185.0834,202.109,1128.4934,-702.4521,513.2526
12500,243.0587,-167.4078,208.0673,1107.7433,-706.4727,519.0874
12520,236.8019,-157.4617,218.4923,1086.8662,-693.769,519.8855
12540,238.1696,-136.382,213.9974,1087.0675,-702.0465,521.2468
12560,234.1512,-120.8407,222.3787,1083.1312,-712.8088,512.8275
12580,227.7234,-118.1702,232.0023,1057.3663,-698.9653,523.0135
12600,224.4887,-95.9921,232.649,1054.5388,-705.6857,519.9504
12620,221.2217,-78.5001,230.7626,1058.1754,-704.7472,520.2812
12640,210.9001,-61.8593,231.8499,1028.485,-694.6473,528.1599
12660,209.6198,-54.5044,235.8758,1038.0983,-688.7601,528.7208
12680,205.3038,-45.4101,228.3565,1043.9597,-680.2275,523.2153
12700,205.2098,-20.7983,240.1246,1030.299,-689.953,524.2976
12720,205.8386,-20.3533,231.4816,1017.0262,-679.2049,524.9014
12740,198.5739,-11.5287,235.6814,1006.9141,-679.9755,534.3093
12760,200.3214,8.454,282.5785,1050.8379,-693.3022,515.811
12780,196.4265,27.7527,289.1189,1033.5427,-687.6909,513.0694
12800,202.9111,38.6567,303.2704,1036.0781,-683.336,512.5904
12820,190.8219,38.3202,307.5874,1028.8458,-671.0484,507.2937
12840,186.0263,48.036,314.8162,1024.6415,-657.0176,512.2783
12860,184.0482,59.7303,314.6528,1025.2269,-663.5432,499.4493
12880,177.5727,67.9535,328.1175,1015.3043,-651.5838,510.6439
12900,173.0197,84.9158,330.2267,1011.9848,-648.7242,510.5954
12920,179.1721,104.4259,338.7249,1005.7299,-660.5286,504.6718
12940,182.7278,115.9998,341.7115,1012.6574,-667.7343,503.5995
12960,182.6948,136.5965,346.7124,997.0883,-678.392,497.3057
12980,181.126,132.5583,354.4168,1006.6014,-666.5622,501.1165
13000,181.2666,151.5166,370.1855,1006.2377,-673.8879,501.4801
13020,183.1395,153.4407,370.3493,1020.8746,-668.019,503.5353
13040,181.9571,166.1493,375.0856,995.3213,-665.5839,506.6269
13060,186.8881,177.7321,380.1265,998.0523,-663.7821,500.1615
13080,185.8595,182.3256,372.2745,1018.6601,-682.2027,499.8214
13100,192.9862,188.0231,379.2481,1019.9123,-671.5488,496.2286
13120,186.5622,178.53,384.7652,1013.7235,-651.1362,507.4597
13140,193.5382,177.9596,385.3803,1021.9559,-664.3652,497.222
13160,202.2804,178.4733,389.7933,1026.1235,-654.1565,496.4157
13180,199.2439,185.3968,390.5483,1010.8843,-644.4947,499.0404
13200,198.964,192.416,390.2918,1010.4136,-645.505,499.4254
13220,206.1575,206.8994,409.0373,1002.1398,-648.1256,491.2396
13240,205.5078,201.3767,394.702,1012.284,-643.8476,497.6362
13260,203.3404,203.8737,380.2574,991.5722,-644.4416,503.828
13280,203.2284,202.7473,388.2758,1011.8323,-636.5472,502.4936
13300,212.2089,215.6285,398.8999,1025.5253,-648.0903,494.7085
13320,207.7362,208.7722,415.3686,1043.7758,-643.176,484.6726
13340,202.5832,197.6002,382.1729,986.1781,-603.8052,504.937
13360,193.1217,210.4237,353.5972,997.9448,-632.4359,505.2509
13380,195.8443,219.9313,372.5256,1016.3528,-647.1699,501.5835
13400,203.6467,216.7532,397.5253,1025.9086,-641.6696,502.2899
13420,200.3843,222.2018,400.5539,1033.1204,-655.8209,494.1968
13440,205.7853,237.6863,373.7931,1010.7192,-663.2589,492.6977
13460,207.9781,216.6261,379.5318,1038.6443,-651.0167,494.4861
13480,197.4563,215.45,375.3671,1036.601,-659.5912,490.1668
13500,196.4125,196.0473,384.3853,1043.3469,-637.5627,488.6945
13520,194.4236,190.6992,365.5305,1053.7849,-641.9465,486.4179
13540,193.013,196.2585,349.5536,1033.568,-637.6203,496.6837
13560,200.7473,204.4535,342.4265,1041.7443,-650.3491,491.4248
13580,202.8133,210.8024,359.5762,1048.2623,-656.8403,493.8314
13600,203.7874,203.0805,374.6559,1060.4828,-645.0616,496.2563
13620,198.0815,192.1873,375.3777,1067.3654,-642.3702,490.3349
13640,205.5298,189.6271,372.4826,1027.209,-618.3013,500.8141
13660,200.3093,194.2899,347.044,1053.9091,-651.4785,494.6828
13680,211.7588,196.3304,352.2003,1070.2743,-663.3484,495.2917
13700,196.3382,171.8263,358.9481,1079.8679,-646.4827,496.6995
13720,200.3889,171.9561,352.8748,1075.6069,-648.8741,494.8919
13740,200.2984,178.3169,346.6963,1057.5068,-647.2877,502.6364
13760,196.0427,175.2717,344.783,1069.3989,-654.2955,482.0533
13780,206.0801,176.2134,348.1491,1071.9999,-666.7887,494.6647
13800,201.9297,159.0015,370.0358,1074.0715,-635.3026,497.6678
13820,207.7721,161.3564,344.6087,1057.7095,-646.3906,499.3998
13840,214.9915,155.9646,332.4243,1081.6384,-671.2419,493.7957
13860,211.3322,144.269,341.3702,1093.2466,-653.8625,499.3381
13880,220.2446,146.482,330.9549,1086.4138,-673.3299,499.3655
13900,218.2819,142.7429,322.6396,1074.2434,-668.0691,500.3407
13920,213.9391,136.1136,325.8358,1073.7566,-659.6497,504.2612
13940,213.4875,143.0025,314.929,1070.967,-674.5332,495.7632
13960,213.2241,129.6638,307.7595,1079.5448,-673.6998,499.4526
13980,217.7863,121.7129,307.1949,1085.5996,-663.8987,495.9106
14000,215.7859,121.0364,296.649,1086.1707,-670.3275,497.7538
14020,218.9941,116.0186,305.0667,1090.6888,-688.4968,497.2899
14040,209.4813,90.9548,293.747,1096.2552,-660.7095,504.1662
14060,214.3419,91.6087,289.3593,1103.6104,-679.9971,497.0576
14080,216.9111,91.2605,303.1303,1120.9319,-679.2443,497.3969
14100,214.8504,80.332,290.0764,1128.087,-686.0801,499.1661
14120,208.685,55.8608,287.2015,1109.5375,-655.6962,499.1294
14140,198.5142,45.463,262.5894,1111.0587,-661.9305,501.3515
14160,207.9028,47.0778,250.5923,1136.9454,-684.5833,497.0945
14180,208.651,46.616,262.0475,1145.7214,-677.1903,502.8585
14200,212.9377,50.4306,243.573,1150.7186,-697.5849,498.7012
14220,215.0753,45.8053,234.0885,1121.8219,-696.4784,493.2321
14240,224.2964,54.4961,227.0148,1114.5513,-710.0616,505.799
14260,224.949,37.8341,224.0499,1146.3237,-717.8991,496.1226
14280,223.613,24.1882,233.5734,1168.5765,-706.269,501.3021
14300,229.5788,27.931,227.0518,1167.7308,-708.5918,497.1165
14320,222.836,12.0407,195.3722,1135.2699,-709.1475,504.3799
14340,216.7112,0.1372,197.1487,1163.8971,-707.7271,500.0933
14360,219.5263,-7.6162,198.5331,1155.939,-699.4279,506.7263
14380,224.3133,-4.5608,209.641,1165.2804,-702.8455,502.9646
14400,224.7756,-8.1599,205.7513,1167.4369,-718.6348,492.3643
14420,219.5833,-8.0593,208.4485,1144.9502,-683.9403,500.8321
14440,222.6557,-16.3841,197.6384,1181.3512,-724.1425,498.1545
14460,229.5368,-32.6289,188.718,1174.731,-717.0822,499.7368
14480,213.4448,-36.2302,183.5993,1171.459,-701.5104,497.5861
14500,223.2202,-35.0817,177.7271,1162.6212,-711.5627,503.4107
14520,224.2485,-39.3631,190.8159,1184.0033,-716.9106,507.2024
14540,220.9927,-51.2989,185.8811,1191.7222,-720.6219,508.0475
14560,216.1402,-57.8103,183.4617,1182.2786,-710.116,510.2333
14580,224.0764,-60.0602,171.8871,1183.577,-722.4328,507.0498
14600,214.06,-81.9544,178.7879,1165.8839,-704.3534,515.6588
14620,222.5081,-69.604,181.116,1189.8486,-739.0181,516.1555
14640,227.602,-71.0605,169.9349,1195.8221,-741.0718,512.3311
14660,213.8652,-93.8138,164.2614,1194.7775,-726.9661,510.203
14680,214.8479,-103.2863,143.8982,1177.2006,-722.0074,511.4588
14700,213.384,-109.8457,154.6414,1185.7472,-722.1234,515.8671
14720,217.4369,-94.3129,150.4471,1196.5818,-744.6013,512.8959
14740,223.8306,-96.5605,141.7939,1206.5276,-754.9574,503.4268
14760,243.8669,-96.5187,135.3383,1185.9871,-761.0977,504.4702
14780,229.7009,-114.0564,122.0362,1200.1351,-749.1107,504.5497
14800,231.0842,-113.9406,111.4262,1199.4689,-766.8518,506.2794
14820,238.453,-111.8681,125.3451,1214.5081,-769.0334,511.6638
14840,238.7797,-112.8009,130.013,1219.5908,-771.3134,507.9864
14860,231.5458,-124.541,116.2977,1209.4938,-765.6426,502.542
14880,226.5033,-123.2495,105.9954,1205.903,-757.3275,506.1778
14900,227.8751,-122.9347,94.9495,1232.6466,-776.6518,514.2176
14920,221.341,-135.8929,99.6329,1204.959,-753.1298,498.5873
14940,229.8103,-138.3402,88.1799,1205.3145,-756.5458,511.1509
14960,237.7315,-123.349,106.5274,1202.7345,-770.8348,519.6079
14980,232.6815,-140.0022,96.6609,1206.4661,-766.9847,511.8959
15000,233.3148,-142.6994,91.1383,1210.2952,-770.3977,512.1429
15020,237.0092,-146.2283,92.8996,1201.9111,-772.666,518.6384
15040,227.9586,-168.776,86.6673,1214.0474,-767.7288,511.6533
15060,231.4942,-178.7377,78.3113,1199.73,-756.0049,508.776
15080,237.4164,-164.4345,91.4934,1203.0505,-766.6745,516.1902
15100,230.5806,-173.4124,80.3307,1206.8766,-763.4974,519.3445
15120,228.7895,-186.273,86.5352,1209.1327,-757.6346,520.6899
15140,236.8772,-171.6444,96.4484,1209.6613,-768.7501,515.033
15160,221.7938,-192.6341,90.9716,1214.8391,-756.1876,524.1662
15180,220.8295,-194.0228,77.9457,1212.3834,-750.5452,525.0696
15200,228.0252,-185.8634,80.3027,1213.7216,-769.4982,516.7682
15220,212.4753,-216.7053,84.2734,1212.0333,-742.3245,519.3336
15240,240.2,-201.4919,78.291,1216.6138,-753.4897,526.5349
15260,241.8354,-196.2282,100.8845,1188.6713,-742.7563,527.3544
15280,243.8679,-212.317,108.7778,1200.5945,-728.2562,522.4063
15300,239.8477,-229.5879,120.1726,1194.7971,-701.5577,526.5438
15320,244.3732,-243.3491,105.0737,1182.9944,-707.4257,524.7581
15340,247.5329,-230.629,119.4487,1184.9507,-706.2491,525.8011
15360,245.1266,-245.5607,116.9132,1191.5497,-690.3937,524.1578
15380,245.0768,-271.023,110.7904,1167.7875,-668.3082,527.66
15400,243.248,-272.7966,112.6968,1192.0477,-678.5837,520.4443
15420,252.6028,-267.7371,116.3202,1187.9916,-684.0928,535.2918
15440,236.2406,-281.5665,111.2526,1184.4967,-660.5176,534.1591
15460,250.6097,-266.9225,97.7975,1175.6747,-687.2078,534.1425
15480,238.9576,-279.697,118.921,1196.8129,-664.2955,528.8354
15500,238.9146,-277.216,96.9013,1188.3654,-675.2124,531.17
15520,242.0737,-269.4263,109.26,1173.7971,-675.3988,533.9437
15540,240.937,-267.8202,120.0641,1178.3716,-685.9747,522.5687
15560,240.3769,-272.7863,106.1771,1163.9413,-684.8187,535.476
15580,234.5053,-281.814,120.9692,1194.1301,-680.4606,533.0201
15600,232.6527,-282.6986,108.4582,1191.5267,-683.2988,531.901
15620,231.8618,-275.8751,102.2347,1172.6798,-683.5617,531.6688
15640,230.9554,-282.7397,113.082,1184.7623,-687.6581,530.954
15660,227.348,-282.3219,111.0772,1177.9768,-696.1851,540.0449
15680,221.445,-281.0733,107.6866,1191.3336,-691.4335,535.0538
15700,234.5335,-270.5672,103.3117,1196.9325,-705.1721,529.7557
15720,228.2745,-268.2016,111.2845,1177.3909,-703.3127,534.6166
15740,233.3459,-263.2406,111.8904,1189.4613,-725.0699,531.1177
15760,228.7143,-262.8038,114.6547,1179.2725,-714.7526,534.4866
15780,221.6372,-269.7938,109.2113,1180.0785,-709.0879,527.3279
15800,215.4389,-276.9785,109.4858,1174.3051,-708.4966,539.1231
15820,208.1601,-278.0062,114.0582,1176.8379,-682.555,533.4868
15840,206.14,-280.3004,107.6628,1183.8877,-692.9183,530.0367
15860,197.8787,-301.3051,108.6881,1183.1201,-687.5084,534.0665
15880,203.4683,-279.6331,105.3711,1176.0956,-708.6188,533.387
15900,191.0903,-289.7555,103.0407,1177.7621,-697.3881,541.1566
15920,185.6756,-295.413,96.2227,1172.1315,-698.0637,531.6987
15940,179.1974,-301.1604,109.691,1171.2413,-692.3402,538.2173
15960,179.2328,-305.9051,113.6139,1194.745,-698.963,541.4204
15980,165.526,-307.7513,119.132,1170.0955,-679.9267,538.0894
16000,159.2631,-306.7705,112.5556,1177.8837,-685.535,540.0333
16020,161.327,-301.251,111.1017,1165.2284,-688.3788,539.3687
16040,156.4152,-310.1579,105.6255,1190.1216,-686.6675,543.3779
16060,153.8204,-301.2256,118.2893,1196.5168,-695.3292,537.5509
16080,147.9796,-304.8152,104.3529,1185.8341,-693.8892,546.8397
16100,139.2861,-307.5352,97.2841,1172.7333,-693.1501,544.6628
16120,138.171,-313.9976,100.5914,1144.5969,-668.4821,552.2689
16140,149.0095,-286.045,76.2803,1175.1194,-728.4041,547.1128
16160,138.1239,-299.2872,86.7283,1170.2354,-706.7268,547.4606
16180,128.3399,-308.662,90.6946,1173.7617,-690.2711,543.9507
16200,129.7712,-306.6131,90.4849,1167.6653,-701.5026,546.3627
16220,132.7138,-304.6468,91.9418,1163.8607,-696.2155,548.9676
16240,131.1694,-295.9075,82.2729,1148.8298,-717.1553,548.4797
16260,126.9146,-304.8057,89.8237,1178.8411,-708.9808,547.4105
16280,126.2806,-302.5623,77.8545,1188.8075,-702.7358,549.0553
16300,124.5728,-300.769,65.1171,1175.1469,-707.0586,550.7651
16320,127.7283,-299.9001,63.3762,1181.9728,-722.5339,545.8414
16340,129.1724,-307.3279,51.7457,1177.818,-722.9647,553.6894
16360,137.3068,-284.0561,47.6987,1172.0223,-745.1766,547.675
16380,135.761,-284.8138,63.1508,1182.9976,-734.3725,545.8849
16400,132.2865,-300.0682,59.2789,1177.4307,-725.9629,548.9191
16420,125.9558,-307.284,62.8217,1165.8492,-718.6218,545.6864
16440,134.4987,-309.8403,61.7071,1159.7906,-713.1715,549.1611
16460,130.8575,-311.5345,50.4138,1196.5034,-750.1609,535.838
16480,133.1685,-307.447,73.9602,1164.7173,-727.0386,539.4221
16500,135.6845,-309.4797,67.1401,1172.2327,-737.1212,547.6728
16520,136.3311,-305.265,72.5309,1155.8585,-709.5861,545.795
16540,143.6986,-305.1384,88.3402,1160.2051,-703.3549,548.011
16560,140.2124,-308.879,99.2189,1150.7469,-684.7189,545.3005
16580,147.0172,-301.6075,114.6382,1150.6334,-682.8634,548.7566
16600,143.6909,-313.2155,112.2864,1141.4753,-669.7014,549.0768
16620,148.7122,-321.955,112.4585,1164.8745,-664.4547,547.477
16640,150.6176,-324.9557,117.263,1170.957,-670.6451,545.9549
16660,152.8512,-316.5363,114.2475,1160.4791,-673.8538,539.4796
16680,155.9868,-311.6941,104.8425,1164.8571,-685.0637,542.9002
16700,150.3316,-313.9714,100.8061,1156.9264,-685.9831,546.019
16720,152.8411,-306.0178,109.9368,1174.1061,-700.5889,543.1216
16740,148.3731,-303.2301,120.0326,1135.804,-673.5897,550.059
16760,150.3993,-302.2237,99.2197,1144.8164,-691.4047,544.7128
16780,157.858,-297.1259,87.3446,1140.3977,-698.6603,548.708
16800,153.6141,-290.7728,99.6386,1158.4296,-706.298,542.8311
16820,162.9754,-292.1505,95.2868,1148.5828,-716.6259,545.3686
16840,153.8855,-281.0865,96.4711,1136.6544,-703.2433,546.7323
16860,158.4905,-282.762,88.8803,1138.3295,-720.3896,547.1909
16880,156.4602,-282.9594,93.0217,1154.3926,-724.2623,544.0568
16900,144.4834,-294.5596,79.1306,1127.5952,-691.7958,548.9822
16920,152.8636,-295.833,89.4569,1148.2362,-693.0811,544.8854
16940,154.3702,-287.5952,101.8279,1139.0919,-696.57,544.6762
16960,155.271,-285.0911,101.649,1120.2545,-715.0365,547.8167
16980,151.0709,-298.3091,100.9725,1108.8864,-678.1926,553.6189
17000,151.7672,-309.9297,112.5388,1151.3043,-671.7083,544.6069
17020,148.8946,-321.8105,120.3453,1149.9003,-645.486,550.0836
17040,157.1381,-319.4353,121.5072,1137.2664,-644.0711,545.002
17060,168.3138,-294.8714,118.9578,1116.7733,-672.0903,544.1391
17080,172.8301,-290.9191,116.8425,1115.2887,-685.6617,552.339
17100,160.5137,-291.7232,83.3259,1112.5032,-659.92,553.4686
17120,161.8969,-305.0855,87.5259,1137.5731,-662.8751,548.2647
17140,168.4144,-289.9268,130.8003,1134.8423,-681.9729,541.1902
17160,172.4322,-293.8168,104.7393,1117.6267,-685.9951,549.907
17180,166.7643,-286.0074,86.5717,1100.9171,-711.219,549.4712
17200,168.2206,-276.0458,75.2546,1086.7374,-713.0575,556.8954
17220,176.8261,-280.825,83.4975,1123.7136,-703.8936,550.9323
17240,174.0452,-274.0059,107.2771,1137.0465,-706.0195,541.6796
17260,172.2245,-286.6484,129.6535,1168.7515,-716.3006,542.777
17280,176.6396,-277.3228,80.4068,1105.1433,-723.2784,550.4517
17300,172.7527,-266.45,47.279,1088.4827,-729.389,552.2792
17320,175.7668,-246.3629,53.8847,1144.4116,-757.1423,542.3192
17340,183.6546,-255.2433,77.7188,1158.8217,-731.7991,538.4169
17360,169.9853,-277.4847,99.1676,1149.9353,-706.0635,534.1871
17380,176.0716,-265.7891,91.0925,1122.7949,-736.7513,543.6448
17400,172.7607,-265.5444,59.6971,1086.1089,-743.4991,548.0187
17420,173.0903,-262.7459,39.7825,1081.9801,-738.7385,548.6394
17440,170.621,-265.7165,61.764,1102.5742,-719.6321,549.217
17460,178.0047,-267.6082,90.4407,1136.0933,-735.8098,538.4434
17480,185.2031,-301.6288,126.6698,1124.7975,-696.5333,538.8492
17500,190.4178,-281.2979,116.8695,1117.7388,-714.4091,541.6078
17520,186.3262,-277.5969,93.6336,1075.7185,-697.9752,552.2485
17540,184.7095,-278.4511,77.8874,1089.3992,-690.3902,549.7318
17560,187.3827,-273.8178,93.4647,1085.7666,-693.3725,553.2407
17580,181.5614,-290.3604,97.6884,1107.3566,-680.5255,546.5063
17600,202.8834,-257.1437,120.8755,1107.6447,-706.5224,543.2956
17620,202.3016,-258.3357,124.1753,1125.7333,-699.505,541.7828
17640,176.4718,-290.5547,76.7125,1087.1143,-651.5002,555.9155
17660,170.386,-287.7798,70.1201,1068.6887,-689.2548,561.2731
17680,192.6084,-256.7948,58.1042,1098.0164,-739.0923,550.3354
17700,191.7823,-248.8461,80.4321,1103.751,-734.6055,548.9676
17720,186.5825,-256.6512,103.8397,1139.1119,-720.7791,543.507
17740,191.2546,-258.9595,79.1281,1118.8331,-720.5762,542.2998
17760,185.1198,-266.1193,57.6424,1101.3829,-733.4771,553.6492
17780,180.7872,-267.5548,44.0023,1071.6071,-717.224,557.4791
17800,189.3151,-237.9342,36.8578,1092.4769,-744.7498,548.8634
17820,191.0315,-232.0709,66.6108,1113.567,-736.4697,547.4443
17840,183.587,-242.1074,79.7614,1127.9753,-736.721,541.7216
17860,180.8962,-248.528,72.6368,1127.5803,-734.0071,548.1533
17880,183.7513,-245.4216,52.5699,1099.2899,-742.7103,550.7696
17900,192.9251,-224.9368,32.1013,1072.2513,-744.6346,559.4798
17920,183.7873,-223.8442,59.6281,1094.4653,-739.7211,550.7029
17940,183.7276,-230.486,99.2778,1146.7037,-748.5786,538.6893
17960,171.3233,-240.5798,86.1502,1120.0394,-723.7149,550.7025
17980,171.8379,-235.9899,63.0228,1080.5842,-727.4194,554.4224
18000,166.6409,-228.5007,57.9941,1081.3427,-723.7128,553.7431
18020,168.1396,-226.8505,52.9115,1097.0944,-731.5884,555.7905
18040,172.6238,-222.9729,79.7205,1113.889,-730.2257,552.1555
18060,168.7666,-225.0474,99.8347,1130.141,-725.7723,540.2729
18080,171.9885,-233.0528,91.0678,1111.9454,-710.2888,552.3264
18100,164.7019,-231.9488,73.3549,1081.9684,-699.0692,559.5109
18120,161.2471,-224.6591,62.8782,1077.6913,-696.5955,557.246
18140,146.4361,-253.8231,80.9897,1097.8346,-672.9283,558.0053
18160,148.0741,-261.825,122.5048,1132.7222,-673.6442,552.3259
18180,156.0914,-239.4584,126.8621,1129.855,-699.7643,544.9021
18200,155.6238,-228.9121,85.2194,1088.6763,-700.2542,557.5605
18220,142.8932,-240.7138,38.6061,1059.451,-678.7487,567.1705
18240,156.0205,-204.2807,33.3958,1097.48,-742.6113,556.0568
18260,164.1701,-226.0478,81.4104,1109.035,-714.6934,553.2459
18280,161.6834,-219.5082,109.0557,1130.0131,-716.3624,546.8325
18300,154.6389,-227.3423,101.032,1140.6604,-712.8993,545.655
18320,148.5643,-217.6877,68.6373,1108.0107,-712.6948,550.7175
18340,145.5362,-216.7055,44.1782,1099.1307,-707.8287,561.5966
18360,145.4016,-207.5468,42.397,1097.8167,-723.0216,554.4653
18380,150.1125,-188.6223,59.894,1150.6276,-763.574,548.3607
18400,151.4854,-208.3465,90.1842,1134.2791,-717.8282,546.4378
18420,161.314,-173.8251,45.72,1093.2247,-738.0978,551.3497
18440,155.7188,-179.064,46.1102,1098.9222,-727.5469,558.6367
18460,148.8396,-182.6363,45.8399,1093.4663,-723.5122,549.773
18480,155.444,-183.1629,71.4515,1114.3048,-722.6359,550.535
18500,156.5558,-177.1377,105.0621,1131.5059,-731.562,541.7048
18520,148.5621,-182.1815,99.4466,1115.0999,-720.7335,550.3196
18540,138.006,-170.019,72.6537,1074.1937,-716.5715,555.7173
18560,144.5651,-182.4686,57.6081,1090.6821,-730.9818,552.1921
18580,152.0249,-169.1955,93.8993,1086.1798,-739.0209,542.2752
18600,149.1826,-170.3012,107.0908,1111.8168,-726.4518,546.5695
18620,136.1238,-179.6661,100.2464,1103.8282,-707.1339,554.7075
18640,139.1717,-165.708,91.1775,1074.0826,-698.631,552.3738
18660,139.4047,-170.745,95.1227,1064.5979,-697.9382,557.2423
18680,134.0123,-177.2205,109.8238,1093.2174,-708.3625,548.5817
18700,138.7515,-172.93,115.257,1091.2487,-710.3236,548.8667
18720,135.3866,-165.7025,84.4527,1079.9083,-712.9606,548.7221
18740,135.8314,-165.8629,82.9311,1080.0406,-718.6411,553.6262
18760,136.8082,-150.7031,74.3494,1074.4382,-748.1189,553.2856
18780,138.0145,-151.5694,89.4135,1080.4272,-739.0712,552.3816
18800,137.8314,-143.3267,75.3352,1097.2103,-745.8034,553.6777
18820,137.5679,-136.5411,77.2573,1094.9718,-740.1878,548.7919
18840,137.0631,-134.7933,82.5589,1086.6423,-739.7607,551.5789
18860,139.8089,-136.9725,83.5228,1103.34,-754.9501,547.5124
18880,136.6462,-138.1577,81.7934,1086.7516,-755.6599,544.03
18900,140.0264,-138.3124,101.3664,1115.5669,-756.9404,546.3278
18920,139.8358,-140.4492,109.125,1113.7637,-740.139,545.1844
18940,133.1001,-140.4647,86.7322,1086.7419,-720.6699,549.9609
18960,123.1846,-152.1792,77.0154,1090.1774,-729.91,556.8461
18980,125.7322,-154.9256,68.7694,1082.0955,-733.7113,557.2384
19000,135.2665,-147.7842,90.9263,1091.9025,-744.8882,549.4431
19020,135.5919,-144.9719,108.086,1111.8628,-738.6893,543.6821
19040,135.3896,-155.1815,126.9566,1128.665,-728.7592,542.8906
19060,133.5591,-154.7532,95.3937,1097.0293,-721.9088,548.2521
19080,126.6135,-154.0376,83.1934,1078.7932,-723.5649,556.3475
19100,130.3218,-152.3516,71.7287,1084.6654,-730.6992,554.8436
19120,130.9308,-161.3491,82.8962,1100.6245,-729.2532,549.7728
19140,140.0844,-135.8384,98.6333,1105.1528,-742.6799,548.2086
19160,142.6351,-138.9385,85.5729,1103.0381,-747.7765,549.9586
19180,143.183,-131.6068,91.6288,1094.395,-753.2514,549.4509
19200,146.1469,-131.0237,82.4353,1071.8126,-759.5922,551.8094
19220,145.6081,-133.2425,95.2213,1102.767,-763.8942,547.458
19240,143.7213,-144.3512,71.795,1077.953,-732.4366,548.1083
19260,139.0802,-146.2376,74.6888,1092.4027,-739.4489,553.2642
19280,147.1165,-128.9598,96.6683,1090.5824,-737.0334,548.4689
19300,149.4745,-135.1789,85.7676,1095.254,-754.3124,551.9846
19320,152.0551,-122.3366,98.4743,1104.4363,-763.6742,544.803
19340,147.4138,-129.4415,104.9849,1098.1075,-750.9185,545.7473
19360,154.8611,-115.0255,96.5246,1073.1649,-754.8367,548.5774
19380,155.3445,-108.0361,88.4569,1060.8121,-762.1517,546.4344
19400,155.0992,-128.7673,92.3729,1086.6556,-740.765,547.3367
19420,152.2019,-141.1965,116.1655,1092.8418,-719.5843,541.5005
19440,158.0885,-141.982,133.3896,1086.4359,-729.9415,548.2441
19460,158.0527,-139.3614,147.715,1084.5275,-715.0393,548.0936
19480,158.5858,-136.9292,118.8906,1055.8992,-722.7244,553.6602
19500,151.8574,-134.5956,80.7483,1030.9291,-707.5798,553.3915
19520,151.8059,-134.7182,95.2836,1053.8152,-710.8952,551.5056
19540,158.3161,-134.2364,113.4593,1090.5135,-738.8397,548.9882
19560,155.5067,-141.2805,127.689,1108.7438,-719.7601,538.226
19580,155.1293,-145.8904,103.6375,1111.821,-724.1244,542.7928
19600,158.5678,-134.6976,80.5098,1081.9974,-720.9992,551.1846
19620,159.0119,-131.9332,58.4745,1057.9944,-733.2793,550.9189
19640,158.2061,-123.8415,62.3488,1056.9187,-737.6404,555.2842
19660,165.665,-123.0434,72.264,1059.8242,-756.3118,549.5781
19680,166.2653,-127.2356,92.4308,1085.4164,-763.7229,543.111
19700,157.8836,-139.8221,83.5805,1070.7112,-729.1765,548.3155
19720,154.7953,-138.2269,82.738,1079.4301,-734.5564,548.8151
19740,159.5516,-122.4626,79.7947,1067.8185,-746.6287,551.0922
19760,166.3629,-115.2957,71.4857,1062.4531,-753.5644,556.6252
19780,163.3981,-134.271,78.1226,1069.246,-741.648,553.97
19800,164.2103,-126.1707,83.0051,1069.0837,-743.1529,548.2206
19820,171.8712,-126.8961,97.9711,1085.7909,-740.6426,553.3281
19840,162.192,-134.026,77.3776,1092.9553,-739.1824,551.5374
19860,160.7505,-132.7523,87.5298,1074.2863,-729.5756,548.0031
19880,159.9402,-149.0162,93.9357,1084.7233,-724.0262,548.4283
19900,165.8114,-155.3895,103.1325,1084.4658,-713.3561,548.6199
19920,165.6563,-149.5957,110.6684,1099.2104,-716.4966,543.1959
19940,166.9741,-156.2205,100.2791,1096.1173,-706.4836,550.1616
19960,166.2128,-155.0629,96.8856,1082.4719,-710.9433,548.4818
19980,169.4475,-147.4454,95.5677,1077.3158,-725.3389,551.7094
20000,171.4717,-148.4249,122.6879,1089.1644,-724.3164,546.9888
20020,167.7618,-149.504,110.2113,1107.683,-722.4269,546.6535
20040,156.3695,-168.8122,104.9913,1087.3412,-694.0444,549.1158
20060,155.4266,-176.2915,92.6615,1077.582,-687.5031,557.4194
20080,163.4501,-176.7549,100.6743,1080.9531,-709.6116,553.2109
20100,162.8512,-169.4147,109.8059,1091.2158,-717.1063,549.2077
20120,161.3879,-167.3265,100.5302,1083.2821,-713.1141,553.7408
20140,168.6341,-144.3147,126.6826,1109.3088,-736.1746,540.1135
20160,164.6055,-170.7651,115.9009,1084.0115,-698.5513,548.5389
20180,157.7923,-192.2471,101.0655,1078.9242,-693.3196,557.9445
20200,160.2291,-182.365,129.3005,1115.1544,-702.1444,545.2015
20220,156.6824,-183.2863,125.2732,1117.1442,-700.5654,543.7209
20240,159.6594,-163.1215,114.8452,1123.2208,-714.5192,545.7458
20260,160.2467,-162.4079,111.7246,1127.2681,-728.6357,540.4726
20280,157.3417,-160.1575,102.9613,1113.2698,-739.0679,543.8502
20300,155.9806,-154.3997,108.866,1121.4823,-743.9736,539.8467
20320,158.5789,-141.2227,112.1993,1147.2566,-759.3073,539.2297
20340,161.3957,-159.1897,122.0101,1164.3458,-744.0642,536.3777
20360,151.7415,-165.3331,113.249,1148.5354,-722.9385,544.5313
20380,151.5139,-163.0443,96.0901,1121.7639,-729.8392,553.597
20400,151.3139,-161.2857,63.9947,1096.7014,-732.2209,553.699
20420,154.7351,-157.769,99.275,1123.4453,-730.9384,554.8759
20440,153.6179,-156.3402,107.2202,1141.1069,-738.6769,544.9257
20460,152.0197,-149.5461,116.2092,1151.8606,-736.8428,542.9971
20480,147.6494,-166.4867,109.2309,1148.3196,-725.0868,546.5741
20500,147.2038,-163.9094,94.8319,1132.8298,-737.8099,541.7009
20520,142.7868,-163.1924,93.0568,1137.0986,-734.6589,547.3418
20540,137.8576,-164.3604,101.2554,1139.1931,-725.3157,537.8673
20560,141.7634,-153.0448,116.333,1149.3928,-737.0263,542.6224
20580,140.7001,-141.0026,105.9249,1126.8607,-737.7955,546.7025
20600,139.993,-145.7193,108.4217,1124.755,-734.0143,542.8199
20620,134.737,-153.1788,95.2747,1119.9875,-732.6094,542.8704
20640,127.1576,-155.2057,102.4945,1115.2715,-718.3895,545.71
20660,122.9458,-161.1699,100.7632,1122.3507,-709.9753,551.5625
20680,131.5484,-159.0536,111.2234,1125.7795,-720.6805,546.7618
20700,132.121,-145.2554,114.5737,1117.9689,-724.5933,542.2401
20720,133.2548,-137.0541,115.1397,1115.1709,-733.7675,538.6119
20740,124.9836,-152.7097,110.3319,1112.918,-723.2148,543.2317
20760,114.4337,-160.682,117.6897,1109.4534,-703.5419,547.9152
20780,118.9262,-167.3096,138.8859,1097.7495,-706.1851,549.7432
20800,127.9442,-159.732,145.757,1094.6963,-707.9852,563.2147
20820,128.1821,-158.2068,153.2686,1111.4484,-704.5759,547.5385
20840,121.4407,-166.33,160.3992,1112.2235,-691.3004,552.3948
20860,120.4781,-165.6059,153.9588,1097.2186,-693.4751,554.3168
20880,117.0627,-172.6436,139.2194,1100.4088,-689.0373,553.5318
20900,123.1232,-165.4764,136.7137,1093.7283,-697.012,547.8512
20920,124.1845,-163.8,135.9843,1088.5165,-704.1786,543.9911
20940,110.4669,-176.295,132.7345,1092.1859,-694.8688,547.933
20960,112.7025,-173.298,133.9318,1090.7323,-682.6882,552.3665
20980,110.3899,-174.3998,130.672,1096.5725,-692.7088,556.1216
21000,118.1941,-167.3756,143.1853,1105.436,-708.095,550.2056
21020,115.3726,-166.2521,136.5707,1127.7878,-714.6255,553.5218
21040,119.915,-165.2833,119.8669,1107.2823,-721.9585,545.8137
21060,120.3114,-144.0374,116.1883,1091.486,-703.728,557.9549
21080,119.4077,-158.6867,119.9642,1099.7408,-734.1976,550.9218
21100,126.9067,-148.4693,143.5055,1117.637,-737.509,542.6393
21120,120.9702,-150.9098,131.4045,1091.7374,-722.7663,548.0006
21140,115.9116,-157.6065,123.4226,1084.433,-715.8923,553.8002
21160,110.6081,-161.9744,116.2077,1089.0529,-721.4095,550.4686
21180,103.6807,-167.7118,120.6083,1091.2606,-709.4239,557.6422
21200,101.3291,-176.9352,119.3263,1110.8473,-715.3058,554.1663
21220,102.1969,-184.6757,130.3144,1097.5719,-696.1417,553.5173
21240,99.9635,-167.8331,111.1965,1092.6404,-713.1733,555.8873
21260,102.2305,-152.3648,119.1374,1083.7795,-716.7134,555.4086
21280,107.9822,-141.6152,122.4134,1098.3967,-729.6935,551.2051
21300,107.7356,-152.8698,142.3876,1122.9481,-724.7968,548.314
21320,104.6447,-159.7427,165.0753,1142.552,-709.6019,546.3289
21340,101.5749,-177.2884,148.2402,1122.5229,-700.1376,551.6028
21360,101.0052,-178.5045,134.0357,1086.2805,-694.248,558.7001
21380,103.1642,-179.9116,123.4519,1088.7784,-691.1525,556.5115
21400,98.5469,-183.7803,150.4501,1101.5354,-674.6888,556.0922
21420,106.7637,-195.4137,152.3985,1110.427,-670.6813,554.0895
21440,95.8703,-209.1036,178.4614,1110.0504,-643.1932,553.2419
21460,87.9502,-226.9664,186.8069,1126.981,-639.3868,551.3204
21480,99.353,-205.2804,174.7041,1098.3796,-651.7311,554.2753
21500,105.6643,-184.0045,151.6583,1081.2095,-674.5737,553.5332
21520,96.0028,-186.6481,139.856,1081.9984,-660.7389,556.9663
21540,91.6428,-190.201,160.3796,1086.9409,-668.5858,557.3685
21560,91.5968,-189.3981,168.0323,1126.9908,-691.0765,551.2031
21580,94.7693,-188.5284,177.4811,1118.7986,-689.1743,552.7307
21600,94.3338,-175.7177,175.7639,1124.7513,-700.3349,559.023
21620,85.4106,-179.5981,132.5265,1104.0438,-688.3951,565.1827
21640,80.1522,-202.0341,141.8077,1121.2263,-677.8679,558.3553
21660,81.2991,-200.8349,146.2893,1106.6947,-688.7531,558.5792
21680,78.9802,-196.0658,148.0292,1093.3171,-693.2222,557.9376
21700,77.6249,-189.7409,149.6287,1101.3828,-682.2203,557.7374
21720,84.8911,-180.1905,136.9387,1108.8103,-699.6716,559.3317
21740,82.2159,-180.158,138.51,1093.9559,-686.7722,558.8824
21760,82.6496,-184.7684,141.0205,1103.1799,-693.1456,563.8883
21780,80.3028,-193.0443,148.95,1107.7891,-691.1925,559.0204
21800,70.8642,-207.0979,152.8927,1108.6301,-673.267,558.6479
21820,82.1964,-193.3439,149.5566,1125.2976,-692.1647,556.5978
21840,81.4476,-187.2362,147.9617,1110.7446,-676.9786,556.825
21860,77.1819,-194.651,151.506,1122.5692,-693.304,549.9287
21880,64.9943,-219.928,133.4174,1121.6169,-672.7283,554.4684
21900,60.1065,-193.8539,140.9412,1139.5677,-697.3671,554.192
21920,70.9744,-205.6883,164.142,1142.1482,-678.4841,550.5464
21940,63.5416,-226.849,168.559,1150.6879,-662.9726,555.7521
21960,57.9976,-228.3968,133.8206,1129.6232,-672.3572,558.2105
21980,58.8238,-210.8954,125.183,1100.6161,-671.1047,562.7351
22000,75.4657,-184.3965,148.0101,1145.8229,-712.5995,548.0453
22020,71.3825,-189.7494,136.9005,1150.4945,-710.4684,546.6555
22040,65.6844,-202.9733,125.7525,1139.4325,-698.9306,555.0043
22060,62.0426,-221.2626,121.5774,1141.5665,-687.639,557.7021
22080,67.0979,-211.513,117.7787,1140.2396,-712.9694,554.408
22100,77.0735,-204.4175,110.5758,1138.5748,-721.6035,553.3939
22120,76.5079,-186.2225,87.9274,1120.144,-734.5129,558.6772
22140,86.0103,-182.584,76.35,1113.0723,-742.244,559.0576
22160,96.2729,-184.6782,74.7378,1121.3939,-732.2516,560.5687
22180,96.0555,-184.0523,84.7473,1131.8219,-722.9957,555.5511
22200,100.7845,-194.9284,108.5861,1148.6862,-711.5056,556.5449
22220,97.9614,-196.3165,110.1075,1124.182,-703.4996,552.1992
22240,109.9177,-178.0086,111.0918,1096.1785,-708.6476,558.6817
22260,104.3128,-171.315,109.5777,1119.7444,-719.52,550.3668
22280,101.2425,-194.7373,126.2885,1116.3994,-677.4288,552.3837
22300,104.1218,-197.2631,126.9813,1106.3495,-688.7873,560.8836
22320,112.3395,-181.9441,120.5582,1092.097,-710.3077,553.1942
22340,111.7863,-181.6132,110.6414,1090.715,-707.001,555.2441
22360,108.9445,-178.0246,108.764,1087.6827,-697.3574,560.5625
22380,107.6386,-182.5995,125.9401,1104.7866,-689.8024,555.2204
22400,101.4277,-193.8068,123.9828,1114.8372,-689.3657,551.1934
22420,116.8805,-177.1586,140.5991,1130.4348,-717.9754,549.3893
22440,109.6093,-165.7819,114.6766,1089.2828,-713.3395,556.0924
22460,117.5319,-169.6837,111.9055,1112.0901,-724.6624,554.2968
22480,110.3698,-173.5372,98.082,1094.661,-715.4505,557.6159
22500,110.8537,-178.6367,113.0345,1114.6696,-708.8052,560.3146
22520,112.0795,-176.8392,145.3654,1136.5433,-715.9507,548.1736
22540,109.2991,-175.7433,149.2281,1087.1003,-682.7314,556.7415
22560,116.6338,-183.0442,110.2519,1083.64,-693.613,557.0286
22580,110.5442,-179.4993,80.1007,1097.9392,-709.9979,556.4697
22600,100.9285,-193.6239,107.4892,1103.5031,-679.5278,559.9035
22620,96.2423,-213.6246,104.1711,1112.2137,-669.3578,561.3038
22640,104.8792,-197.4225,129.9845,1130.5082,-695.5913,553.2048
22660,101.7731,-197.8989,103.4017,1109.1498,-685.9403,559.8512
22680,104.6734,-185.1702,88.0827,1093.9232,-686.7635,561.1124
22700,101.7021,-183.1331,92.0357,1090.4286,-700.6249,556.0952
22720,102.4796,-196.8342,108.332,1103.7908,-689.2734,560.6403
22740,103.1799,-197.8148,133.7843,1124.3739,-684.75,549.407
22760,95.4696,-198.9624,117.28,1110.4513,-683.8517,554.9308
22780,94.4837,-184.8427,114.5075,1096.8566,-680.6713,562.6534
22800,90.558,-186.5851,115.0581,1085,-672.88,561.0394
22820,91.4673,-193.0653,112.5441,1080.4883,-677.3583,563.3189
22840,90.0099,-186.2218,115.4423,1115.0503,-692.1791,559.0307
22860,88.1354,-192.1656,116.8541,1095.1654,-676.8301,557.6122
22880,91.3932,-186.5094,121.5454,1093.6959,-682.1108,558.823
22900,99.8786,-172.5794,124.5777,1093.2004,-710.2111,559.713
22920,94.3748,-174.3919,121.5101,1078.8771,-698.6309,560.4111
22940,90.5322,-184.118,110.1792,1085.4683,-684.5129,562.3359
22960,92.6915,-178.4824,118.4321,1097.788,-691.7473,555.3834
22980,93.3547,-168.8313,127.2106,1091.1066,-695.8615,556.9898
23000,99.0857,-160.9738,133.1084,1093.0787,-697.5397,557.4088
23020,101.0513,-170.8884,118.8173,1077.8771,-690.9465,559.1294
23040,92.8668,-179.9836,105.2819,1089.538,-691.3901,561.6925
23060,92.8017,-177.2196,98.5651,1073.2415,-680.0541,562.3221
23080,97.0228,-183.6562,118.3423,1103.2424,-694.9935,556.9169
23100,91.9925,-177.8415,131.0251,1079.3516,-683.4024,561.3817
23120,91.1061,-191.0784,118.8073,1083.4559,-672.9631,562.2571
23140,90.3009,-186.9316,128.0676,1087.7333,-683.0221,558.928
23160,99.4796,-180.3569,115.3975,1090.9539,-703.5796,564.139
23180,99.0515,-183.615,112.9464,1093.9885,-703.3289,555.7341
23200,96.1107,-189.2538,129.3796,1107.2478,-701.6029,555.282
23220,102.7663,-188.3063,128.297,1104.5491,-697.9268,553.9329
23240,95.5848,-202.0573,123.7789,1093.3704,-686.3626,557.6565
23260,94.0311,-193.9121,129.4113,1083.1245,-683.0499,562.9207
23280,95.3905,-179.3848,138.0464,1073.1655,-698.7032,558.1674
23300,104.8669,-170.373,167.8503,1106.2928,-724.5576,551.8923
23320,101.7269,-170.2246,163.2212,1104.4481,-694.3342,549.2556
23340,99.4766,-175.6698,143.4969,1097.6863,-687.0199,559.1321
23360,95.9315,-171.3287,126.0635,1054.0056,-681.2609,560.8851
23380,100.2803,-177.767,140.0845,1103.6566,-700.4019,552.2787
23400,105.8818,-164.8274,164.7972,1116.644,-706.855,541.5628
23420,94.8446,-184.8362,153.0522,1133.3048,-692.1626,545.8269
23440,96.2114,-165.6497,120.7374,1098.7079,-701.4679,552.5179
23460,100.3414,-151.0043,129.6218,1114.6221,-714.4044,549.0822
23480,101.7392,-146.1158,144.5115,1120.1483,-712.6765,548.8832
23500,101.4708,-147.6839,149.343,1125.1508,-715.7032,540.3317
23520,101.3428,-148.8056,163.9659,1116.8601,-704.5451,551.0964
23540,101.8944,-117.1861,156.5415,1082.3445,-721.0988,546.6379
23560,99.8186,-116.5392,153.8845,1073.6058,-725.7446,548.1069
23580,103.0451,-104.5919,159.5558,1069.1476,-725.447,548.2488
23600,100.8873,-111.9,156.4204,1088.8434,-726.8677,543.1113
23620,97.2482,-117.4068,153.4463,1080.642,-716.5317,553.8873
23640,99.7407,-103.2028,164.6873,1095.3928,-727.9303,549.4892
23660,103.6679,-91.3245,170.3202,1093.9701,-720.2137,545.8555
23680,104.2561,-70.1087,171.216,1093.4392,-726.375,539.6666
23700,96.5722,-77.5975,165.548,1080.1061,-698.3661,546.4583
23720,104.7778,-67.0104,152.3814,1077.6266,-736.452,548.1387
23740,104.8253,-61.9035,162.3758,1066.5626,-726.3497,543.4831
23760,104.3477,-55.0875,171.9592,1074.1403,-722.6317,549.8373
23780,97.3462,-50.5214,158.4412,1054.447,-715.047,549.6724
23800,99.4396,-47.8543,151.2826,1061.7896,-724.3679,545.3042
23820,96.452,-44.4994,161.2101,1062.8474,-731.2806,545.0798
23840,102.1306,-43.6824,166.0408,1065.0315,-713.9574,546.7571
23860,91.7665,-47.218,169.2366,1061.8381,-701.819,549.592
23880,99.4336,-38.6702,179.438,1075.6774,-722.6756,537.5135
23900,97.9955,-41.3424,162.3404,1055.4403,-708.9443,547.6032
23920,90.0244,-46.6114,163.9313,1062.5051,-693.2698,546.8895
23940,93.3393,-46.6478,189.4507,1086.4723,-693.7651,543.1105
23960,96.8969,-33.8661,209.6881,1093.0471,-701.1956,539.8814
23980,99.7032,-24.1698,194.1167,1084.3679,-713.6151,540.4034
24000,78.5372,-43.9264,173.4651,1031.0697,-675.53,556.1332
24020,95.4995,-24.756,186.9702,1065.6228,-700.2209,550.5316
24040,97.757,-23.1411,196.326,1098.1743,-701.5401,537.7014
24060,95.3577,-17.4753,202.4034,1092.4221,-704.4302,541.3378
24080,96.9473,-12.1745,173.202,1062.3138,-713.5217,547.5809
24100,90.5478,-11.4563,163.2491,1051.5322,-719.1317,548.1431
24120,93.6409,-5.4498,177.3217,1061.7009,-710.6818,549.6293
24140,90.2831,-5.8552,192.5418,1090.9486,-723.0854,539.4948
24160,97.8027,-9.7941,212.5015,1096.4393,-713.2925,539.73
24180,90.8758,-18.4389,205.476,1067.0518,-699.6379,538.6825
24200,89.1207,-4.8423,180.189,1045.7328,-709.864,550.4403
24220,90.8699,-10.4238,157.6754,1028.3679,-706.1602,552.0804
24240,87.2141,-3.424,156.1288,1032.1475,-705.6621,549.1036
24260,90.8811,1.6233,176.707,1056.0325,-715.2246,547.9986
24280,82.6225,-1.452,191.5051,1057.8888,-693.9716,546.2265
24300,86.898,-2.4871,180.3112,1058.6296,-704.6073,548.2409
24320,82.2794,-21.602,175.1131,1072.5637,-689.6226,543.823
24340,87.6629,-26.0205,174.6707,1080.8508,-695.3746,554.8809
24360,79.0181,-38.5593,184.0516,1099.3843,-692.408,541.738
24380,84.979,-32.7516,196.2106,1100.941,-691.7092,536.0018
24400,71.9772,-47.6574,176.7318,1065.3911,-663.9011,553.7473
24420,82.6648,-32.5106,158.8758,1062.0239,-674.9419,549.6451
24440,89.0787,-30.3744,186.2585,1083.6212,-679.3627,541.2703
24460,93.1338,-24.5722,195.6992,1087.0012,-681.9568,541.8609
24480,89.0743,-26.7892,186.0414,1062.0647,-680.0644,542.5194
24500,91.3794,-13.494,177.9752,1044.5894,-690.666,544.794
24520,90.0412,-21.4451,186.912,1055.1581,-690.647,549.811
24540,89.7384,-26.7049,192.709,1078.549,-691.6401,539.6748
24560,86.1748,-36.6867,190.8876,1047.3153,-674.7236,545.9468
24580,84.6648,-38.0552,208.6621,1071.2212,-661.0542,540.8662
24600,92.0682,-36.2829,187.0163,1065.0795,-679.9351,544.6591
24620,85.4441,-40.2096,179.9836,1047.433,-661.5591,548.3766
24640,99.9947,-18.0647,198.2784,1063.3403,-687.1921,539.1957
24660,98,-17.0017,210.3599,1092.0986,-671.0145,535.4075
24680,123.7564,-0.6346,183.2309,1074.4773,-709.6082,540.5353
24700,131.5135,22.2452,161.7502,1077.7236,-760.4971,535.6965
24720,136.1367,29.7423,160.9293,1085.6423,-773.4618,535.5632
24740,131.7494,18.74,166.9331,1075.5295,-758.694,540.4673
24760,125.0978,7.717,176.274,1107.2776,-744.0978,531.874
24780,124.7089,6.9795,150.3264,1094.632,-747.9409,537.9966
24800,127.1562,16.6558,156.7147,1073.5972,-752.6843,538.599
24820,129.9229,18.036,151.7635,1068.0967,-752.202,542.3313
24840,132.0875,16.2554,157.0924,1088.6276,-749.7521,536.3748
24860,120.752,3.6882,193.6778,1098.0773,-720.9492,535.2167
24880,118.7261,23.7552,188.2141,1089.729,-738.6124,535.1714
24900,112.0513,18.8369,162.3517,1070.1134,-731.5172,538.3182
24920,105.6286,17.9246,163.466,1077.2437,-724.4257,541.6718
24940,97.8082,5.7519,159.5817,1086.1598,-712.8013,540.5423
24960,100.1196,24.2337,187.0952,1109.7517,-716.9582,536.6487
24980,91.9603,9.6808,183.2322,1114.2501,-711.9272,533.466
25000,81.9536,11.2149,177.9105,1106.7867,-693.7907,541.3333
25020,80.2697,15.4656,165.54,1097.6436,-700.6703,542.4509
25040,81.1072,17.9004,171.7633,1111.3292,-699.7355,539.8334
25060,69.7363,9.7577,180.3006,1111.8384,-691.7701,538.1139
25080,64.8345,4.6409,173.321,1112.5367,-684.3358,543.5323
25100,67.8329,19.0674,192.6227,1138.798,-695.1877,530.4674
25120,56.7294,5.2575,176.3126,1121.8557,-675.1577,539.4708
25140,49.1391,-2.2374,169.3256,1108.4617,-657.5648,544.7534
25160,38.9433,-7.5869,179.3081,1110.6938,-641.7891,544.0696
25180,39.2469,-8.6826,187.769,1125.4313,-643.0689,543.4911
25200,36.6049,0.1831,199.4028,1145.2391,-661.7131,534.1789
25220,40.386,20.1914,197.934,1158.5028,-677.0099,539.0526
25240,25.3699,-3.2801,175.1534,1159.47,-647.7674,540.7021
25260,14.1091,-21.716,170.7773,1152.3806,-623.4156,542.1669
25280,11.6448,-4.4913,180.0904,1150.0181,-629.6034,539.6789
25300,12.5581,2.0014,184.0775,1153.6307,-639.2433,541.2866
25320,13.8427,8.1966,186.1486,1162.516,-641.5354,541.0956
25340,7.6448,0.9415,186.5325,1163.9971,-621.0428,543.3173
25360,-6.4534,-27.3597,178.2322,1185.7793,-613.8488,541.4276
25380,-3.384,-23.7729,192.7276,1182.0173,-605.2118,541.9711
25400,-9.772,-28.1175,177.5543,1166.225,-601.0721,543.5294
25420,-10.0326,-23.8006,195.8229,1183.8175,-605.3052,543.227
25440,-10.1668,-20.4483,195.1057,1176.616,-597.5696,546.131
25460,-20.6602,-31.1196,202.6515,1183.5538,-583.8919,540.9189
25480,-36.1856,-56.3084,209.919,1201.7134,-572.209,536.777
25500,-39.0931,-37.6488,200.6003,1187.4596,-591.8484,543.6908
25520,-38.0741,-39.6461,207.8471,1204.5375,-583.8448,540.4572
25540,-46.7579,-58.7305,216.0026,1211.9077,-567.8544,536.673
25560,-48.3783,-54.521,217.4664,1223.0895,-574.1547,536.6858
25580,-53.1946,-58.1124,204.9363,1208.0857,-580.1628,537.3421
25600,-55.0175,-57.6121,210.9359,1205.9153,-590.2908,536.1731
25620,-63.7573,-66.0991,217.3954,1232.5123,-571.1937,538.2133
25640,-68.0053,-70.2067,221.1995,1236.595,-557.755,537.8423
25660,-71.2073,-81.8545,221.2126,1243.6981,-544.0708,534.0189
25680,-76.0423,-97.9648,218.0072,1211.3541,-517.7349,541.2972
25700,-72.7387,-89.1969,212.7925,1223.7028,-541.0851,542.9138
25720,-74.7277,-104.0891,224.3614,1211.7299,-520.5555,547.874
25740,-78.6243,-109.9595,231.3387,1232.4788,-531.369,544.0636
25760,-68.7987,-84.49,214.6448,1210.8768,-569.1238,539.7689
25780,-72.9534,-89.8418,203.1557,1198.1095,-559.8954,547.803
25800,-78.9798,-102.5297,202.9378,1216.766,-548.274,547.8506
25820,-77.9321,-108.3083,202.3037,1222.2561,-549.8427,547.9064
25840,-77.8481,-108.9457,202.1196,1220.7473,-548.019,548.8939
25860,-77.6501,-108.3479,207.0341,1207.4194,-552.0961,544.2515
25880,-69.3518,-111.9751,223.2748,1248.4857,-570.4595,535.4724
25900,-66.0142,-124.1061,234.626,1250.4358,-554.4565,537.71
25920,-62.6501,-137.4583,218.1045,1251.9355,-555.1062,538.0385
25940,-58.0104,-131.4983,198.1745,1224.3502,-559.6136,543.3647
25960,-65.175,-133.5608,188.1269,1236.0447,-560.9432,543.3226
25980,-64.404,-136.7684,197.0475,1264.3604,-575.4746,537.7153
26000,-62.0983,-154.6554,215.728,1280.2832,-570.5637,532.6068
26020,-74.1626,-175.1586,209.5419,1258.7668,-541.1362,541.0181
26040,-58.3852,-156.4214,199.6828,1266.058,-584.7302,534.2288
26060,-48.1115,-150.1691,170.2643,1269.3685,-606.4935,534.5402
26080,-57.9115,-175.4257,158.8572,1271.2559,-580.797,543.0469
26100,-56.9422,-187.2412,169.6906,1291.7443,-575.1907,538.1047
26120,-50.986,-189.3633,177.1412,1294.2577,-583.6776,540.3864
26140,-50.4093,-199.6276,178.3565,1282.5907,-561.1426,539.9423
26160,-39.7206,-190.8885,171.3903,1307.9209,-598.1357,539.0754
26180,-31.976,-191.1872,168.4207,1297.5967,-610.771,537.6694
26200,-32.0369,-188.8652,171.5737,1290.1046,-613.2861,536.266
26220,-27.1968,-190.8844,175.8464,1289.1962,-611.0455,538.5773
26240,-28.2944,-194.3604,188.8018,1290.1826,-602.054,533.3477
26260,-27.8873,-217.3221,169.1973,1287.0585,-586.1569,543.0977
26280,-31.5888,-222.5559,169.2504,1283.7316,-580.688,543.7442
26300,-22.866,-212.7706,170.6621,1284.4755,-603.9029,535.8283
26320,-17.8857,-227.4549,171.7585,1276.6698,-580.2877,545.7342
26340,-16.3165,-240.9417,193.2932,1304.193,-578.4424,539.7066
26360,-16.8833,-250.2581,215.5203,1313.9463,-556.5236,539.1693
26380,-14.1122,-255.8138,206.7602,1297.4417,-574.5169,540.8406
26400,-9.6401,-228.9809,213.1488,1265.6403,-589.5129,540.0451
26420,6.696,-217.641,205.2952,1264.8553,-600.8364,536.5029
26440,0.8837,-246.405,214.4713,1291.6128,-571.4386,540.8895
26460,1.9308,-234.2754,221.3924,1293.7681,-581.8113,539.0571
26480,9.3025,-231.9261,227.3524,1280.1138,-587.4041,539.9012
26500,9.3086,-234.5535,229.9449,1277.4075,-585.6234,533.1555
26520,19.6627,-221.2388,221.8407,1260.5262,-599.0187,537.4458
26540,16.5505,-218.7684,214.9573,1278.8887,-611.4205,534.7307
26560,29.4019,-207.4907,216.4236,1268.4467,-622.1016,534.6971
26580,38.3665,-197.7925,229.2293,1258.9353,-622.9406,535.5579
26600,43.6386,-189.3816,226.6069,1250.8773,-625.4631,530.8847
26620,41.2057,-185.4697,241.8608,1254.4003,-628.6505,533.5185
26640,21.1746,-212.2915,219.9312,1254.6967,-608.2723,537.5847
26660,29.3432,-189.5345,209.6108,1232.287,-619.9643,537.9997
26680,28.855,-184.5997,196.4257,1179.7996,-610.1328,546.2
26700,40.524,-167.8157,200.3139,1185.9063,-642.1006,552.7709
26720,39.1087,-176.3298,172.9604,1183.254,-641.902,542.3504
26740,35.449,-184.6399,175.4111,1182.9337,-631.1476,541.8467
26760,52.7258,-167.2958,201.1393,1203.6987,-648.0741,538.2945
26780,59.2623,-139.4146,213.6798,1204.5759,-665.4022,533.8226
26800,54.5215,-146.7099,206.8127,1185.2808,-655.7892,540.9356
26820,61.2751,-139.3127,172.668,1139.667,-651.0942,546.8677
26840,69.8925,-128.1814,179.5396,1151.324,-670.5949,544.2005
26860,58.8204,-138.1425,191.2661,1155.7087,-646.2738,543.025
26880,79.6053,-117.6835,217.926,1183.7351,-672.483,530.5884
26900,80.3795,-119.6702,232.6466,1193.4104,-657.1848,534.9697
26920,80.9788,-117.0291,210.8381,1165.0448,-675.3909,540.7844
26940,86.8896,-102.8722,200.5265,1138.1129,-681.4651,539.5453
26960,85.1172,-93.9528,198.3541,1159.4886,-692.2537,537.2159
26980,97.2923,-91.4351,235.814,1149.3378,-679.3866,530.0661
27000,101.9363,-87.7854,255.5135,1174.1803,-682.8687,529.6597
27020,111.3592,-78.8024,254.9093,1164.0449,-702.0201,528.0364
27040,118.021,-48.089,211.5498,1114.302,-733.4915,535.6573
27060,119.7531,-52.498,207.9248,1127.5233,-737.8508,535.8062
27080,123.8255,-46.2478,235.7855,1132.6892,-733.7177,532.3348
27100,124.352,-48.89,245.6743,1143.6642,-737.9907,526.3755
27120,131.6335,-37.7202,249.2976,1127.0107,-740.2755,528.926
27140,136.8043,-32.4666,217.0159,1110.375,-761.0753,533.3387
27160,138.0649,-20.343,205.7148,1082.0712,-758.1044,535.0095
27180,139.8792,-25.5184,221.7407,1108.1044,-754.3157,531.4167
27200,149.0973,-4.1315,233.6234,1090.5229,-776.2813,529.454
27220,139.5157,-18.1761,224.2348,1079.7211,-769.3121,532.5797
27240,152.1942,6.6719,221.9123,1080.7698,-795.4529,532.9034
27260,152.7361,3.5785,209.6628,1076.551,-792.9216,541.131
27280,145.2985,-4.3018,226.1575,1086.5616,-788.6675,533.1568
27300,153.8779,11.6498,239.5111,1097.0861,-809.3611,530.4059
27320,147.3793,5.4315,218.5288,1085.5337,-797.1054,532.033
27340,149.6923,14.3896,206.3245,1069.9386,-813.3787,530.4552
27360,148.0371,7.6336,207.5589,1082.2748,-814.0681,534.0912
27380,141.1161,3.3199,210.9187,1083.0282,-805.1866,529.972
27400,142.5364,23.4225,212.5706,1074.8206,-828.7264,526.3556
27420,135.0826,16.4215,213.4142,1077.6443,-815.465,534.7532
27440,141.5273,20.7887,193.0313,1061.0696,-823.7953,533.1649
27460,150.6625,46.9769,204.533,1063.2279,-843.3663,528.7436
27480,153.6558,31.3876,211.9436,1078.8059,-849.7113,533.4215
27500,147.3477,31.8947,207.2736,1082.8811,-838.9644,526.0225
27520,143.2968,17.5941,211.9,1076.0331,-829.3357,532.537
27540,151.712,29.4545,201.6417,1067.9967,-842.4159,542.6933
27560,143.8479,27.8216,210.2506,1068.1071,-830.681,534.2253
27580,148.0089,14.1721,204.3588,1071.6002,-823.5081,532.7985
27600,151.899,22.7243,205.1683,1064.4875,-825.2698,536.1273
27620,150.4025,13.1269,206.1635,1060.8937,-823.9028,538.6544
27640,163.3743,30.4932,189.4202,1049.8118,-831.396,536.7975
27660,162.4391,22.6529,186.2535,1031.1255,-826.7324,538.0638
27680,158.1643,22.1605,195.1593,1037.54,-814.8005,537.942
27700,158.5808,18.4938,192.9346,1029.011,-805.8481,537.7576
27720,161.4472,12.0392,192.3642,1042.3418,-810.2515,534.3015
27740,164.7362,2.3277,196.9057,1037.0576,-806.6484,541.3734
27760,171.3606,5.078,195.8687,1052.9241,-816.5488,535.3752
27780,174.2059,8.8877,191.1441,1037.4431,-812.5331,551.5657
27800,179.7037,5.7358,189.541,1044.2778,-814.4451,532.6904
27820,189.3656,16.0757,187.2825,1044.0168,-825.5654,538.028
27840,184.1441,3.7307,200.2608,1055.8868,-812.1903,533.38
27860,190.7603,9.2829,202.6968,1068.0736,-826.356,527.4412
27880,183.4613,-12.3651,180.305,1053.5248,-800.0129,534.7891
27900,184.838,-20.6281,170.9556,1054.3811,-788.642,541.1176
27920,189.1528,-32.0165,182.5017,1067.6827,-793.4394,537.0025
27940,197.0909,-23.0216,185.6691,1070.527,-808.3286,529.6488
27960,195.1533,-26.2509,182.1155,1062.5134,-797.2793,542.7545
27980,194.6436,-36.586,179.5294,1070.0927,-788.3262,532.0953
28000,204.4743,-28.1823,195.4062,1057.0382,-807.3896,533.3832
28020,197.1317,-32.1495,188.8927,1052.8528,-795.6589,532.4635
28040,195.3669,-55.6681,175.5379,1051.8384,-781.1776,540.6154
28060,200.3618,-53.471,180.7168,1046.4545,-784.0256,537.8716
28080,198.9807,-55.9103,173.9501,1045.3813,-778.9988,534.0068
28100,200.6381,-52.6453,188.0009,1060.1484,-783.4467,536.498
28120,208.7223,-57.7011,157.287,1041.3173,-786.3718,540.1884
28140,208.9849,-62.9478,165.5248,1062.7648,-787.5028,534.7933
28160,208.4043,-70.1685,170.447,1066.6658,-773.4552,542.6542
28180,203.5961,-76.8597,149.7525,1053.2585,-771.8647,538.3879
28200,205.1988,-81.7762,146.0575,1043.3152,-772.7851,549.2412
28220,209.7276,-84.1669,142.6637,1040.7933,-790.3229,541.1247
28240,215.0891,-69.8482,153.7794,1036.6219,-779.4943,542.5169
28260,221.5137,-74.3426,147.0609,1031.576,-781.2637,539.2667
28280,219.5968,-84.1022,157.834,1054.2367,-801.4255,536.882
28300,225.8711,-67.6953,166.8484,1058.7025,-803.3785,536.9423
28320,226.957,-71.2532,157.2507,1055.3827,-798.8497,536.7511
28340,233.341,-69.736,145.9635,1059.8132,-805.9408,536.1761
28360,230.2159,-96.4379,159.164,1072.6423,-795.6138,543.9326
28380,226.3578,-98.3588,154.6974,1059.6555,-781.8908,541.7599
28400,225.9399,-104.5912,149.4401,1066.1821,-775.8046,542.4664
28420,225.108,-110.5578,143.4507,1053.9191,-775.8179,545.9656
28440,233.93,-104.4941,150.0195,1060.3907,-801.2723,545.084
28460,232.3836,-108.5455,141.9917,1061.4608,-791.9238,541.4037
28480,231.601,-116.0634,131.0446,1048.3026,-766.2349,541.0794
28500,241.5029,-111.4976,142.2291,1050.5941,-778.9665,542.4717
28520,255.6209,-96.8187,137.1389,1052.9297,-804.3805,535.1591
28540,257.882,-101.7365,144.4235,1047.9138,-797.4073,545.9725
28560,253.2057,-114.0775,138.0576,1058.3311,-788.8802,539.6871
28580,249.7569,-125.1336,137.649,1044.7775,-767.8724,540.4236
28600,248.0135,-119.2128,138.5914,1065.5673,-770.5268,541.2871
28620,249.2938,-140.2216,136.3817,1059.4727,-755.2773,547.2993
28640,254.7361,-138.8415,132.1888,1051.5365,-760.426,546.8932
28660,252.9233,-149.6596,129.4129,1064.9175,-750.4159,546.5181
28680,255.0954,-144.7403,137.6546,1073.8217,-751.802,538.0074
28700,251.0281,-146.3121,143.1599,1072.8928,-741.3966,546.7278
28720,266.5812,-138.2282,125.6118,1055.6477,-762.6658,541.0577
28740,259.3596,-143.7972,144.1967,1052.5747,-747.8747,545.5129
28760,250.013,-161.3824,141.8131,1058.7521,-727.4641,537.8784
28780,254.805,-167.2458,141.0459,1070.731,-729.3836,545.9058
28800,252.7549,-164.6395,137.6949,1061.6863,-738.4371,546.0072
28820,253.845,-171.4452,144.6045,1061.3981,-723.3554,539.8782
28840,258.0313,-174.4909,157.3741,1065.8154,-704.2792,544.4082
28860,268.5428,-169.3342,140.3564,1083.8717,-743.8146,542.642
28880,252.2762,-176.953,158.6857,1065.7606,-715.8544,548.1941
28900,260.1882,-161.7145,159.451,1067.1462,-730.4951,548.2787
28920,270.702,-165.5082,162.3761,1084.3007,-741.4149,547.0648
28940,254.9493,-186.0238,163.6014,1082.3635,-717.8876,543.174
28960,264.3877,-184.8382,160.7252,1085.2321,-725.4417,541.9988
28980,262.2163,-192.4875,150.3908,1088.7081,-723.3742,543.353
29000,255.8463,-201.3178,166.1284,1075.3945,-708.876,546.0412
29020,264.2752,-200.777,144.2737,1074.7594,-732.2655,546.8995
29040,255.6084,-207.6715,149.8386,1094.9932,-720.3578,552.7379
29060,264.6067,-200.3477,156.6127,1107.5955,-720.2791,543.012
29080,258.9323,-201.3259,128.1176,1069.2761,-722.8597,551.6616
29100,265.9231,-205.6882,135.4199,1071.1184,-723.021,553.6158
29120,270.1594,-210.7362,133.8735,1112.5793,-739.502,542.0076
29140,260.5804,-219.1434,137.445,1102.1049,-722.9853,543.4449
29160,256.1964,-223.7707,130.5453,1109.5518,-715.4687,551.6835
29180,257.7815,-222.5878,120.3628,1095.6923,-719.7191,551.671
29200,262.2007,-225.9118,122.1148,1099.1879,-718.0222,549.7816
29220,267.5395,-218.5407,136.3569,1115.6754,-719.2573,542.5385
29240,263.4443,-227.4794,119.6424,1099.8303,-701.5526,553.0029
29260,259.8986,-232.5743,102.5827,1105.9031,-725.1465,540.3697
29280,259.2657,-226.8492,123.6584,1103.5369,-708.6023,548.5338
29300,254.0409,-242.86,120.6813,1105.7549,-699.1588,551.2267
29320,256.8964,-244.6983,118.4242,1099.632,-695.6729,551.213
29340,264.9077,-239.1114,122.7105,1100.8844,-713.7744,544.9273
29360,266.9255,-237.6363,136.6355,1114.1766,-703.0936,546.9623
29380,265.9828,-236.3778,133.6791,1106.7371,-693.0726,544.6365
29400,280.0898,-225.972,108.2565,1099.754,-707.5654,542.7825
29420,270.5039,-223.2098,108.5684,1091.1133,-707.6788,550.3063
29440,272.3277,-226.735,127.0239,1102.3335,-700.9471,548.6015
29460,272.342,-223.6922,128.2895,1099.3101,-700.1417,548.3213
29480,278.4178,-223.4964,95.9731,1079.429,-706.2352,552.9022
29500,277.7661,-222.7956,94.4497,1084.7651,-707.3994,558.051
29520,278.4388,-226.0591,108.9331,1086.1085,-711.105,549.3113
29540,273.6631,-232.3027,112.6999,1091.6227,-690.063,548.0377
29560,273.1643,-225.6885,98.8068,1068.1667,-694.6019,545.2916
29580,275.1071,-219.278,110.5359,1085.048,-690.7164,551.949
29600,276.0181,-216.2216,111.5966,1068.0344,-694.1122,550.3929
29620,273.0676,-231.7094,99.0555,1066.6471,-679.2134,554.3156
29640,271.14,-222.4734,91.3058,1055.0465,-696.4786,558.7347
29660,280.4005,-213.0973,93.3006,1048.2478,-700.7106,554.8484
29680,274.2827,-218.2612,100.9866,1062.86,-708.196,549.6667
29700,274.6503,-233.5779,105.3792,1075.8215,-689.3,562.9644
29720,286.2628,-222.8432,100.087,1063.3326,-700.6649,550.2319
29740,283.0731,-221.9321,96.838,1049.5101,-697.396,554.561
29760,275.2864,-230.6322,98.3916,1051.2479,-675.5604,553.1059
29780,282.7995,-217.0103,105.2641,1066.543,-698.1196,552.4523
29800,284.8018,-224.9991,111.0694,1063.5791,-687.5536,553.3276
29820,289.3869,-224.6157,102.1866,1047.2933,-686.347,561.4032
29840,277.1323,-224.124,92.3005,1048.8533,-680.6417,563.1068
29860,277.3803,-232.8753,89.4257,1043.1824,-677.5635,554.3776
29880,284.1114,-229.1478,108.3259,1045.7833,-682.5754,563.5806
29900,286.3025,-232.5423,99.9662,1055.8931,-687.9776,558.8438
29920,284.7582,-228.973,101.9944,1046.2146,-676.9347,560.7888
29940,282.4149,-234.5366,82.8904,1055.0438,-678.1974,554.4086
29960,280.7778,-234.081,88.7239,1049.4418,-675.8501,562.6136
29980,289.1837,-220.2951,84.5561,1045.4282,-697.12,566.7715
30000,275.0374,-248.1026,77.2133,1081.3815,-684.7496,564.5551
30020,273.7401,-252.8759,93.0042,1070.7834,-662.0836,563.3345
30040,277.1975,-248.9536,90.2041,1071.7515,-671.6049,563.309
30060,272.2434,-251.286,80.6147,1055.2777,-669.8421,561.6422
30080,275.2343,-238.113,81.4863,1062.8717,-671.982,565.0612
30100,270.4736,-250.3599,69.9834,1060.2081,-669.2937,558.7353
30120,271.6096,-250.9849,81.5935,1060.7632,-676.0137,554.0372
30140,276.2262,-228.3517,95.6796,1065.4635,-702.4993,558.384
30160,274.4453,-235.7009,89.2153,1068.0592,-701.3031,553.9333
30180,270.5525,-247.0408,87.1653,1068.0227,-698.9264,559.42
30200,269.8266,-243.7057,91.7591,1081.6521,-693.4736,554.3201
30220,271.6605,-232.7525,81.4281,1078.0686,-704.2177,559.0549
30240,268.4992,-235.7669,78.605,1084.66,-700.3634,552.5356
30260,265.0511,-224.578,85.85,1082.9017,-696.5582,560.8167
30280,267.5745,-223.8741,85.5455,1075.8311,-694.0565,558.6825
30300,260.3345,-225.6084,76.1375,1073.498,-693.2896,553.9739
30320,273.9293,-219.3025,82.2182,1076.0695,-700.6255,553.0934
30340,269.1317,-220.7419,76.6261,1076.0844,-695.6337,550.0164
30360,268.1823,-215.0276,64.8432,1070.5668,-703.2511,558.5239
30380,264.1149,-218.8133,82.1445,1076.2185,-685.0207,551.3115
30400,253.6785,-222.5806,72.818,1069.4979,-681.9233,555.4545
30420,252.0199,-213.3805,79.693,1078.3391,-681.4922,557.151
30440,257.2915,-187.6431,72.87,1098.3141,-719.1749,557.0321
30460,259.4056,-196.7633,96.6136,1066.35,-676.1921,555.2771
30480,259.773,-183.3869,93.9352,1076.6666,-697.0696,550.2844
30500,268.2127,-167.546,76.9244,1071.8331,-708.8365,554.6173
30520,260.1812,-160.0087,86.3305,1062.9692,-691.7142,553.1162
30540,261.8618,-151.4347,93.0878,1063.0939,-693.4742,552.9067
30560,261.3852,-143.3295,107.8544,1070.955,-691.6307,556.0112
30580,255.4876,-135.0521,102.1972,1057.6876,-696.7088,553.3762
30600,252.6504,-134.6412,100.8981,1054.8721,-681.8044,560.8315
30620,243.9793,-125.0283,98.4852,1050.339,-684.5506,554.4874
30640,234.7119,-130.9571,98.7203,1037.7827,-677.8571,561.3105
30660,236.0899,-120.9147,90.2012,1045.811,-685.9326,556.465
30680,239.6059,-104.8071,106.825,1038.8215,-683.6171,563.1504
30700,238.0094,-90.1723,110.8036,1036.4884,-690.6651,555.7391
30720,242.5919,-81.9886,109.8217,1020.1388,-690.3827,548.922
30740,247.1012,-66.3447,117.1407,1034.3312,-705.3475,553.8698
30760,246.508,-49.3324,126.6797,1033.1626,-702.6559,558.7553
30780,238.7267,-41.1085,125.8179,1017.0663,-695.6647,558.4561
30800,238.3606,-29.4424,123.6409,1015.0761,-704.4502,562.3351
30820,230.3677,-23.9488,132.5439,1010.3821,-692.9327,553.6758
30840,233.7551,-7.6715,124.2122,1002.0309,-704.0875,552.3231
30860,237.4726,11.0995,143.0343,1012.6649,-706.5099,555.3011
30880,232.2443,7.5442,123.7518,1011.6657,-706.1768,544.4741
30900,231.6373,18.6556,132.4265,1006.4975,-703.908,547.8196
30920,232.1058,33.2414,138.7324,1007.3021,-704.5366,551.8163
30940,236.5436,40.0397,136.0389,1006.5783,-708.3285,557.8745
30960,235.3266,50.4804,137.6113,1016.778,-726.7886,542.7
30980,233.7021,55.6417,147.9564,1005.9246,-718.4178,555.7034
31000,238.0054,61.4747,144.1556,995.6074,-715.4832,549.0476
31020,235.2256,67.7608,154.4052,999.517,-715.717,551.4273
31040,236.6431,82.1851,153.0305,991.6072,-715.1083,557.3432
31060,232.6806,86.9053,152.6462,977.793,-704.3261,551.5837
31080,231.7209,93.748,148.4216,986.7559,-725.1224,554.3256
31100,229.1691,90.8317,145.7093,976.4474,-708.4048,555.0234
31120,227.2615,100.0786,140.7773,964.0685,-701.0719,548.0012
31140,228.5787,83.5737,141.6747,982.029,-697.1718,561.7828
31160,225.7691,96.1558,154.8714,969.4224,-694.4758,543.8459
31180,233.3818,98.4827,159.673,969.5314,-701.7481,548.9548
31200,231.5173,100.5461,170.5663,968.157,-685.0091,558.7117
31220,220.1692,119.4123,161.6565,956.1933,-694.2474,552.1442
31240,227.7785,120.9816,159.5728,953.2305,-687.0287,554.9253
31260,237.439,135.857,167.0024,972.1691,-701.8867,549.2548
31280,238.7702,143.7287,163.5952,967.507,-704.5436,548.6592
31300,244.5667,165.435,163.7162,966.0024,-716.9102,549.011
31320,239.1929,162.1699,164.5116,961.5059,-699.8771,553.2563
31340,246.0909,170.9935,161.3874,959.8687,-704.1447,553.8333
31360,238.1415,172.1338,168.8915,971.1888,-709.321,549.5112
31380,244.7797,161.194,160.993,976.9977,-691.9615,546.7784
31400,233.7358,150.3334,180.7943,950.0972,-665.3215,552.4901
31420,241.9148,157.186,162.6667,962.2405,-680.3644,553.0568
31440,241.6006,155.9334,165.1071,964.3652,-679.1591,548.5497
31460,247.0882,162.8987,172.2204,969.1707,-684.9523,553.9194
31480,252.0499,172.8715,180.9893,973.7421,-695.5316,556.3589
31500,252.9989,168.2328,191.9092,982.853,-694.6794,550.0878
31520,253.9599,161.3268,187.4841,947.9612,-672.4794,550.1544
31540,253.1097,180.1427,174.2516,954.0611,-702.3937,547.5784
31560,261.1988,176.5207,177.9903,971.6136,-699.0953,550.7389
31580,255.3346,176.2332,186.4854,959.309,-682.124,549.9875
31600,256.765,178.1208,174.7095,963.0863,-691.1537,552.7028
31620,248.7229,176.6735,176.8969,960.6455,-677.7726,546.9106
31640,254.8319,180.0186,184.6442,971.1106,-678.9484,547.3077
31660,251.943,171.0616,177.3001,968.3704,-682.4628,548.2593
31680,253.4064,176.7074,170.1036,958.6307,-674.8406,549.6653
31700,252.4981,189.7792,171.7006,965.5339,-689.1678,553.0371
31720,258.9504,189.6993,180.1042,972.0455,-688.7189,543.8536
31740,263.4352,189.955,182.2645,967.8824,-689.1678,540.8194
31760,256.9105,183.9896,185.7806,967.9609,-676.7704,546.9634
31780,263.6017,186.7291,179.9267,963.6653,-688.3652,544.2579
31800,267.4479,188.5345,174.1058,967.4539,-697.8856,537.804
31820,262.2826,177.2339,194.853,973.3348,-687.1997,540.8804
31840,270.1263,193.0369,209.3224,977.481,-691.9298,545.5366
31860,270.4416,176.886,206.6588,956.7863,-671.3547,542.5759
31880,268.9383,175.9012,198.8214,968.7718,-677.6095,540.6721
31900,276.9884,186.1491,215.1236,967.7502,-684.2659,537.5857
31920,273.4657,188.1765,209.4971,953.3436,-693.705,537.2785
31940,276.1265,192.3189,217.6829,951.4919,-691.225,535.1931
31960,275.4897,192.1141,203.4963,963.9688,-706.9525,529.6379
31980,273.9232,183.9537,208.8264,975.1668,-692.3431,531.4802
32000,279.7122,171.6327,198.4899,968.6426,-693.9457,544.097
32020,278.164,169.2067,186.3401,949.858,-694.0778,531.449
32040,279.0453,172.3429,205.067,973.6491,-694.7566,537.7939
32060,282.5932,163.6432,207.4712,981.1082,-696.9231,539.4627
32080,281.9487,162.5656,201.712,974.9337,-700.2183,540.4825
32100,273.6288,151.6722,192.8055,968.5574,-689.6169,543.2068
32120,281.7784,156.961,181.419,963.3266,-689.0067,540.1428
32140,281.3762,151.7616,177.9698,975.0638,-702.09,533.2593
32160,279.9237,129.5393,186.5764,976.1404,-691.9141,535.7394
32180,282.734,128.4569,190.2961,977.303,-685.2978,546.4899
32200,282.2838,135.0265,194.2404,978.449,-693.0793,532.8306
32220,292.5976,132.6648,200.1588,994.1907,-704.862,541.3653
32240,283.826,117.932,198.0628,992.2238,-691.5283,535.1564
32260,278.3775,118.8041,193.7729,969.8579,-680.6923,547.9796
32280,287.1491,113.5171,200.4087,968.5081,-679.3538,544.2545
32300,290.13,111.7628,192.5451,999.8266,-709.5383,532.8244
32320,287.0896,100.2363,187.5776,975.8259,-678.9732,543.1426
32340,298.3897,102.4784,173.47,973.7404,-699.2336,534.6164
32360,308.2278,108.6223,180.8802,980.6383,-709.4783,542.3243
32380,305.168,101.8472,182.3207,987.5714,-701.3434,538.3864
32400,309.0459,96.6695,182.1649,990.8661,-701.5178,546.7006
32420,312.8855,103.3237,178.3445,987.6791,-698.6667,541.6349
32440,316.0505,84.6054,190.7763,995.2361,-690.4758,540.6774
32460,319.7133,79.3062,183.9655,992.1569,-687.3469,537.6587
32480,325.7663,74.1654,175.5531,1024.3865,-713.6612,540.1635
32500,317.4553,61.7505,189.4475,1007.7851,-684.5854,547.1324
32520,325.677,57.6551,172.5462,1020.2073,-702.7922,543.5795
32540,320.0355,51.1562,175.0926,1018.5303,-692.9399,532.7104
32560,324.6038,44.8348,175.84,1037.3846,-697.5741,537.2222
32580,327.1282,39.6903,174.9826,1031.0782,-705.3046,534.1769
32600,324.9728,36.1761,174.0105,1022.4614,-703.9716,534.7249
32620,335.1194,31.1432,181.4598,1041.8843,-702.5165,535.3317
32640,331.6894,28.4623,178.8488,1032.6526,-708.696,528.9259
32660,328.1492,14.7232,176.9023,1034.4706,-692.3318,537.2719
32680,321.8386,0.1671,169.2348,1042.6819,-685.2979,532.1184
32700,323.9514,-5.5829,169.1453,1041.6907,-689.6794,541.1119
32720,324.2636,-9.7465,172.5276,1049.462,-691.3574,532.288
32740,318.1837,-17.1832,157.3036,1047.8662,-696.1805,530.3851
32760,322.2716,-25.948,178.5773,1066.4209,-689.0615,541.6475
32780,313.72,-45.2428,175.5411,1063.0056,-678.3568,533.5633
32800,322.1908,-36.1474,173.4298,1070.5184,-696.3088,533.6115
32820,316.1545,-35.393,176.3537,1070.5594,-694.9756,537.1579
32840,307.2664,-51.1331,154.1439,1065.0284,-686.1603,533.1315
32860,301.1299,-62.7455,158.6707,1066.6565,-681.2404,531.981
32880,300.5188,-53.7185,170.521,1069.4678,-678.8539,545.1578
32900,306.0297,-53.0804,158.3571,1076.1859,-701.916,536.3358
32920,305.2395,-60.9882,167.2866,1094.1793,-704.5257,535.514
32940,311.9665,-57.1992,176.4291,1138.4668,-719.5472,527.8472
32960,302.2697,-70.2653,186.2159,1120.2238,-696.1105,527.5588
32980,303.4221,-77.4953,184.4992,1126.0968,-698.3649,541.8927
33000,301.3369,-78.1513,166.2508,1112.2439,-703.8417,536.0426
33020,302.4252,-73.6398,157.3808,1109.5288,-713.8018,540.3156
33040,294.3527,-81.4576,166.9938,1104.5651,-694.8524,532.0013
33060,292.3474,-96.8945,157.9011,1110.0491,-690.8467,534.5646
33080,298.681,-85.414,155.0585,1127.6104,-720.5146,539.1978
33100,308.923,-82.2337,160.3382,1117.9442,-730.4965,540.4883
33120,303.2589,-80.6913,156.3128,1117.3519,-727.1134,535.8338
33140,296.5581,-86.7509,156.2521,1123.6643,-714.5427,538.5356
33160,294.1216,-88.4241,146.2143,1112.834,-706.768,531.063
33180,296.8163,-84.0252,172.4393,1121.9226,-704.5398,545.5605
33200,291.3366,-93.1426,170.0855,1118.619,-704.5077,536.6686
33220,295.278,-91.9479,170.252,1126.5535,-724.3537,523.2272
33240,291.4339,-100.7216,159.2292,1136.34,-713.845,536.9286
33260,272.1289,-103.1204,151.7162,1137.3615,-688.9184,529.2743
33280,279.1211,-88.0121,141.3039,1130.0886,-704.734,535.8014
33300,275.4908,-85.2344,131.9977,1131.8585,-707.87,536.5234
33320,278.919,-69.4039,137.4382,1141.9021,-729.4323,534.1859
33340,298.4497,-49.3239,118.1431,1165.6661,-768.2549,531.4903
33360,301.0008,-28.3064,113.3503,1182.3751,-783.5208,520.9519
33380,298.4531,-19.2516,116.7871,1168.7209,-766.4993,533.5836
33400,288.1864,-20.0659,126.1676,1182.8185,-762.1689,529.4247
33420,285.9159,-16.7648,124.0998,1164.5571,-758.137,531.0322
33440,273.8729,-18.668,120.9673,1168.3485,-751.3245,523.7498
33460,278.9288,4.6659,96.1918,1156.4519,-758.6593,534.9706
33480,274.4304,11.0685,98.2759,1147.8236,-754.1616,533.2606
33500,269.5854,15.2579,97.6223,1175.748,-742.4024,529.8623
33520,262.7759,29.2453,83.7872,1152.9608,-749.0766,530.9344
33540,253.7426,31.2835,91.6331,1167.9836,-732.3551,535.1047
33560,247.8943,52.6062,94.6334,1168.8816,-731.8869,535.753
33580,242.9625,57.346,92.9854,1168.4919,-729.5477,530.0182
33600,238.8406,60.0564,95.2488,1178.1549,-730.2075,522.8533
33620,236.5889,58.0556,100.8039,1186.6129,-733.9946,524.9729
33640,244.1394,70.2491,116.1289,1201.2596,-749.4915,519.3431
33660,231.701,78.4425,99.1068,1186.9604,-729.967,521.2524
33680,227.9907,78.2207,85.3924,1192.7273,-714.75,521.3951
33700,222.1291,75.3689,87.6633,1190.0605,-711.3635,522.8542
33720,219.0276,75.5618,104.0521,1204.8964,-696.359,530.181
33740,216.5093,73.8903,102.0254,1190.353,-696.0607,523.6665
33760,216.949,68.9229,103.126,1189.4579,-687.7874,521.9269
33780,226.0552,92.4323,105.4428,1185.67,-666.7791,521.9729
33800,246.3693,102.5032,102.3098,1201.0757,-676.1514,515.1555
33820,253.4722,102.1345,123.416,1201.8673,-685.3779,515.4704
33840,272.6337,118.7767,122.7918,1198.2969,-661.7059,513.8431
33860,272.4164,114.2889,116.3971,1195.9093,-651.5142,512.2714
33880,276.1581,112.0073,103.1757,1181.1924,-633.5385,521.4993
33900,308.1633,149.0463,117.004,1191.7301,-641.2087,517.7936
33920,318.0869,145.003,135.4265,1194.5032,-624.2038,503.3799
33940,325.7922,141.596,140.4277,1218.3125,-620.4747,504.0477
33960,324.7856,156.1275,131.0275,1196.5496,-608.9302,510.1626
33980,343.9634,162.9871,127.5305,1176.5356,-602.3983,501.378
34000,361.3326,176.4019,129.364,1180.0129,-611.4452,506.5304
34020,369.2423,185.5616,139.7684,1183.1412,-617.7894,486.6371
34040,375.4996,173.8487,150.7432,1182.2964,-590.1364,495.8447
34060,384.5439,174.2375,159.4543,1170.5049,-576.8862,496.2836
34080,393.5236,171.8813,155.1692,1167.275,-572.3793,493.7127
34100,402.1873,182.4628,159.2246,1165.7694,-581.2202,486.1517
34120,428.0338,195.9741,156.142,1138.1377,-579.7805,491.1293
34140,440.963,204.8706,161.3267,1134.0475,-585.3316,491.0417
34160,453.4536,185.0772,126.0254,1146.0337,-586.5742,490.2514
34180,464.3207,185.8577,110.039,1155.299,-590.0797,494.2075
34200,478.1971,198.6094,105.2708,1158.6725,-602.9545,489.8799
34220,487.5174,197.6237,100.3782,1170.3004,-605.2563,493.7886
34240,494.6932,188.653,102.0655,1166.1804,-589.6193,493.5075
34260,510.9334,177.701,84.0499,1136.0752,-572.0887,496.2943
34280,516.8477,183.527,77.2383,1128.7163,-587.071,502.8726
34300,530.6568,180.6163,67.2253,1150.8888,-591.658,500.9784
34320,547.0057,196.4324,64.7952,1165.3405,-607.0843,494.3075
34340,555.1943,185.2059,64.8513,1169.4729,-602.1082,494.7927
34360,566.3821,162.9322,56.8535,1187.562,-600.2438,498.5852
34380,573.7982,153.4767,29.027,1190.1067,-583.6726,499.3193
34400,575.0774,158.627,16.2417,1161.9705,-595.433,507.2406
34420,586.3641,165.8925,12.9765,1175.26,-618.7789,501.1684
34440,608.5601,170.2392,7.8247,1203.6013,-638.576,502.5931
34460,614.4329,129.423,-19.9567,1186.6853,-606.8647,498.2324
34480,616.7124,130.3412,-29.5955,1181.1851,-618.8093,505.5689
34500,632.9197,131.4476,-45.6411,1171.3741,-633.8848,501.478
34520,644.8965,130.6785,-47.8286,1166.7125,-646.0726,499.7447
34540,643.5064,119.5847,-51.4895,1175.4474,-640.6976,507.0229
34560,649.8508,107.8219,-67.9578,1176.6871,-642.5387,515
34580,660.8322,85.5447,-85.061,1152.5122,-636.292,523.6531
34600,670.7859,86.1693,-69.6833,1169.9889,-642.7616,517.5617
34620,679.1558,97.7054,-75.1063,1166.1171,-648.9092,516.7498
34640,675.8956,67.3519,-74.6332,1161.1553,-628.9724,509.2357
34660,675.7693,67.3597,-67.2992,1159.8248,-629.3924,522.7867
34680,668.9794,30.3336,-77.0456,1163.6654,-603.6352,524.8344
34700,657.7626,13.652,-72.6546,1162.1752,-588.8456,522.882
34720,677.255,22.1058,-72.4363,1163.3871,-605.4203,522.7041
34740,680.2667,19.6826,-90.0506,1154.359,-614.6007,519.9998
34760,680.2888,-2.0551,-108.6373,1157.5612,-612.9146,513.7414
34780,688.5751,-2.6447,-101.2546,1174.8138,-634.8273,515.8799
34800,691.5139,-10.9925,-103.2119,1188.381,-630.5501,508.0792
34820,694.819,-16.646,-96.1583,1213.8381,-633.0651,513.028
34840,697.2665,-33.677,-99.098,1217.9106,-621.8901,510.9406
34860,702.9714,-40.6558,-114.1337,1229.0359,-648.5012,504.567
34880,716.6177,-41.9845,-119.735,1226.6135,-658.1167,503.5186
34900,713.1963,-50.5134,-125.5836,1224.6239,-651.0996,502.142
34920,715.3314,-52.0966,-100.4594,1252.7783,-648.3116,495.3879
34940,726.0212,-49.9686,-95.6601,1260.9302,-660.0272,493.7829
34960,727.038,-63.8457,-98.1057,1270.8171,-657.1733,490.8498
34980,730.1999,-66.3715,-102.5289,1246.5714,-665.6481,505.0241
35000,730.414,-74.3027,-119.107,1240.8516,-672.4435,496.6877
35020,736.7839,-89.8898,-115.3185,1268.2321,-674.3361,499.183
35040,733.1533,-90.2798,-101.6284,1283.9788,-660.8271,494.0044
35060,739.5292,-85.9992,-91.1222,1303.8302,-667.2628,491.72
35080,742.0675,-89.6294,-121.1791,1281.105,-679.684,495.124
35100,739.7274,-103.1776,-130.5642,1282.4121,-685.3475,489.3567
35120,733.6436,-107.8424,-139.7169,1274.1554,-673.6401,476.9794
35140,731.3928,-123.1911,-133.2479,1300.9532,-678.5506,451.652
35160,737.8983,-125.304,-106.2486,1338.6221,-679.6056,481.2886
35180,730.5605,-147.0117,-113.9461,1342.3965,-670.6797,451.8374
35200,726.5649,-149.1999,-126.2577,1311.2948,-668.7425,458.0602
35220,721.1115,-164.2214,-135.7278,1305.0194,-654.4207,472.2179
35240,729.1154,-167.6009,-140.6618,1306.3419,-667.1022,469.6457
35260,721.6212,-174.6402,-112.6444,1319.7742,-650.8146,458.5124
35280,712.5133,-180.4002,-95.4738,1320.7191,-631.0784,457.6852
35300,717.5437,-204.7718,-93.6554,1312.9645,-604.5513,470.3419
35320,700.311,-233.7959,-93.8755,1298.0769,-576.1136,491.6701
35340,710.5272,-220.9737,-99.2859,1285.6346,-577.236,493.7653
35360,715.824,-235.3285,-84.6161,1310.8823,-586.402,501.9404
35380,709.0933,-259.9062,-30.9039,1362.6876,-575.3242,507.5595
35400,719.036,-248.8032,-26.9464,1372.8699,-597.4403,514.3702
35420,722.2701,-245.6379,-50.7434,1354.2813,-597.6495,528.7521
35440,709.8608,-252.6277,-70.8304,1343.5646,-585.2249,540.4756
35460,714.7251,-246.4182,-68.1439,1357.7245,-609.3177,551.2414
35480,716.3416,-264.6751,-51.3638,1365.9983,-598.1819,549.6087
35500,708.9723,-267.6431,-29.653,1378.0425,-596.6238,551.1202
35520,703.8004,-287.927,-33.9763,1389.1106,-600.3132,548.3303
35540,699.1271,-291.4846,-39.8643,1370.3473,-591.8586,559.072
35560,706.5659,-280.9165,-45.1152,1364.7727,-612.1215,550.4618
35580,701.3282,-279.9174,-32.9338,1367.9055,-614.9513,539.8429
35600,692.2453,-284.7673,-31.8297,1383.6987,-627.9803,518.5411
35620,683.1067,-298.9235,-24.731,1360.4901,-600.2366,522.2952
35640,683.6799,-302.9336,-50.3371,1351.8782,-603.413,515.1321
35660,678.2987,-313.6288,-49.8269,1355.6324,-601.391,509.7896
35680,676.8864,-305.6028,-32.303,1360.4828,-607.1597,517.5497
35700,667.3242,-314.15,-31.2845,1347.7559,-594.0346,514.7484
35720,666.6125,-316.0742,-7.1833,1367.5311,-594.0634,515.8245
35740,668.1388,-313.0864,-3.6302,1372.7784,-610.1595,517.3693
35760,664.95,-316.9955,-6.8447,1359.7208,-608.3895,508.0316
35780,664.3059,-314.0737,-15.6761,1372.2089,-620.9103,493.254
35800,650.6049,-322.5382,-4.6949,1367.2195,-606.0035,477.1022
35820,630.0985,-339.9659,-27.3502,1343.4746,-610.7695,420.2868
35840,634.1523,-339.013,-26.0753,1343.6919,-617.2054,418.8986
35860,638.5443,-324.4087,-6.7377,1345.9342,-630.7578,412.7444
35880,633.0679,-319.8199,-3.4966,1345.5863,-622.304,423.6056
35900,629.6584,-324.2259,4.5905,1353.4054,-617.4952,425.1353
35920,604.3975,-347.9371,-15.9006,1330.4473,-642.7494,335.6006
35940,597.899,-365.5796,-11.0416,1322.6439,-606.4535,372.9209
35960,617.915,-345.2037,26.9072,1356.0813,-630.8585,435.9775
35980,614.5269,-355.7845,32.3813,1370.5632,-626.7224,460.0138
36000,613.2794,-356.5985,45.9227,1379.3982,-613.3306,481.1959
36020,616.4488,-351.9728,53.0327,1375.6638,-620.991,490.7791
36040,612.3505,-356.7686,65.5083,1384.0297,-615.9837,503.9361
36060,613.972,-352.6058,70.8466,1388.8843,-628.1501,517.3849
36080,612.5342,-358.5863,80.5622,1379.8014,-607.3182,519.0024
36100,606.1216,-369.1485,67.3489,1405.9188,-626.6088,512.4274
36120,592.2399,-379.5249,91.9295,1381.6931,-609.114,520.4157
36140,598.5444,-375.3368,93.3924,1401.9119,-632.0244,515.5194
36160,594.8777,-374.0757,91.5842,1372.7166,-620.048,530.3605
36180,590.5941,-371.0191,96.1785,1391.0322,-623.7657,521.0164
36200,585.0513,-375.2737,100.2481,1382.6587,-616.8791,531.7245
36220,590.4471,-385.3175,117.3144,1390.6285,-617.55,542.5933
36240,583.2983,-388.1904,137.919,1406.0848,-615.6843,543.5667
36260,573.679,-383.2374,129.5544,1389.569,-621.0544,542.6546
36280,578.1941,-377.4522,108.8745,1391.8776,-640.6996,549.0045
36300,577.6625,-371.0941,119.465,1372.4607,-636.6725,556.5667
36320,564.3701,-385.5794,110.7711,1384.2828,-637.3701,538.2369
36340,561.3508,-400.1089,126.9739,1383.8495,-635.3957,523.2916
36360,551.3397,-409.8425,129.157,1389.6105,-647.6894,463.3334
36380,543.9937,-407.0794,125.0817,1377.7489,-645.7724,437.1457
36400,538.0472,-394.3882,142.2772,1370.9308,-641.3455,459.9375
36420,537.5337,-394.8609,118.7161,1351.4136,-641.6552,476.5664
36440,532.7883,-407.4744,107.65,1360.5775,-639.4345,474.9663
36460,533.6091,-404.7776,128.3668,1362.8625,-633.6924,497.0475
36480,544.4111,-400.1334,174.2793,1401.3856,-633.3649,531.4766
36500,533.5162,-395.4982,174.3674,1379.6339,-618.598,551.7407
36520,529.8367,-403.7595,168.2716,1344.782,-625.449,488.6528
36540,521.0089,-399.5731,161.8499,1322.7899,-634.3083,484.4987
36560,522.8172,-398.3105,134.1398,1308.4445,-637.5703,503.1727
36580,522.805,-393.6335,166.558,1340.1654,-640.7434,498.1617
36600,520.1511,-398.1029,182.7635,1365.255,-637.2473,511.3542
36620,512.6898,-405.2671,168.921,1336.4153,-645.6562,521.6722
36640,514.8118,-393.6501,149.6028,1303.5343,-658.0831,535.7414
36660,513.0135,-396.1169,149.2661,1293.1604,-656.142,527.2459
36680,512.0609,-384.4114,159.0813,1319.552,-678.8919,521.9529
36700,504.3962,-382.4829,177.9739,1332.2649,-669.5955,518.7903
36720,504.6408,-388.737,189.6472,1331.1744,-662.2423,519.6661
36740,503.8576,-393.7887,177.0149,1327.2534,-662.9284,525.2459
36760,500.056,-394.018,155.7052,1298.7286,-668.9911,523.1348
36780,504.3788,-381.2427,161.6413,1296.1814,-687.6406,526.9095
36800,489.6762,-388.3523,176.3451,1295.2734,-663.8129,530.5257
36820,490.8884,-383.5566,183.2719,1322.8583,-686.1517,528.7377
36840,495.1328,-372.2815,206.9584,1324.174,-692.2065,528.3554
36860,486.1669,-381.4947,211.6534,1313.3073,-678.6204,524.8334
36880,486.136,-370.7575,198.2184,1302.1539,-689.1464,531.7169
36900,473.1684,-384.4367,199.9606,1283.6399,-675.8029,531.3865
36920,472.9264,-372.6626,210.0697,1283.3044,-680.0039,527.02
36940,474.8842,-372.2395,216.5822,1285.802,-674.2907,524.8411
36960,471.424,-367.641,228.2972,1316.1788,-680.4805,530.3508
36980,466.4562,-362.0551,231.1519,1282.6581,-680.0089,531.0168
37000,458.1365,-366.767,219.5412,1253.9479,-681.7241,541.4083
37020,472.8105,-354.2261,224.8659,1279.6598,-707.5304,532.563
37040,469.613,-353.3692,231.7319,1285.6093,-710.9129,530.8455
37060,467.0721,-360.5157,243.8575,1307.6124,-707.3064,531.4863
37080,457.3938,-365.0392,237.1352,1277.2145,-689.9119,531.2605
37100,457.8915,-372.7054,210.1803,1271.957,-693.1525,534.5486
37120,451.9915,-370.8399,205.8393,1255.8623,-697.1951,534.3666
37140,441.4529,-379.2267,226.0269,1266.9623,-698.471,532.616
37160,441.2726,-383.547,255.098,1297.3356,-685.3846,530.4545
37180,439.2084,-375.7829,226.1792,1280.7448,-689.4806,522.7957
37200,436.0641,-383.5874,213.7065,1272.2725,-700.6544,529.7726
37220,433.3341,-368.1599,217.6113,1254.1445,-704.4152,524.3135
37240,422.8018,-380.0319,230.5935,1271.1389,-696.025,521.8864
37260,424.1495,-370.7654,237.602,1267.1013,-697.1035,521.6998
37280,424.7024,-387.6824,252.1883,1289.3184,-696.8932,511.1392
37300,425.0968,-381.7906,253.9955,1291.3175,-691.6193,518.7198
37320,417.0427,-368.1519,235.8111,1251.8956,-701.6635,520.8942
37340,408.0512,-376.6397,224.3488,1249.365,-690.648,528.7969
37360,400.6166,-384.2023,216.3401,1250.4578,-684.2335,527.5161
37380,398.842,-381.7495,230.8533,1253.9539,-685.4412,525.2253
37400,398.75,-375.5766,254.3169,1277.151,-693.9178,517.9442
37420,391.636,-371.2491,252.7976,1225.8542,-678.3701,524.1445
37440,389.3501,-371.0476,218.4828,1226.2076,-694.7953,521.7225
37460,384.4534,-354.2579,206.5054,1247.2803,-721.2137,522.7996
37480,391.0014,-352.6353,222.1447,1233.4857,-708.8051,521.1815
37500,387.7885,-367.9887,250.6411,1265.9436,-700.8753,514.0526
37520,386.4054,-359.5924,256.7732,1246.9971,-709.0276,513.8374
37540,378.6502,-355.7301,256.3107,1251.2432,-714.3781,513.804
37560,378.4518,-344.5349,242.3641,1244.5125,-711.6522,527.8212
37580,363.9667,-358.112,244.4858,1209.2494,-690.3141,517.9524
37600,365.7208,-361.8786,221.7157,1205.1221,-702.3616,522.9167
37620,363.8433,-364.7527,214.1368,1232.7211,-724.0952,521.4285
37640,357.2263,-363.2602,230.2774,1219.4689,-706.5845,520.8213
37660,361.3148,-356.4309,242.0111,1252.5164,-721.0848,533.9537
37680,357.0858,-342.4731,229.6122,1213.1318,-719.3746,522.6088
37700,358.7176,-343.6566,219.371,1217.8392,-728.2129,529.3027
37720,347.1873,-352.8968,219.8476,1208.6116,-713.8715,528.3086
37740,346.4215,-356.1756,235.0523,1210.0204,-713.9166,527.11
37760,352.6375,-356.3617,223.9602,1249.7019,-723.3593,530.5476
37780,341.9499,-336.1227,224.5427,1203.1334,-702.6577,532.7313
37800,345.5824,-330.6696,212.3956,1208.855,-724.5071,526.5239
37820,345.943,-324.3866,225.0546,1202.6569,-743.8828,519.3663
37840,344.2578,-324.0575,222.0946,1191.2856,-740.5496,521.9141
37860,343.6702,-324.2297,225.7251,1195.1473,-731.4167,524.5795
37880,348.8818,-313.1688,236.2893,1210.7554,-743.8255,520.4019
37900,351.9036,-305.6381,235.6941,1206.0397,-751.9797,517.2053
37920,347.2825,-319.0082,234.4412,1192.834,-738.3015,522.2142
37940,347.3237,-312.8459,225.7223,1183.2888,-750.4371,525.6595
37960,339.2217,-308.116,234.9178,1197.2805,-735.0938,521.933
37980,339.8763,-307.0388,229.486,1209.6332,-730.5082,518.2975
38000,329.8392,-312.2145,228.9635,1193.8457,-720.0895,527.0629
38020,332.2119,-314.1941,226.4073,1205.2432,-728.8176,516.6958
38040,334.802,-315.3096,224.4208,1189.2273,-731.8929,527.4143
38060,330.7967,-310.4407,213.0963,1181.7051,-729.3594,530.8366
38080,331.9515,-281.0308,231.5695,1192.6829,-752.0631,523.9902
38100,330.2534,-281.9653,235.2793,1195.1639,-746.4617,518.5702
38120,338.4549,-283.2263,221.2308,1175.4297,-748.4924,530.601
38140,342.4673,-264.8609,216.5752,1164.8805,-771.137,533.7628
38160,330.3928,-271.3046,226.8856,1166.5198,-744.392,536.2519
38180,325.4705,-275.6802,211.5478,1171.6581,-729.2049,532.2763
38200,329.1,-254.0899,246.0748,1201.6403,-754.6346,526.1616
38220,329.7246,-250.2279,235.9529,1173.2469,-742.8705,523.4713
38240,331.4184,-242.2403,213.3981,1146.3307,-754.5369,527.4744
38260,325.2411,-238.3307,215.462,1135.9943,-761.0366,530.7906
38280,332.2406,-237.0943,215.0251,1134.2708,-753.7294,524.799
38300,329.7704,-228.8669,218.9911,1123.7783,-750.0124,528.9777
38320,320.623,-213.8405,242.8817,1147.1266,-747.6363,522.611
38340,332.9969,-216.6866,226.4354,1093.3224,-720.7445,533.2117
38360,321.6456,-202.3738,205.9028,1128.4622,-773.2491,527.6547
38380,326.7057,-184.4419,216.473,1119.1852,-772.1521,523.4282
38400,319.4717,-183.635,220.835,1120.5348,-769.5603,526.329
38420,312.1435,-193.9375,217.663,1124.5275,-743.1345,538.918
38440,316.1608,-184.0384,222.6202,1146.3761,-757.0635,528.5811
38460,314.695,-180.4514,233.001,1137.332,-753.3128,529.3492
38480,315.2885,-151.7534,226.8635,1087.5508,-762.5786,531.2676
38500,299.4582,-136.6851,220.9909,1083.0051,-756.4232,530.5389
38520,319.1387,-108.6115,214.0708,1056.994,-753.7687,531.9129
38540,312.0558,-86.9984,236.6956,1088.1554,-783.4532,523.4081
38560,306.9005,-75.4878,239.0006,1068.5514,-784.0806,526.0624
38580,307.7585,-64.2691,245.0482,1079.3857,-788.5195,531.0999
38600,300.1219,-62.3763,236.6305,1073.3992,-780.7581,533.1725
38620,293.2361,-62.25,223.4412,1053.334,-776.7723,527.5543
38640,285.0965,-54.3883,215.862,1038.8774,-756.9138,538.101
38660,273.3972,-44.309,224.3832,1060.373,-763.7211,532.924
38680,282.5641,-38.3929,214.9107,1049.5378,-766.1189,533.6627
38700,273.2652,-37.1982,241.8106,1050.4242,-754.9201,532.0678
38720,276.1429,-20.4096,241.8336,1054.7675,-761.1206,526.1414
38740,265.2086,-20.5803,232.7458,1039.8689,-748.2559,527.2318
38760,258.0295,-9.9949,240.2896,1028.8893,-743.5504,530.1688
38780,261.2061,11.3205,237.5204,1033.9518,-743.9488,528.7831
38800,250.4386,6.3367,250.1361,1020.2986,-715.1859,524.9846
38820,251.5044,10.6638,253.8871,1024.5236,-720.7221,528.5813
38840,245.4721,18.2476,260.8875,1015.8524,-714.017,525.46
38860,249.3599,33.7019,265.1224,1017.9158,-721.9238,525.8618
38880,247.1272,41.1854,270.0573,1023.889,-724.3223,518.0861
38900,252.7393,64.6699,264.1396,999.6686,-718.2817,521.6432
38920,243.9609,59.6102,274.7517,1012.9345,-707.9919,522.5576
38940,246.8495,73.1318,289.8233,1011.4691,-705.5633,521.4571
38960,242.5028,80.7343,283.7134,1012.8871,-693.1697,522.3835
38980,238.6304,78.0438,303.3682,1012.8446,-676.154,526.1255
39000,235.4347,75.9271,303.4719,1007.7164,-667.1329,534.7014
39020,231.6704,69.6153,282.1494,1009.7648,-666.8417,538.8894
39040,234.7108,75.3822,286.7964,1001.5319,-664.7807,542.4956
39060,228.9436,82.8226,296.8687,999.1547,-665.5859,535.6787
39080,227.1454,80.1081,307.7936,1011.7381,-648.4577,538.6477
39100,239.6033,92.6966,310.028,1048.364,-653.9646,541.6128
39120,228.1581,83.0356,326.049,1038.9174,-611.5458,545.21
39140,222.324,83.5482,315.2309,1032.7317,-615.3799,535.4705
39160,226.8342,96.6074,315.9169,1035.8236,-618.8491,541.0572
39180,224.6489,85.637,320.9631,1041.3854,-590.5316,541.5905
39200,221.2,85.6193,335.0637,1052.7566,-578.1122,540.4982
39220,233.0128,92.7502,334.5925,1048.0151,-580.9684,539.611
39240,233.3273,101.3009,328.3754,1038.7822,-588.2499,529.7244
39260,229.7829,91.6585,320.756,1032.9806,-572.162,532.8135
