t,AF3,F7,F3,F4,F8,AF7
0,-1347.9523,635.2528,1219.0508,1049.8549,-291.9681,146.0029
19.6078,-1312.8651,657.7053,1249.9154,1097.2035,-290.9616,149.047
39.2157,-1317.9969,663.3274,1253.0812,1087.934,-291.9652,156.9797
58.8235,-1367.7854,639.5744,1208.7841,1069.015,-290.9645,134.0365
78.4314,-1486.9702,595.2466,1130.2034,979.8151,-292.9614,104.007
98.0392,-1495.6636,603.7166,1157.7445,984.0248,-292.967,97.9741
117.6471,-1522.9613,570.3771,1145.0771,986.9664,-292.9579,87.9615
137.2549,-1432.4939,631.6088,1187.8563,1043.1393,-290.9716,110.9529
156.8627,-1430.1398,621.3582,1186.2019,1055.9576,-284.9593,109.0201
176.4706,-1444.4583,631.6348,1169.7687,1056.1952,-289.9766,99.9849
196.0784,-1438.1071,659.1489,1150.2631,1027.7582,-291.9515,94.0225
215.6863,-1477.4502,627.7707,1153.8364,1012.0344,-292.9786,87.9661
235.2941,-1466.2295,632.1151,1182.1238,1038.891,-293.9458,79.9878
254.902,-1432.2375,619.7934,1206.7755,1082.0942,-294.9806,94.0193
274.5098,-1474.4221,584.1177,1162.1099,1033.8281,-287.9453,77.9702
294.1176,-1507.275,549.8118,1124.7761,1019.2234,-291.9874,65.9524
313.7255,-1487.4518,597.0452,1128.0846,1048.7311,-292.937,69.0166
333.3333,-1540.0238,564.7601,1080.8843,1020.1022,-292.9919,65.9608
352.9412,-1578.7003,563.0801,1069.0851,1003.6774,-290.9334,41.9903
372.549,-1569.9253,545.7806,1053.7841,988.1635,-290.9981,50.0053
392.1569,-1622.6255,559.1533,1049.0413,990.8024,-290.9289,29.9618
411.7647,-1607.9348,551.8621,1050.7892,1013.2332,-291.0025,32.9987
431.3725,-1702.9302,478.9423,965.0663,932.6994,-291.924,8.9831
450.9804,-1759.8556,444.9369,920.8148,930.4008,-292.0065,4.0662
470.5882,-1765.9283,443.0315,929.0844,925.7085,-293.918,0.0209
490.1961,-1779.6616,435.0399,881.8913,909.4183,-292.0112,-17.8459
509.8039,-1756.197,459.8388,896.9728,968.5623,-288.9164,-14.998
529.4118,-1789.6073,443.94,883.87,954.4968,-288.0186,-11.8603
549.0196,-1826.215,420.8998,842.0358,942.4152,-288.9118,-33.0024
568.6275,-1837.4664,426.0418,821.0583,932.4639,-288.0234,-31.8393
588.2353,-1900.3953,382.8239,764.9273,897.33,-288.9063,-64.0807
607.8431,-1895.3837,387.1954,736.9603,903.5054,-292.0261,-60.8483
627.451,-1896.5812,355.7639,733.871,885.2695,-289.9,-70.0711
647.0588,-1920.22,319.1732,692.0401,887.5959,-291.0318,-90.8203
666.6667,-1943.6108,310.7583,618.6354,884.3467,-289.8953,-91.0668
686.2745,-1984.9303,293.2928,575.2321,839.7122,-289.0381,-107.7191
705.8824,-1986.6862,272.6761,555.7152,832.0936,-293.8878,-106.0997
725.4902,-1993.985,283.1917,505.1444,816.8732,-295.0391,-121.7206
745.098,-2028.0236,242.5786,471.4679,817.0643,-292.8835,-129.2043
764.7059,-2013.7769,233.3304,430.3232,784.7823,-293.0451,-140.7195
784.3137,-2043.0654,212.4803,359.4468,750.9119,-289.8813,-156.172
803.9216,-2003.5576,220.4223,349.2639,752.0645,-291.0508,-156.6466
823.5294,-2022.1699,203.5607,298.4445,743.8687,-291.8754,-158.228
843.1373,-1948.4246,219.3962,301.3564,764.1542,-292.0551,-155.6417
862.7451,-1993.3927,180.379,195.2495,729.675,-293.8693,-171.3398
882.3529,-1941.2655,217.5137,224.614,763.207,-290.059,-179.5467
901.9608,-1826.3754,231.3144,209.1337,759.6472,-290.8688,-172.3493
921.5686,-1810.1002,207.6386,151.535,720.1919,-292.0615,-182.5721
941.1765,-1742.614,222.3837,119.9108,732.6027,-291.8641,-181.4305
960.7843,-1698.8793,221.5296,120.6467,749.3335,-292.066,-179.4555
980.3922,-1690.8314,192.285,58.888,710.4028,-291.8593,-192.442
1000,-1660.8333,189.6133,27.7746,702.5406,-292.0705,-195.4591
1019.6078,-1535.8539,235.2221,22.8257,724.3788,-292.8545,-181.5259
1039.2157,-1427.5748,203.7329,-20.7462,705.6089,-285.0791,-182.4252
1058.8235,-1420.0873,184.1573,-71.1472,673.1338,-291.8505,-190.5225
1078.4314,-1357.564,202.707,-74.6591,680.6918,-291.0801,-181.3243
1098.0392,-1286.1401,214.9907,-117.3288,683.1076,-288.8477,-179.6093
1117.6471,-1227.2856,213.7989,-92.6138,663.7774,-290.0855,-183.2888
1137.2549,-1090.1804,217.9478,-133.3813,652.9036,-290.8416,-182.6444
1156.8627,-1014.1948,211.9241,-130.5792,659.9113,-293.0882,-183.2335
1176.4706,-920.3057,207.9294,-144.5034,626.6847,-289.8384,-171.7343
1196.0784,-842.9651,205.9412,-193.3071,620.0636,-289.0939,-170.1974
1215.6863,-771.4456,225.7974,-207.695,605.7291,-290.8347,-161.7014
1235.2941,-691.8851,267.1746,-243.3238,626.2993,-290.0966,-156.1065
1254.902,-527.4984,287.7409,-241.8348,662.6027,-291.8307,-153.7741
1274.5098,-498.7473,246.0728,-267.0831,659.4647,-290.0997,-151.0485
1294.1176,-412.5899,281.6193,-260.0537,667.3085,-290.828,-152.8648
1313.7255,-314.5989,292.1739,-294.9338,648.4407,-290.1034,-140.9937
1333.3333,-247.7356,314.5994,-299.1504,640.2442,-292.8228,-127.9211
1352.9412,-182.594,309.3192,-320.8411,629.6418,-290.1084,-123.9193
1372.549,-71.6925,310.4218,-330.2793,662.2028,-292.8179,-115.9588
1392.1569,81.5159,356.2914,-306.7093,659.8624,-291.1124,-99.9145
1411.7647,118.8067,326.5461,-345.4944,643.9662,-290.8144,-96.0164
1431.3725,197.5135,346.4281,-308.5064,677.88,-291.1165,-81.7875
1450.9804,275.8033,396.2677,-268.5746,715.7762,-288.8121,-77.0367
1470.5882,281.738,363.5779,-294.3729,676.965,-291.1196,-72.7826
1490.1961,430.8336,403.3225,-290.6649,677.7808,-291.807,-64.1085
1509.8039,432.7671,381.5852,-320.287,687.1892,-291.1227,-66.6754
1529.4118,494.7117,382.2769,-313.8448,663.5369,-290.8052,-61.1858
1549.0196,516.7659,394.6357,-309.1667,652.4106,-291.1251,-58.6346
1568.6275,592.5727,383.0655,-303.8621,687.3871,-293.8005,-44.2222
1588.2353,617.8439,391.6897,-324.9541,681.3676,-292.1266,-41.56
1607.8431,743.4512,451.0528,-279.0317,735.2119,-290.8019,-24.2776
1627.451,790.9915,446.8755,-278.9729,759.5443,-293.1267,-11.5042
1647.0588,771.4288,415.9631,-292.3005,715.093,-292.7985,-19.3323
1666.6667,864.0076,451.9247,-256.6675,741.7976,-296.1272,0.479
1686.2745,837.5357,434.899,-298.4597,717.0613,-290.7971,-3.4193
1705.8824,885.0948,486.1509,-261.6995,765.9098,-295.1305,8.514
1725.4902,1017.3596,482.7931,-269.5323,784.8811,-289.7953,26.4423
1745.098,1070.2738,538.0986,-250.3754,824.097,-291.1352,31.5484
1764.7059,1108.4602,561.8041,-206.5923,812.7325,-291.7921,31.3922
1784.3137,1106.2468,527.1591,-240.3448,772.0529,-289.1383,33.6166
1803.9216,1096.3683,504.6661,-239.655,779.5758,-292.7894,29.4118
1823.5294,1098.3993,512.3308,-268.2019,762.2921,-292.1388,31.648
1843.1373,1200.405,562.4993,-177.7904,841.5092,-293.7865,61.2954
1862.7451,1205.3416,566.4341,-212.1186,824.4688,-291.1412,60.7294
1882.3529,1296.3505,635.4693,-112.8996,895.4578,-291.7861,80.2872
1901.9608,1246.3419,589.4283,-176.0493,854.4634,-292.1423,72.7073
1921.5686,1249.2255,593.4615,-140.9991,840.2252,-292.7843,71.2056
1941.1765,1264.316,596.6334,-109.8626,829.5375,-292.1439,74.768
1960.7843,1243.2908,562.2581,-125.1854,832.1174,-290.7832,83.1803
1980.3922,1260.3843,568.6222,-89.736,857.6245,-292.146,90.8632
2000,1249.2035,560.2373,-81.3815,869.0338,-290.7814,89.1924
2019.6078,1283.3898,590.7448,-64.6558,880.8762,-290.1486,91.8684
2039.2157,1253.3702,561.2379,-81.4867,843.8948,-293.7784,92.136
2058.8235,1292.3705,580.8851,-67.5687,861.8378,-290.1495,91.9059
2078.4314,1280.3118,584.0561,-55.5495,832.8484,-289.78,97.0968
2098.0392,1275.4944,569.9471,12.3858,845.1097,-292.1496,92.9082
2117.6471,1315.3771,626.1152,31.0979,867.8764,-290.7782,110.0426
2137.2549,1330.4812,632.0547,34.441,885.1841,-293.1499,116.9817
2156.8627,1275.2891,593.8284,19.1638,873.668,-292.776,109.0416
2176.4706,1309.4364,634.9497,23.5562,903.16,-291.1525,124.0345
2196.0784,1333.3652,662.9011,33.9296,929.5347,-287.7781,129.0099
2215.6863,1338.3304,677.1625,43.6535,927.434,-293.1517,138.013
2235.2941,1339.3046,681.8416,122.9616,931.5538,-287.777,148.9804
2254.902,1358.2397,710.3011,148.7708,945.3915,-292.1541,149.095
2274.5098,1358.3904,684.7915,190.904,949.3562,-293.7718,158.9522
2294.1176,1327.3334,642.316,149.9303,925.4941,-291.1558,147.1063
2313.7255,1323.3588,689.6786,208.9078,968.4216,-291.7717,160.8559
2333.3333,1291.3793,673.2992,238.899,979.6329,-290.1578,159.1496
2352.9412,1269.4945,693.4923,252.7504,943.3154,-292.7695,168.9016
2372.549,1300.3209,730.4201,309.988,978.6439,-290.1593,176.1907
2392.1569,1263.3937,714.3809,308.6541,966.1821,-291.7701,164.8443
2411.7647,1277.2842,720.5632,361.0738,985.6606,-288.1602,169.1949
2431.3725,1251.385,717.3295,344.5403,1019.1302,-292.7697,175.8792
2450.9804,1247.23,720.6365,372.104,1017.6921,-288.1604,175.1778
2470.5882,1215.4962,742.3248,391.63,1003.0857,-285.7731,185.8614
2490.1961,1226.1589,790.7233,486.2327,1038.7815,-289.1614,193.2667
2509.8039,1251.4683,782.2318,506.5212,1048.0503,-290.768,197.7756
2529.4118,1205.0844,772.8601,501.1301,1020.9509,-292.161,195.2114
2549.0196,1179.6494,750.1774,504.5411,1059.995,-294.7631,206.7951
2568.6275,1139.0978,729.9253,475.3437,1038.8794,-293.1621,195.2264
2588.2353,1166.5461,797.2183,540.4516,1128.951,-288.7653,212.7479
2607.8431,1171.0405,800.8747,596.3456,1127.0597,-292.1642,215.238
2627.451,1145.7783,791.9619,582.3928,1113.9824,-291.7619,221.7733
2647.0588,1100.0146,786.8963,584.3237,1085.0182,-291.1664,202.2665
2666.6667,1099.8094,800.9708,607.545,1093.9646,-293.7591,198.7809
2686.2745,1039.9431,758.0077,608.4645,1086.1005,-292.1671,215.2549
2705.8824,922.8222,723.9694,529.3784,1043.8684,-287.7624,197.7225
2725.4902,929.9226,761.0978,586.3243,1086.9696,-292.1689,206.3134
2745.098,869.8462,722.8271,587.4729,1059.8368,-289.7591,202.7188
2764.7059,861.7389,761.1595,594.5209,1055.0117,-291.1713,201.3159
2784.3137,846.8833,780.8974,619.3077,1084.8553,-292.7555,200.7876
2803.9216,777.7874,722.1068,606.3781,1049.1328,-294.171,199.3
2823.5294,738.9109,712.7664,615.4183,1033.939,-292.7541,193.7675
2843.1373,731.7432,732.3287,636.5326,1056.085,-292.1737,198.3372
2862.7451,670.8098,706.6564,646.3991,1033.9364,-289.7561,182.7167
2882.3529,664.6621,728.2761,639.5526,1015.0632,-293.1723,190.2643
2901.9608,617.827,709.6265,658.2375,1017.7437,-289.7552,181.7564
2921.5686,552.6663,694.3992,626.4272,1013.1618,-292.1745,184.2932
2941.1765,475.0203,668.5157,656.2998,994.8237,-294.7503,176.7631
2960.7843,413.5022,656.4161,657.4227,999.0558,-289.1788,171.303
2980.3922,364.8545,631.5197,641.2339,977.7995,-294.7475,170.8057
3000,348.3975,646.5228,678.5157,991.0492,-289.1815,170.2438
3019.6078,344.0771,657.4042,711.4062,1011.8969,-293.7461,173.7959
3039.2157,339.3848,669.4764,710.5867,1033.9451,-292.1812,181.2885
3058.8235,265.8957,623.4346,708.4001,988.9899,-287.748,158.8052
3078.4314,175.4714,635.5916,721.5602,977.9692,-292.1831,154.2601
3098.0392,185.0785,663.3679,749.3013,1014.889,-291.7436,155.7455
3117.6471,164.2675,635.6334,752.5468,1022.9534,-292.1851,153.1964
3137.2549,183.1329,670.2438,797.3089,1058.8853,-290.7422,164.7928
3156.8627,181.3238,678.6694,817.5353,1078.8705,-289.1888,163.1833
3176.4706,100.126,653.3541,806.3665,1038.9423,-289.7408,154.8064
3196.0784,60.3584,657.7393,811.494,1021.824,-289.1902,144.2213
3215.6863,-6.7646,641.2267,794.3325,985.9777,-292.7389,140.7864
3235.2941,12.3561,663.6001,854.5249,1040.9193,-291.19,152.188
3254.902,25.0265,696.3065,880.4507,1075.0114,-293.7363,153.8742
3274.5098,-124.6024,593.6065,818.3408,1010.7827,-289.1937,140.1517
3294.1176,-83.6139,658.2538,876.3859,1066.2336,-292.7336,142.8412
3313.7255,-148.5005,646.7923,882.4683,1038.7108,-291.1952,137.1507
3333.3333,-185.6898,651.3168,866.5043,1023.1645,-291.7326,124.8786
3352.9412,-168.6849,667.7636,917.3042,1052.7338,-290.1972,128.0925
3372.549,-241.7629,637.2545,870.6199,1015.233,-292.7316,122.881
3392.1569,-305.6304,577.6683,852.28,991.6653,-292.1963,114.1252
3411.7647,-326.7334,610.2372,889.6027,1021.4138,-288.732,115.8912
3431.3725,-396.5714,596.6932,866.2384,1013.4738,-289.2007,115.0679
3450.9804,-385.6385,636.1727,909.6577,1023.3819,-290.7283,99.9538
3470.5882,-413.6906,607.7103,911.4027,1021.3879,-291.202,96.0921
3490.1961,-455.5103,589.2799,887.7375,996.5367,-286.7295,89.9811
3509.8039,-474.8296,603.8219,894.3697,986.3907,-284.2081,87.0308
3529.4118,-508.5111,603.1074,889.7121,989.6793,-283.7284,85.9745
3549.0196,-575.8508,566.6487,870.2235,976.2072,-287.2096,79.9859
3568.6275,-497.5422,631.2059,953.6725,1052.6577,-291.7193,88.0209
3588.2353,-552.8678,595.8192,901.1776,988.319,-294.2084,67.9381
3607.8431,-646.4986,563.1552,887.8563,981.8625,-288.719,69.1051
3627.451,-621.8948,616.7676,936.2262,1008.2151,-295.21,72.9095
3647.0588,-705.6345,578.2944,901.8927,969.7545,-288.7166,62.1197
3666.6667,-693.7652,608.758,947.1689,983.0917,-292.2142,60.9483
3686.2745,-732.559,589.3376,939.8223,992.9934,-288.7143,60.1397
3705.8824,-757.7642,599.6567,963.0532,1010.9713,-289.2188,57.8411
3725.4902,-750.499,641.225,1014.9913,1055.9919,-289.7105,65.1768
3745.098,-734.7767,646.7482,1020.0503,1039.895,-288.2224,61.8423
3764.7059,-801.5139,612.3085,1015.9109,1034.2322,-287.7097,59.2501
3784.3137,-806.8728,602.632,1021.084,1016.6528,-288.2249,45.8428
3803.9216,-867.4283,584.2563,1042.0093,1021.3032,-287.7062,43.2358
3823.5294,-846.9907,628.5251,1030.9393,1039.6848,-288.2279,37.7378
3843.1373,-886.4653,650.4218,1054.9764,1029.4012,-287.7032,38.2728
3862.7451,-888.8643,629.5582,1065.9684,1027.5811,-287.2335,34.7156
3882.3529,-825.308,679.4319,1148.2399,1099.567,-286.6996,48.3142
3901.9608,-854.0518,655.4413,1126.8346,1101.516,-291.2353,50.7301
3921.5686,-910.2719,625.474,1092.1267,1096.748,-288.6931,45.3777
3941.1765,-948.9487,622.5334,1095.7878,1074.2614,-294.2377,31.6542
3960.7843,-973.3389,623.5923,1081.2112,1058.7961,-292.6863,30.4205
3980.3922,-927.9515,673.4688,1172.7871,1080.2362,-291.244,32.5797
4000,-935.4007,671.6362,1178.3564,1097.8348,-290.6843,31.4267
4019.6078,-980.1276,648.3333,1149.6974,1100.1042,-290.248,32.5408
4039.2157,-1022.3466,630.6474,1109.3259,1069.9761,-291.6787,30.5019
4058.8235,-978.1907,671.1693,1162.5615,1105.8761,-292.2509,23.5539
4078.4314,-994.2613,654.7161,1153.5194,1082.0924,-293.6731,19.581
4098.0392,-992.2576,686.2155,1216.5256,1122.7955,-287.2598,19.4784
4117.6471,-971.2146,680.9434,1219.6708,1105.3588,-290.67,20.5891
4137.2549,-1023.2044,691.1002,1200.5311,1127.7146,-289.2633,13.4693
4156.8627,-1002.0688,722.9498,1213.7117,1136.4042,-288.6665,17.6506
4176.4706,-1016.2493,719.1093,1190.5662,1114.5436,-288.2679,15.4414
4196.0784,-1040.1332,707.0524,1185.8135,1115.4994,-303.6521,12.6996
4215.6863,-1016.3055,722.9015,1221.4894,1134.3982,-287.2739,19.3438
4235.2941,-1051.0497,702.1765,1222.6949,1134.5602,-293.6532,17.7455
4254.902,-1012.4219,752.8453,1259.3077,1187.2887,-289.2775,20.3517
4274.5098,-999.9595,778.3356,1275.9325,1193.7917,-289.6506,20.7736
4294.1176,-1013.3574,749.723,1257.3029,1175.1737,-291.2818,14.2529
4313.7255,-1017.8696,746.456,1259.0077,1167.834,-291.6442,5.8217
4333.3333,-1045.6267,745.7328,1264.1216,1168.1095,-290.2878,6.2236
4352.9412,-1084.8722,705.493,1220.1215,1143.9694,-291.6388,-4.0457
4372.549,-1143.6294,686.4264,1265.1355,1185.0354,-293.292,-13.7338
4392.1569,-1020.8373,786.6413,1326.1035,1236.2299,-289.634,6.8785
4411.7647,-1032.6147,781.4006,1294.9878,1229.9358,-293.2979,8.1505
4431.3725,-1051.8959,776.5925,1293.25,1237.1903,-289.6278,2.9778
4450.9804,-1113.746,758.3831,1274.0347,1204.7875,-294.3031,1.0873
4470.5882,-1133.7872,767.8434,1246.1919,1187.4561,-290.6208,-11.8887
4490.1961,-1080.7388,808.1906,1344.9939,1220.6566,-289.313,-4.9215
4509.8039,-1017.6095,842.9488,1406.4117,1289.6023,-294.6117,3.069
4529.4118,-1063.9395,806.1358,1349.8867,1278.6084,-289.3197,5.0324
4549.0196,-1075.6078,781.0406,1344.5007,1258.5844,-292.6061,3.1147
4568.6275,-1106.9498,796.9414,1314.7411,1263.3546,-290.3274,0.9538
4588.2353,-1097.6921,792.1716,1340.4794,1230.702,-293.5964,-12.8057
4607.8431,-1133.0887,757.9346,1347.8242,1213.3965,-292.3335,-16.0186
4627.451,-1109.4548,786.2388,1397.599,1285.9215,-290.5912,-3.7249
4647.0588,-1064.1539,830.8564,1388.6604,1302.2847,-294.3397,-1.062
4666.6667,-1074.5558,856.3705,1404.5601,1321.9927,-282.5888,0.2652
4686.2745,-1100.157,815.6177,1361.696,1270.2168,-294.3474,-8.1214
4705.8824,-1105.3923,809.597,1356.6328,1254.9744,-284.5811,-8.6401
4725.4902,-1066.2822,841.4208,1408.5497,1314.0917,-295.3522,-0.1814
4745.098,-1056.2448,853.5932,1414.8311,1317.1234,-288.5726,2.2799
4764.7059,-1103.3792,846.491,1389.5458,1286.8723,-292.3624,-3.2041
4784.3137,-1100.2253,857.808,1378.9425,1291.1119,-291.5623,-8.5589
4803.9216,-1143.3154,834.2816,1339.344,1244.9407,-293.3689,-22.1896
4823.5294,-1060.3074,896.8156,1410.8597,1314.3263,-291.5545,-9.574
4843.1373,-982.3479,922.1212,1470.3763,1405.7943,-289.3788,17.6892
4862.7451,-1020.1485,894.9934,1452.0381,1373.3112,-291.5472,1.4298
4882.3529,-1066.5408,859.1252,1410.2784,1336.7367,-292.3843,-7.2577
4901.9608,-1082.0962,871.1219,1399.1444,1322.4639,-295.5373,-17.4845
4921.5686,-1066.6023,887.9729,1395.382,1339.6228,-281.3984,-10.3613
4941.1765,-1051.1675,894.1354,1419.2042,1349.4375,-292.5327,-14.4718
4960.7843,-1048.7004,894.7794,1434.304,1355.558,-291.3983,-9.3404
4980.3922,-1028.1073,915.2122,1439.0603,1348.442,-290.5273,-5.4029
5000,-1031.6715,906.7737,1421.3478,1370.658,-294.4036,-11.3893
5019.6078,-1026.0844,902.3486,1420.1654,1371.6251,-290.5205,-9.4078
5039.2157,-1047.7213,886.5691,1406.2432,1346.6357,-292.4116,-14.4019
5058.8235,-1044.8995,873.4914,1405.134,1355.6652,-291.5132,-14.3814
5078.4314,-1075.8208,865.5026,1381.2439,1345.5524,-291.419,-18.4639
5098.0392,-1081.0076,870.5643,1374.1766,1355.6989,-291.5067,-21.2839
5117.6471,-1054.8276,910.3634,1398.2286,1388.4523,-293.4242,-14.4519
5137.2549,-1087.9889,908.6854,1404.3328,1374.644,-289.5013,-15.2959
5156.8627,-1093.8647,901.4166,1417.1597,1375.4044,-292.4322,-23.5093
5176.4706,-1079.8713,925.83,1432.3203,1382.6344,-292.4915,-11.2445
5196.0784,-1143.8506,851.202,1381.2089,1342.5856,-292.4392,-30.5465
5215.6863,-1205.8409,809.8599,1344.2909,1305.637,-291.4858,-45.2633
5235.2941,-1191.8528,830.1654,1354.0895,1316.5123,-288.4473,-35.5631
5254.902,-1144.9139,884.9214,1407.363,1371.6891,-288.4829,-28.2267
5274.5098,-1097.0181,912.2054,1421.2358,1379.63,-294.4482,-29.5273
5294.1176,-1112.9119,908.9839,1430.3997,1394.6069,-290.4771,-28.2131
5313.7255,-1139.1097,873.0214,1415.2029,1378.5859,-292.4534,-33.5772
5333.3333,-1123.8604,874.039,1373.3547,1346.6215,-293.4708,-31.1835
5352.9412,-1155.1243,869.93,1383.1375,1350.6343,-290.4604,-36.5723
5372.549,-1157.8101,866.1118,1390.3546,1344.4969,-294.4647,-28.1901
5392.1569,-1076.0479,923.8919,1447.0758,1386.631,-291.4647,-16.5804
5411.7647,-1086.8268,901.1727,1433.3877,1378.5472,-291.4625,-21.166
5431.3725,-1092.0431,904.8293,1441.0591,1411.7029,-290.4689,-13.6031
5450.9804,-1146.8879,849.1235,1386.2173,1338.5272,-293.4575,-34.2363
5470.5882,-1079.9926,911.9164,1424.0797,1372.619,-290.4719,-19.5736
5490.1961,-1114.9086,865.1606,1391.1461,1345.4191,-290.456,-34.2334
5509.8039,-1102.1188,865.843,1394.1909,1345.7412,-288.4765,-32.5595
5529.4118,-1071.9988,899.3298,1419.3057,1376.2805,-293.4517,-31.1657
5549.0196,-1074.0615,886.7701,1408.2162,1375.6729,-292.4757,-31.5942
5568.6275,-1058.012,900.2275,1407.1964,1412.396,-289.4539,-32.2234
5588.2353,-1040.0891,889.7613,1400.2887,1401.8188,-290.4774,-28.609
5607.8431,-1141.0741,824.4042,1330.0859,1336.1782,-291.4508,-42.2288
5627.451,-1086.0677,871.8102,1370.433,1351.8304,-292.4787,-40.6216
5647.0588,-1145.9341,836.2976,1339.9255,1328.1031,-291.4488,-44.2551
5666.6667,-1134.8943,839.6006,1346.3738,1348.9594,-293.4792,-39.5627
5686.2745,-1092.088,869.3676,1383.9882,1385.0367,-292.4481,-41.1956
5705.8824,-1075.9238,858.603,1373.329,1365.024,-283.4851,-39.555
5725.4902,-1110.1025,791.3611,1274.7925,1281.0302,-294.4479,-47.2599
5745.098,-1130.8699,812.7911,1294.3969,1296.1105,-284.4832,-60.5962
5764.7059,-1133.1653,812.3106,1305.7148,1305.9629,-291.45,-53.2413
5784.3137,-1144.844,808.6908,1282.6288,1317.2371,-290.479,-51.548
5803.9216,-1163.2413,817.2706,1284.7583,1315.7614,-287.4543,-62.2942
5823.5294,-1161.8822,815.6082,1296.6812,1329.3206,-292.4756,-61.5338
5843.1373,-1163.3158,800.3962,1292.6359,1314.6069,-290.4553,-61.2601
5862.7451,-1161.8164,811.7398,1293.7494,1316.3822,-298.4677,-47.4828
5882.3529,-1179.3737,817.2365,1277.485,1282.522,-295.4554,-62.3314
5901.9608,-1170.7286,815.6559,1255.738,1294.6084,-297.4654,-60.5352
5921.5686,-1165.4386,809.202,1264.4703,1284.5071,-296.4587,-61.3037
5941.1765,-1179.6442,826.7036,1246.777,1268.6281,-297.4609,-62.4458
5960.7843,-1201.4399,818.2475,1247.3743,1284.4032,-296.4627,-77.3797
5980.3922,-1174.5264,826.737,1258.921,1308.7106,-297.457,-68.4736
6000,-1192.541,803.0819,1218.2144,1288.2833,-297.4664,-57.4038
6019.6078,-1150.337,843.8547,1269.135,1324.8103,-291.4562,-61.434
6039.2157,-1188.6664,837.1925,1227.1665,1290.0745,-288.4773,-66.3749
6058.8235,-1197.3573,828.9781,1222.084,1282.0018,-292.4517,-71.4101
6078.4314,-1164.865,831.0983,1242.1315,1287.0181,-290.4805,-64.4719
6098.0392,-1163.3208,824.9127,1263.2905,1283.1633,-292.4456,-73.4021
6117.6471,-1170.8674,818.0797,1246.9736,1290.8982,-291.4868,-73.4467
6137.2549,-1159.0674,823.892,1249.403,1285.17,-290.4384,-62.3225
6156.8627,-1190.8867,775.0242,1197.7904,1264.92,-291.4938,-77.5097
6176.4706,-1167.0763,788.077,1218.5144,1250.3612,-279.439,-86.3306
6196.0784,-1158.1067,808.8929,1240.7269,1275.7512,-295.4995,-80.5196
6215.6863,-1154.0679,810.1718,1184.6068,1244.3694,-291.4231,-95.3402
6235.2941,-1125.105,833.9054,1196.7046,1278.5862,-291.5094,-77.5635
6254.902,-1151.7843,829.249,1168.5712,1254.5751,-292.4138,-94.2612
6274.5098,-1104.1512,837.7369,1185.6161,1278.4825,-286.5215,-78.5554
6294.1176,-1117.7225,789.1296,1167.8231,1250.6899,-295.4034,-89.2318
6313.7255,-1107.298,799.8509,1173.4526,1245.3491,-288.5292,-92.6207
6333.3333,-1130.777,798.2737,1166.848,1226.8146,-290.3975,-91.2213
6352.9412,-1143.3197,790.7007,1147.292,1217.26,-290.5367,-94.6702
6372.549,-1162.6772,773.2737,1127.994,1210.9274,-291.3899,-96.1912
6392.1569,-1133.3267,776.5894,1113.1727,1184.1354,-290.545,-95.663
6411.7647,-1118.536,799.493,1130.0377,1195.8873,-291.379,-92.1264
6431.3725,-1103.3994,788.6177,1128.9923,1224.0015,-290.5558,-97.7096
6450.9804,-1095.4449,793.513,1141.1117,1227.9536,-291.368,-94.1159
6470.5882,-1051.5598,825.4955,1168.9196,1259.8728,-292.5654,-94.7582
6490.1961,-1069.2864,816.4938,1136.2606,1228.05,-293.3565,-92.0691
6509.8039,-1048.5673,830.3915,1139.7566,1224.8644,-296.5734,-96.7164
6529.4118,-1056.28,789.5518,1108.3779,1194.2726,-283.3524,-95.1113
6549.0196,-1067.689,815.4116,1117.7065,1215.7357,-289.5879,-98.7607
6568.6275,-1072.2039,797.6201,1098.3502,1185.3092,-289.3384,-100.0866
6588.2353,-1032.7021,822.2507,1126.6459,1224.6925,-286.6008,-95.8061
6607.8431,-1080.0002,790.7919,1095.4369,1188.3453,-295.3234,-104.0049
6627.451,-1103.7651,765.1204,1050.5571,1153.7117,-290.6086,-110.8335
6647.0588,-1102.9316,778.9803,1071.6345,1170.5447,-287.3171,-111.9622
6666.6667,-1079.9366,812.1589,1105.3621,1202.448,-293.6184,-102.8727
6686.2745,-1038.0276,808.8661,1099.6876,1212.4674,-280.3105,-96.9395
6705.8824,-1018.8527,801.9364,1100.3381,1224.4763,-293.6295,-95.8793
6725.4902,-1025.9142,802.0255,1084.7003,1221.5787,-291.2921,-97.9687
6745.098,-1011.0078,799.0574,1082.3846,1214.5292,-289.6431,-104.9372
6764.7059,-1069.9016,759.0834,1043.8735,1189.6523,-291.2834,-116.8951
6784.3137,-1069.9873,757.9317,1041.1965,1172.4022,-290.6523,-121.8867
6803.9216,-1077.7468,748.1249,1025.8536,1126.5908,-290.2719,-129.947
6823.5294,-1093.015,727.8369,1010.1406,1117.2477,-289.6647,-126.9045
6843.1373,-1111.6794,737.1548,1008.9048,1120.7378,-292.2602,-127.9115
6862.7451,-1048.1095,762.7981,1028.1683,1158.2401,-284.6788,-128.9404
6882.3529,-1036.7212,771.357,1027.0349,1165.7842,-294.2476,-119.9103
6901.9608,-1045.0729,733.7801,1024.0123,1132.3251,-287.6869,-130.9762
6921.5686,-1049.6219,714.3654,1002.1215,1133.8395,-292.2376,-128.8389
6941.1765,-1049.0214,734.5924,1011.9068,1124.3069,-291.696,-130.994
6960.7843,-1065.6086,726.293,979.1256,1100.8284,-288.2285,-139.8769
6980.3922,-1086.0374,712.7244,970.9677,1092.3168,-291.7081,-143.9907
7000,-1073.7185,721.364,962.1498,1098.7319,-290.2156,-153.8132
7019.6078,-1051.1953,734.5051,969.8558,1104.297,-291.719,-136.9843
7039.2157,-1029.6835,753.3887,955.0747,1107.7828,-293.203,-137.8361
7058.8235,-1075.0656,670.4921,921.8235,1103.2367,-292.7304,-145.0671
7078.4314,-1058.6213,691.4056,932.0577,1094.7421,-285.1968,-143.7901
7098.0392,-1051.1528,698.5536,931.9216,1069.1628,-288.743,-149.0253
7117.6471,-1101.8063,685.3917,897.1985,1037.7258,-289.184,-161.7623
7137.2549,-1089.0204,676.4786,905.8596,1038.2458,-292.7503,-160.089
7156.8627,-1098.7742,683.471,891.1799,1029.7118,-294.1714,-159.8239
7176.4706,-1060.9387,705.401,918.7614,1044.1565,-283.765,-152.0251
7196.0784,-1047.7607,702.5218,903.2393,1047.79,-289.1658,-148.7638
7215.6863,-1079.9579,677.4924,868.8119,1030.2848,-283.7758,-154.0503
7235.2941,-1106.9587,632.5276,863.1951,1002.7418,-294.1522,-166.7431
7254.902,-1112.9775,656.3035,849.8885,995.1884,-286.7829,-168.0882
7274.5098,-1101.9674,660.6375,829.168,984.62,-292.1436,-177.7911
7294.1176,-1065.809,710.3151,859.8086,1019.2097,-287.7909,-168.09
7313.7255,-1047.9307,681.5975,866.1451,1017.5937,-284.1406,-165.7738
7333.3333,-1030.6726,704.4806,889.7588,1020.3066,-289.7979,-171.0723
7352.9412,-994.1049,724.6045,906.1484,1055.614,-290.1289,-156.7411
7372.549,-1014.5963,702.3215,865.9039,1031.5171,-289.8059,-165.1052
7392.1569,-993.0886,691.542,869.9457,1021.48,-292.1199,-164.8113
7411.7647,-980.5536,727.389,890.9089,1018.5322,-282.8171,-176.0683
7431.3725,-949.1368,747.5045,920.9105,1041.3986,-289.115,-156.7435
7450.9804,-909.476,768.4501,932.0591,1068.4517,-287.8223,-156.0637
7470.5882,-837.2654,788.5573,978.981,1100.4406,-286.1089,-152.8
7490.1961,-843.4312,757.431,949.9763,1100.7096,-292.827,-149.0423
7509.8039,-867.3776,754.6211,946.8566,1096.3724,-290.0989,-163.7694
7529.4118,-866.3264,771.492,942.0688,1090.6871,-291.8325,-155.088
7549.0196,-897.501,740.5618,916.8715,1073.15,-291.0932,-165.7949
7568.6275,-854.1628,762.4307,939.1138,1077.722,-292.8372,-160.0838
7588.2353,-846.5676,774.4641,955.7589,1099.1488,-291.0883,-160.8002
7607.8431,-856.0236,767.4154,934.2239,1081.7977,-290.8444,-161.0421
7627.451,-863.7661,773.5829,935.6731,1099.0676,-288.0842,-166.7719
7647.0588,-847.7983,769.3834,952.3757,1101.8696,-289.8513,-158.0493
7666.6667,-840.8796,775.4998,947.6457,1121.0636,-286.0786,-165.8159
7686.2745,-872.8633,741.5413,924.2637,1083.0342,-292.8557,-174.0037
7705.8824,-887.8771,725.5566,903.432,1098.8745,-287.071,-171.878
7725.4902,-926.6512,717.5732,869.4537,1074.0787,-288.8658,-180.0494
7745.098,-934.0094,712.345,864.3874,1063.8557,-291.062,-188.8187
7764.7059,-950.6155,720.6289,858.5657,1074.1754,-291.8723,-186.0034
7784.3137,-984.3071,719.4446,839.3302,1044.6178,-292.0537,-190.8476
7803.9216,-980.4893,717.6376,833.6967,1068.3926,-287.8795,-202.0427
7823.5294,-1043.3818,681.3719,799.1872,1037.5713,-291.05,-212.8762
7843.1373,-1082.2482,652.6201,755.6448,1023.4651,-291.8812,-205.019
7862.7451,-1117.5627,653.2457,710.2054,992.4534,-291.0446,-219.9022
7882.3529,-1177.1926,629.5438,678.6817,978.5511,-280.894,-232.992
7901.9608,-1183.647,652.3329,689.0121,1006.4374,-294.0363,-239.9155
7921.5686,-1209.0342,641.6953,679.8591,1008.5428,-292.8924,-253.9406
7941.1765,-1302.7466,600.2109,594.8433,970.1436,-293.0313,-266.946
7960.7843,-1321.958,602.8304,571.9012,959.6255,-291.8995,-273.9331
7980.3922,-1365.9873,594.1104,535.7612,944.1533,-291.0254,-286.9585
8000,-1392.7991,557.7108,503.134,950.9047,-289.9095,-293.9198
8019.6078,-1421.1084,541.1263,467.6416,949.1003,-281.0233,-305.9176
8039.2157,-1451.6003,573.7526,477.1989,964.9048,-295.9133,-311.9771
8058.8235,-1527.2838,528.1121,384.4442,933.8339,-287.0113,-329.9678
8078.4314,-1568.4529,501.8387,348.1672,898.1289,-279.9308,-342.9289
8098.0392,-1587.4412,504.9381,336.3321,907.8466,-289.0027,-341.9987
8117.6471,-1610.3813,480.926,293.3971,896.1396,-288.9343,-353.9681
8137.2549,-1618.462,480.9033,270.3556,891.75,-290.9918,-359.0269
8156.8627,-1617.2715,485.9422,259.4936,889.3029,-291.9401,-376.9404
8176.4706,-1701.6328,424.8835,174.2385,800.5406,-290.986,-395.9726
8196.0784,-1717.037,398.9084,106.5732,775.4082,-290.9471,-411.9268
8215.6863,-1752.7988,386.8046,72.1011,751.4186,-287.9803,-415.0188
8235.2941,-1762.0453,369.1326,53.7391,761.4282,-291.9542,-424.8965
8254.902,-1740.8674,328.8403,51.9703,759.2982,-287.9734,-419.066
8274.5098,-1739.7961,334.1736,-13.95,740.5048,-292.9598,-437.8673
8294.1176,-1726.0846,307.8278,-65.8844,725.1084,-288.9657,-443.0258
8313.7255,-1769.7002,283.222,-105.9622,711.7932,-284.9731,-458.9097
8333.3333,-1743.0616,310.8069,-111.193,715.111,-287.9567,-459.0891
8352.9412,-1740.6748,299.2609,-147.8257,697.8063,-285.9825,-461.8813
8372.549,-1728.2646,301.6854,-145.311,716.9006,-288.9467,-471.0297
8392.1569,-1707.4873,295.2021,-174.6192,696.0189,-288.9913,-475.8184
8411.7647,-1733.3907,255.6169,-271.3303,647.8046,-285.9372,-487.0918
8431.3725,-1746.387,245.3297,-296.5538,631.9633,-290.0007,-500.8068
8450.9804,-1669.2869,296.6247,-273.3764,659.689,-286.9262,-492.1029
8470.5882,-1654.282,270.2221,-330.4575,618.1802,-281.0178,-496.849
8490.1961,-1592.4673,320.5759,-321.482,632.6651,-290.9121,-489.1292
8509.8039,-1588.2544,281.281,-372.3278,623.1155,-288.0247,-494.8238
8529.4118,-1520.4595,264.5712,-405.7398,610.4855,-288.9016,-499.1364
8549.0196,-1510.1692,276.3566,-436.3601,579.2518,-291.0352,-503.8467
8568.6275,-1482.636,286.5653,-446.7455,566.421,-283.8929,-514.1484
8588.2353,-1432.1044,302.3276,-454.1237,571.3489,-290.0482,-509.803
8607.8431,-1382.5848,311.3715,-455.8905,561.2747,-285.8777,-510.1231
8627.451,-1327.9609,312.5319,-449.0681,596.4805,-293.06,-508.8263
8647.0588,-1264.778,343.3141,-442.0024,607.251,-290.8618,-506.098
8666.6667,-1224.058,333.5311,-456.928,578.6913,-285.0771,-498.8184
8686.2745,-1207.6458,304.3777,-474.172,566.144,-287.852,-506.1047
8705.8824,-1171.8524,324.5004,-476.8424,593.7206,-287.0883,-506.7929
8725.4902,-1138.6952,329.3973,-487.1913,574.0464,-287.8383,-504.1857
8745.098,-1109.8044,307.6839,-494.8285,560.7757,-287.1022,-506.7842
8764.7059,-968.7244,372.3613,-444.2448,601.0938,-288.8237,-490.1596
8784.3137,-932.7324,362.6179,-444.7851,603.7796,-289.1152,-485.7204
8803.9216,-900.8511,370.1572,-476.4114,618.8918,-291.807,-480.1682
8823.5294,-847.686,373.6805,-470.5162,623.0045,-290.1299,-482.7275
8843.1373,-770.7396,409.2337,-461.4359,631.8588,-291.7927,-469.2115
8862.7451,-729.5739,415.6335,-448.4722,627.0718,-291.1425,-472.7193
8882.3529,-649.8229,376.1412,-422.5685,648.8248,-283.7832,-464.2195
8901.9608,-576.6318,411.7755,-398.4466,668.9981,-289.1601,-458.7626
8921.5686,-593.7609,399.0081,-395.7576,652.7457,-289.7634,-465.1952
8941.1765,-548.5624,415.7056,-449.363,638.1506,-283.1797,-449.7173
8960.7843,-510.9702,421.009,-444.7116,641.7365,-289.7472,-450.2041
8980.3922,-426.5075,426.7624,-423.2256,655.2578,-288.1927,-436.7276
9000,-339.8678,423.1447,-408.8484,648.6139,-283.7346,-434.2454
9019.6078,-310.6072,443.8608,-385.0457,653.2194,-290.209,-424.7006
9039.2157,-256.8384,444.0779,-363.9467,686.4187,-282.7196,-411.1835
9058.8235,-242.4632,433.9606,-384.0853,691.3663,-290.223,-412.6711
9078.4314,-175.7696,495.0427,-347.8926,725.4816,-290.6996,-398.2082
9098.0392,-118.4714,500.977,-357.9659,742.3243,-289.2393,-387.665
9117.6471,-64.9018,482.046,-360.0265,712.3812,-290.6832,-382.2519
9137.2549,-9.5877,509.0072,-339.8001,704.5221,-289.2561,-376.688
9156.8627,47.0679,536.0399,-318.1355,722.4247,-282.6714,-372.2608
9176.4706,87.2411,528.9266,-304.8444,724.5641,-292.2711,-351.6781
9196.0784,93.9656,505.9638,-317.1454,742.3514,-286.6504,-365.2552
9215.6863,126.2286,515.1292,-286.6764,762.697,-286.2926,-342.6307
9235.2941,205.9385,527.971,-273.3177,768.1689,-287.6325,-328.2453
9254.902,244.2916,548.0071,-246.5607,781.6822,-289.3067,-317.6223
9274.5098,238.1641,542.846,-240.4694,771.2698,-290.6164,-316.2393
9294.1176,271.2187,560.1395,-211.6095,759.6409,-287.323,-313.5739
9313.7255,306.9836,552.7565,-196.4256,803.1945,-287.6031,-301.2494
9333.3333,301.2189,555.2106,-194.5106,795.6713,-286.3387,-302.5974
9352.9412,330.0147,523.7599,-196.5156,776.0038,-291.5848,-293.2778
9372.549,319.1568,560.215,-156.3246,779.7348,-275.3618,-293.5506
9392.1569,340.1295,573.6475,-159.5726,799.9431,-287.5711,-283.287
9411.7647,407.1944,596.1229,-106.3097,824.7957,-286.3727,-276.6101
9431.3725,423.2056,586.7966,-103.6884,824.0937,-280.5588,-273.297
9450.9804,470.0386,598.3182,-76.0928,852.8126,-291.3833,-267.5619
9470.5882,466.1843,587.6271,-75.7875,808.9077,-292.5374,-261.2921
9490.1961,414.1395,562.2763,-94.0817,795.0109,-287.3998,-262.5469
9509.8039,431.3855,590.614,-69.842,785.9375,-284.5309,-254.2853
9529.4118,492.9747,619.3599,-15.0112,824.0798,-285.4119,-240.5153
9549.0196,474.3691,592.5244,-3.8318,816.8271,-292.515,-249.2968
9568.6275,522.957,623.288,32.8559,832.1115,-293.419,-232.5213
9588.2353,522.3879,609.5518,22.7802,812.7918,-287.5043,-241.3245
9607.8431,492.0285,553.314,-10.7546,783.1359,-291.4334,-235.492
9627.451,469.4127,594.608,16.6764,802.8719,-285.4929,-231.3352
9647.0588,474.0236,576.4767,28.0691,792.0056,-290.4461,-221.53
9666.6667,496.4008,604.5092,53.6203,816.7258,-290.4789,-207.4014
9686.2745,506.8518,605.4745,69.0446,816.2277,-274.4657,-220.4628
9705.8824,566.5511,615.4922,99.6107,834.7876,-288.4711,-209.3432
9725.4902,530.9097,599.4656,83.3285,807.2149,-291.464,-206.5012
9745.098,543.5878,585.4106,78.443,797.7344,-286.4636,-209.3569
9764.7059,542.926,617.6644,128.3943,824.281,-291.4718,-200.432
9784.3137,541.6544,607.4077,121.4156,828.6291,-288.4562,-195.4226
9803.9216,499.7196,580.5348,115.3318,780.1299,-288.4793,-198.4012
9823.5294,549.5828,622.2786,158.372,807.7815,-288.4498,-189.3846
9843.1373,571.7627,630.714,153.5063,809.1883,-287.4855,-179.4361
9862.7451,535.6023,627.2082,154.2132,825.6384,-289.4452,-182.4678
9882.3529,543.6844,598.7744,144.5445,781.2355,-285.4913,-177.4041
9901.9608,503.6571,597.1307,165.1226,799.5341,-283.4441,-171.4262
9921.5686,498.7321,588.6573,173.672,776.2083,-288.494,-176.4264
9941.1765,539.8405,593.1962,236.0794,815.7062,-290.4352,-171.4399
9960.7843,537.704,575.7453,219.6012,795.3856,-292.4958,-165.3578
9980.3922,515.7718,584.066,209.0975,789.5932,-289.4326,-174.4348
10000,531.5288,597.8278,245.7115,804.2322,-288.499,-163.3293
10019.6078,511.8568,615.1393,233.9995,806.6174,-288.4352,-154.4472
10039.2157,498.6334,621.003,248.8001,800.2548,-289.4953,-147.3505
10058.8235,470.9203,615.9523,292.907,783.4589,-295.432,-149.4587
10078.4314,514.5934,650.8729,345.9459,838.3458,-275.5045,-144.3552
10098.0392,516.962,637.0842,341.9191,849.4969,-284.4386,-143.5045
10117.6471,523.5526,661.0856,391.0021,865.5035,-289.4966,-125.3057
10137.2549,479.9616,654.9647,384.9027,853.4818,-290.4355,-135.5332
10156.8627,538.4255,699.1771,425.0788,897.4935,-287.4946,-123.2752
10176.4706,430.9146,622.9262,387.8557,821.4969,-290.4391,-123.5265
10196.0784,459.5158,641.0956,449.0323,874.3618,-288.4908,-123.264
10215.6863,455.9107,622.8705,464.6358,864.6067,-291.4431,-122.4856
10235.2941,444.3809,616.0947,474.2807,909.5113,-290.4834,-122.2848
10254.902,487.9122,657.8171,532.5912,921.5966,-290.4507,-106.5334
10274.5098,473.5083,654.1857,533.3225,928.4565,-289.4763,-112.2728
10294.1176,452.8745,653.6571,593.6658,956.5122,-286.4617,-101.5415
10313.7255,470.4206,655.325,600.3217,985.4719,-290.466,-87.2624
10333.3333,485.9747,683.6374,629.5554,980.4865,-291.4698,-93.5657
10352.9412,472.371,673.3134,614.366,968.4362,-292.4525,-93.2217
10372.549,473.9373,685.5245,614.4375,965.5469,-280.4892,-88.5736
10392.1569,472.3618,685.4826,662.4216,962.5523,-289.4423,-93.2131
10411.7647,455.9962,687.6339,668.424,968.501,-290.496,-79.5415
10431.3725,460.2892,676.4548,692.5968,987.5831,-291.4269,-82.2428
10450.9804,475.9457,702.4896,719.3925,1025.5081,-292.5082,-57.5278
10470.5882,474.2946,697.4727,722.5599,1042.4878,-289.4144,-63.2029
10490.1961,503.9978,725.5562,764.3364,1040.4408,-294.5209,-61.5699
10509.8039,461.3596,686.5051,712.7015,975.387,-289.4009,-71.1802
10529.4118,422.0563,697.4056,746.428,999.4175,-280.544,-63.593
10549.0196,410.3163,714.6619,776.6771,1010.5275,-284.3892,-64.2432
10568.6275,401.0285,693.2493,763.3919,1006.5709,-287.5549,-63.5957
10588.2353,370.4325,691.8011,786.6116,992.425,-288.3716,-67.2236
10607.8431,376.9275,683.2563,797.3721,1001.5327,-291.5677,-65.6156
10627.451,420.3787,726.8559,866.7139,1052.5778,-288.3553,-57.2228
10647.0588,342.0894,661.1631,820.3709,1040.4597,-290.5856,-59.5629
10666.6667,362.3119,709.8313,868.6725,1077.3892,-287.3373,-45.2043
10686.2745,369.0393,682.0781,878.2479,1045.5187,-287.6062,-49.5634
10705.8824,310.3791,654.7737,863.7476,1011.5311,-284.3196,-56.1719
10725.4902,333.1076,668.2033,892.2186,1040.4927,-291.6237,-49.5612
10745.098,310.372,673.829,866.7775,1031.4987,-291.2968,-52.2254
10764.7059,284.0301,690.2034,914.1573,1048.5033,-283.6471,-57.543
10784.3137,253.1859,678.8442,907.8981,1044.5144,-287.279,-52.2295
10803.9216,231.0026,690.1597,898.222,1012.5636,-285.6677,-48.589
10823.5294,210.2468,682.9969,902.7436,1025.3464,-286.2574,-54.2522
10843.1373,204.9332,679.9612,923.1824,1026.677,-287.6882,-59.5478
10862.7451,183.2932,654.0725,918.8884,1043.4122,-289.2329,-55.2268
10882.3529,195.9515,684.0298,961.2796,1063.7279,-295.7051,-36.555
10901.9608,167.2923,683.9276,955.9045,1035.3893,-285.2143,-52.2527
10921.5686,186.0925,695.879,1004.3326,1070.699,-291.7295,-45.5812
10941.1765,140.3469,690.0182,989.9113,1049.2483,-284.1921,-49.2777
10960.7843,153.011,696.9249,1017.2576,1065.6837,-286.757,-53.554
10980.3922,150.2041,716.1989,1033.8079,1070.2468,-290.1654,-53.2373
11000,147.967,702.9401,1045.2476,1066.7667,-289.7769,-54.507
11019.6078,109.2292,693.1079,1042.8315,1071.2577,-292.1426,-46.2325
11039.2157,126.0577,673.7374,1036.2303,1066.8048,-287.7997,-46.5121
11058.8235,93.2385,661.1528,1053.7896,1075.2128,-285.1241,-46.2453
11078.4314,80.9226,687.7574,1056.2701,1092.9384,-273.8313,-44.4777
11098.0392,98.2836,683.2241,1056.7802,1079.1627,-279.1044,-39.3322
11117.6471,64.0597,688.8182,1044.2531,1068.8033,-292.8449,-45.5119
11137.2549,46.129,663.1393,1032.6327,1036.1929,-282.0767,-57.3327
11156.8627,105.0491,699.8298,1077.4492,1080.0112,-289.8726,-29.4383
11176.4706,98.2692,693.1957,1046.589,1048.1295,-290.0469,-53.3165
11196.0784,82.0528,679.7189,1092.3457,1100.0522,-288.8953,-41.4353
11215.6863,122.1516,711.149,1107.6803,1105.9236,-293.0255,-31.3166
11235.2941,55.9868,664.7913,1094.5447,1060.9792,-290.9139,-52.3805
11254.902,65.1845,688.2501,1107.6299,1088.8268,-288.0056,-46.3344
11274.5098,119.1127,741.7314,1133.5776,1118.0626,-287.9393,-30.4254
11294.1176,113.1531,729.3054,1133.6118,1131.8792,-290.9817,-33.3736
11313.7255,72.0184,709.7456,1094.6764,1098.1438,-285.9632,-46.3667
11333.3333,52.2419,704.2487,1095.4639,1070.8066,-288.9591,-44.4491
11352.9412,68.9632,686.8384,1100.7651,1064.3418,-289.9854,-51.3423
11372.549,40.1854,660.1567,1072.3722,1054.7522,-290.9324,-43.4188
11392.1569,-24.7832,654.8682,1035.8402,1015.4006,-292.0091,-57.2806
11411.7647,-19.6297,683.2819,1071.4515,1040.5938,-292.9088,-46.424
11431.3725,-58.7261,671.7286,1044.7333,1032.5117,-277.0396,-51.2902
11450.9804,-23.5857,686.3008,1082.3656,1046.6229,-293.8864,-50.482
11470.5882,-47.7397,648.841,1064.843,1038.4861,-292.0512,-52.225
11490.1961,-68.5198,627.291,1042.2513,1015.4053,-283.8703,-59.5433
11509.8039,-126.574,624.877,1024.9001,994.6165,-289.075,-61.2284
11529.4118,-122.6568,630.3024,1057.2458,998.4919,-287.8483,-60.5367
11549.0196,-120.625,646.9456,1050.179,1000.6016,-285.0996,-59.1788
11568.6275,-146.7786,631.1476,1053.0748,999.2437,-290.8222,-63.5471
11588.2353,-184.5696,629.9011,1032.1948,979.8687,-294.1169,-63.1832
11607.8431,-190.6153,639.1185,1039.0046,978.3295,-285.8044,-64.6273
11627.451,-194.6246,630.799,1038.3243,1000.7871,-290.1394,-65.1682
11647.0588,-219.7712,619.2101,1019.9788,988.1207,-291.7803,-64.6561
11666.6667,-204.4657,632.9841,1043.3657,994.9803,-288.1613,-66.1031
11686.2745,-216.7199,626.1037,1040.7776,992.0346,-287.7635,-63.6312
11705.8824,-230.4895,647.0728,1037.4536,988.9783,-280.1844,-63.0839
11725.4902,-294.7494,597.1082,996.7746,943.9794,-291.7433,-69.7151
11745.098,-293.5448,598.0658,1014.5425,936.0709,-291.1965,-79.0149
11764.7059,-355.9053,587.1268,985.7004,920.9557,-289.7253,-80.7097
11784.3137,-294.3966,625.1169,1007.757,947.309,-287.2163,-81.0012
11803.9216,-339.9487,563.9631,981.5154,922.7505,-290.7083,-81.7053
11823.5294,-328.3235,589.0686,1001.8408,936.2554,-288.2315,-77.9862
11843.1373,-330.7772,597.8541,987.4523,926.6589,-291.691,-78.7535
11862.7451,-340.3462,626.0726,993.993,935.5123,-286.2501,-82.9523
11882.3529,-330.8251,637.9917,1013.3945,945.4954,-290.6745,-77.8214
11901.9608,-351.2613,609.2714,980.1165,920.4711,-288.2656,-79.9342
11921.5686,-374.9084,601.8589,973.2615,937.4058,-293.6555,-74.8689
11941.1765,-427.2516,563.2882,950.0967,881.6481,-289.2815,-93.8512
11960.7843,-397.9686,589.699,968.1984,904.2704,-286.6439,-82.8843
11980.3922,-375.2879,611.3206,991.3307,927.822,-292.2946,-74.8693
12000,-388.1631,604.7694,965.9398,909.223,-284.6328,-85.9007
12019.6078,-447.318,567.3029,933.3393,871.7666,-288.3099,-87.8166
12039.2157,-441.2477,571.6376,917.8272,866.1984,-290.6147,-85.9341
12058.8235,-422.082,588.3313,955.6332,895.0114,-291.3218,-80.767
12078.4314,-420.2729,598.592,984.8776,903.965,-290.6013,-83.9477
12098.0392,-417.2348,598.5433,964.5695,915.9317,-288.337,-77.7546
12117.6471,-430.1955,582.535,927.7252,899.0242,-292.5866,-90.0342
12137.2549,-438.2251,587.5905,932.8362,902.1469,-289.349,-88.6894
12156.8627,-468.3827,602.5618,917.4971,888.8297,-285.5798,-90.0653
12176.4706,-467.1092,603.6529,916.8115,895.3021,-295.3555,-88.6595
12196.0784,-487.5133,581.3117,926.4227,886.8392,-290.5658,-90.0949
12215.6863,-478.0245,583.637,942.9745,910.3356,-288.371,-93.6295
12235.2941,-448.6008,635.2497,978.3904,949.6312,-288.5569,-81.0919
12254.902,-422.9807,650.7026,1002.0677,980.485,-288.3809,-77.6339
12274.5098,-385.5829,662.1799,995.2886,974.5673,-288.5477,-74.1084
12294.1176,-413.9565,673.9021,992.2946,995.5219,-289.3906,-59.6224
12313.7255,-423.5661,624.0754,952.1298,963.5332,-288.5374,-78.1744
12333.3333,-451.8236,629.0332,949.3631,924.7289,-281.4052,-80.561
12352.9412,-438.7578,619.0191,947.0623,918.4213,-284.5298,-81.1866
12372.549,-461.8567,621.9784,947.5381,936.8077,-291.4093,-93.5198
12392.1569,-455.9301,626.0635,958.7838,944.1969,-288.5167,-90.2512
12411.7647,-403.7672,660.0771,1012.6531,996.848,-289.4196,-73.4967
12431.3725,-392.919,665.9608,1011.8344,984.2813,-288.5082,-76.2461
12450.9804,-419.7193,628.1786,994.6867,946.8749,-291.4262,-83.4739
12470.5882,-437.0427,631.7301,975.5532,918.1379,-287.5008,-85.3087
12490.1961,-475.7616,592.166,951.7469,910.9868,-287.4381,-84.5042
12509.8039,-449.1676,634.6772,980.6122,936.9937,-291.4894,-80.3358
12529.4118,-486.6828,615.3655,954.8629,933.9919,-287.4464,-82.4655
12549.0196,-481.2397,643.6691,982.4359,960.8876,-290.4829,-93.3475
12568.6275,-454.6493,651.3155,978.003,953.2149,-294.4487,-78.4101
12588.2353,-412.3112,665.6216,1018.2681,1005.8183,-278.4833,-64.3389
12607.8431,-417.5771,678.4083,1010.1777,1002.3103,-287.4597,-70.4087
12627.451,-436.2763,658.4055,1005.244,997.7449,-280.4763,-78.3978
12647.0588,-507.5899,616.4637,943.1144,931.2737,-285.4669,-95.397
12666.6667,-533.4185,625.4739,964.0252,955.5965,-292.4628,-89.3851
12686.2745,-515.6407,620.6521,947.2983,945.4429,-291.4682,-88.3624
12705.8824,-542.485,617.3885,949.9251,941.6379,-294.4581,-94.406
12725.4902,-547.5692,599.7644,936.4178,929.5195,-276.4814,-94.403
12745.098,-601.5115,599.1519,916.8831,926.6271,-287.4572,-94.4243
12764.7059,-593.5284,605.8909,905.515,932.5287,-294.4761,-103.3379
12784.3137,-617.5886,594.1001,917.8524,937.4966,-291.4485,-106.4615
12803.9216,-620.4144,562.7476,878.4858,901.4635,-291.4823,-112.3603
12823.5294,-641.76,570.0363,877.7142,931.3333,-288.4465,-111.4791
12843.1373,-653.4321,568.0086,872.7638,898.5801,-290.488,-126.2972
12862.7451,-685.8928,550.0709,867.4932,901.3942,-278.4487,-117.4593
12882.3529,-751.3071,520.9714,824.8472,859.714,-282.4958,-126.2893
12901.9608,-723.8701,567.9337,849.5368,898.1877,-292.4359,-127.4738
12921.5686,-781.2557,538.9834,795.8784,856.6146,-289.496,-134.3495
12941.1765,-811.1398,539.7731,800.3718,867.2141,-288.4345,-139.5024
12960.7843,-813.1846,532.1252,787.9862,872.8524,-288.5002,-142.3273
12980.3922,-802.0101,519.8237,789.3061,863.1747,-288.4303,-139.5144
13000,-810.0598,537.1623,805.9251,891.8242,-293.5004,-143.2868
13019.6078,-816.1015,522.7826,778.2484,874.0728,-288.4295,-153.557
13039.2157,-816.1411,529.2287,796.9572,894.8043,-289.5043,-155.3011
13058.8235,-854.2746,505.6576,750.1949,874.0449,-289.4256,-159.5279
13078.4314,-896.0526,502.2769,738.0526,870.8619,-292.5053,-171.3501
13098.0392,-914.3659,496.5158,715.0298,856.1253,-281.4288,-178.5697
13117.6471,-894.0339,510.3229,757.2711,856.7943,-290.5078,-173.2816
13137.2549,-912.4475,472.4816,708.9343,840.96,-289.4225,-169.5364
13156.8627,-919.8364,478.3864,709.3324,839.985,-288.5117,-188.2835
13176.4706,-955.4541,469.4018,687.9862,844.0891,-292.4179,-195.5919
13196.0784,-941.9001,482.5388,664.1891,834.9573,-287.5143,-194.3378
13215.6863,-992.5399,434.3491,627.8699,817.9896,-292.4154,-211.5581
13235.2941,-993.7633,480.4233,642.2899,808.8899,-288.5162,-208.2891
13254.902,-953.5899,473.4253,661.8182,848.0589,-290.4148,-201.5547
13274.5098,-968.7422,477.4353,655.4644,814.9953,-281.5223,-208.2966
13294.1176,-971.6098,483.3281,649.7068,827.0099,-294.412,-216.5515
13313.7255,-921.5844,529.5439,671.438,878.9543,-291.5159,-206.373
13333.3333,-956.546,482.4321,629.6343,816.0601,-287.4148,-216.5474
13352.9412,-954.6136,487.6469,609.4947,820.0591,-295.5153,-219.3652
13372.549,-983.7561,477.2157,607.6228,807.0113,-293.4091,-227.5922
13392.1569,-954.5632,514.6841,611.4661,845.9344,-283.5235,-219.3768
13411.7647,-941.7381,500.3101,602.6195,840.0291,-298.4073,-220.5671
13431.3725,-954.518,485.7529,600.5294,840.0405,-274.5291,-225.354
13450.9804,-955.8018,506.3339,591.5889,844.0236,-291.4113,-224.5046
13470.5882,-929.4872,500.6829,604.6583,866.9667,-289.5196,-233.3498
13490.1961,-954.7567,500.2589,562.4787,820.0355,-291.4107,-237.5645
13509.8039,-910.3668,515.6182,571.5504,834.9953,-286.5221,-233.3632
13529.4118,-912.9478,512.1303,555.3355,824.8785,-284.4148,-238.5153
13549.0196,-922.3789,469.5953,546.6024,817.9427,-289.5212,-251.4509
13568.6275,-882.9621,531.1447,566.285,852.0227,-284.4136,-236.4833
13588.2353,-931.3298,495.7379,528.7507,853.8956,-286.5235,-244.4515
13607.8431,-909.9355,493.1163,526.22,832.0578,-287.4107,-247.5182
13627.451,-862.2745,484.7169,534.5753,854.9258,-290.5235,-245.4358
13647.0588,-886.9606,489.2306,537.3927,836.0727,-278.4149,-251.4495
13666.6667,-866.1855,498.7485,543.6243,857.8479,-292.5223,-247.4721
13686.2745,-874.0642,497.2381,536.3015,836.9393,-278.4148,-248.4487
13705.8824,-860.2344,490.7388,542.7764,834.8928,-285.528,-246.5284
13725.4902,-954.0525,450.1397,458.356,753.0288,-283.41,-276.4106
13745.098,-893.2783,483.5959,510.7159,810.8864,-292.5228,-260.4991
13764.7059,-844.0958,505.2654,528.291,836.9897,-288.407,-260.4233
13784.3137,-821.1706,493.7238,524.7072,832.7267,-286.5268,-253.5083
13803.9216,-797.0172,507.2332,532.1547,869.2026,-285.4097,-240.3985
13823.5294,-843.0456,480.5164,494.7886,810.8195,-288.5244,-253.5323
13843.1373,-779.0685,521.3099,535.1648,851.1543,-289.4084,-246.339
13862.7451,-838.1882,462.5486,495.6439,764.7127,-289.5244,-266.6276
13882.3529,-791.1392,499.2962,534.2965,823.2078,-284.4112,-255.3504
13901.9608,-769.1392,513.5179,549.6702,862.7103,-280.529,-252.6158
13921.5686,-724.9891,522.4593,549.1458,859.215,-287.4097,-238.3067
13941.1765,-760.1273,494.4591,502.733,829.6399,-283.526,-244.6601
13960.7843,-719.1044,535.457,531.2751,836.3161,-292.408,-249.2485
13980.3922,-716.0495,523.3832,533.7162,823.7095,-288.5215,-250.6513
14000,-732.0561,494.437,523.3115,813.2075,-288.4121,-253.2613
14019.6078,-684.0339,511.4533,525.7327,834.6131,-292.518,-239.71
14039.2157,-667.2171,512.4268,537.3231,807.3642,-286.4148,-238.2346
14058.8235,-659.9068,521.3447,510.643,795.4391,-284.5212,-241.7545
14078.4314,-653.2106,487.6235,501.1803,797.3118,-291.4131,-240.2256
14098.0392,-693.8281,452.3577,501.5746,802.5471,-291.5162,-244.7628
14117.6471,-686.0911,445.5391,448.2506,713.4194,-286.4171,-255.2011
14137.2549,-722.9308,433.2868,436.5494,710.3705,-286.5183,-265.7549
14156.8627,-691.1541,452.7233,474.3132,769.4163,-287.4175,-249.1221
14176.4706,-675.7928,474.2893,472.4643,750.503,-292.513,-241.8329
14196.0784,-630.2599,505.7321,518.2554,788.3969,-292.415,-243.1302
14215.6863,-642.6841,502.098,506.4319,766.4436,-283.5171,-250.8087
14235.2941,-630.2632,500.8289,508.3863,774.5595,-289.4189,-247.1373
14254.902,-659.7455,462.0566,476.4714,719.2719,-291.5104,-265.8363
14274.5098,-638.1625,473.8824,486.4701,725.5991,-283.4243,-253.0753
14294.1176,-662.7906,463.9349,459.4199,716.2744,-281.5161,-257.8775
14313.7255,-613.1995,500.9579,524.3916,758.6754,-293.4183,-248.0504
14333.3333,-568.7784,509.0309,528.4687,790.275,-275.519,-239.9189
14352.9412,-526.2256,545.9775,542.5129,813.6248,-292.4203,-232.0626
14372.549,-534.5729,535.976,540.2584,814.2068,-288.5098,-234.9418
14392.1569,-480.2344,560.9602,580.4425,810.7262,-290.4228,-238.0051
14411.7647,-535.632,503.7078,539.3502,787.0234,-291.5086,-232.9455
14431.3725,-519.2615,499.2218,526.4567,773.7511,-275.4331,-242.0187
14450.9804,-478.6293,546.6421,570.2927,782.1358,-295.5024,-227.9669
14470.5882,-516.2133,527.1729,525.6545,776.7476,-276.4355,-235.9434
14490.1961,-495.4673,534.686,532.1345,781.031,-283.5075,-240.9738
14509.8039,-473.3004,532.2097,560.5808,810.8771,-295.4247,-237.937
14529.4118,-472.4234,521.6516,545.1996,802.0114,-277.5098,-235.9953
14549.0196,-454.271,543.2985,540.8355,815.9734,-289.4297,-225.9001
14568.6275,-457.4725,563.5156,555.0427,785.9885,-287.5024,-237.063
14588.2353,-501.4025,492.3641,488.8053,736.9199,-286.4335,-245.8821
14607.8431,-461.3856,549.3957,565.9503,793.931,-279.5054,-241.031
14627.451,-420.3672,557.4782,596.9197,817.1096,-283.4383,-235.864
14647.0588,-435.4926,529.444,562.011,809.8732,-290.4956,-234.0289
14666.6667,-415.361,552.5744,594.8329,836.0895,-286.4383,-226.9003
14686.2745,-419.2426,561.3597,562.7944,793.8376,-290.4935,-235.0967
14705.8824,-426.3401,546.5967,564.9882,820.152,-282.4433,-229.868
14725.4902,-450.2975,516.3466,542.7126,790.6431,-289.4919,-236.074
14745.098,-448.5013,530.6695,569.143,803.1553,-289.4399,-233.8022
14764.7059,-440.1696,536.1624,550.6053,779.6604,-287.4936,-246.0865
14784.3137,-547.5759,481.6777,451.0465,737.1464,-290.4386,-264.8428
14803.9216,-519.2119,490.0739,477.5574,775.6158,-294.4875,-255.1339
14823.5294,-579.5915,493.8495,466.1953,758.2291,-292.4409,-265.7937
14843.1373,-539.0947,502.1095,475.5408,803.5532,-280.494,-247.1624
14862.7451,-602.6356,457.8219,422.3666,743.3391,-275.4539,-268.7668
14882.3529,-583.0857,465.9584,417.3335,769.6365,-295.4823,-266.1183
14901.9608,-660.7336,470.8475,352.283,722.3503,-282.4511,-281.83
14921.5686,-689.0753,470.8698,352.2425,751.4989,-282.4868,-278.1436
14941.1765,-698.6774,443.8878,319.4361,735.4339,-286.4523,-290.7693
14960.7843,-710.0602,464.9762,304.1482,793.5244,-293.4768,-286.1338
14980.3922,-681.8373,477.0171,331.5928,840.4506,-283.4565,-281.8135
15000,-759.9725,418.8867,258.1958,798.3164,-285.4806,-301.141
15019.6078,-911.6992,354.115,132.5908,737.4204,-289.4557,-330.7569
15039.2157,-901.902,381.6537,122.0538,755.3519,-282.4801,-327.2008
15058.8235,-961.8966,349.2048,80.8263,740.4211,-281.4628,-335.7493
15078.4314,-959.9042,372.7478,71.8066,750.2676,-284.4749,-338.1676
15098.0392,-979.8961,336.2913,53.8106,772.6495,-291.4603,-342.7621
15117.6471,-973.89,350.6476,46.7278,824.2664,-289.4688,-347.2068
15137.2549,-1013.0102,332.2465,4.8447,825.7056,-289.4644,-356.7954
15156.8627,-1059.9424,300.6818,-65.0911,765.324,-289.4647,-362.2078
15176.4706,-1055.9918,297.2795,-87.8177,781.5753,-284.4717,-369.7756
15196.0784,-1002.7127,333.4772,-105.2367,789.2582,-287.4631,-362.2094
15215.6863,-1026.0151,303.3788,-123.653,767.7385,-290.4711,-373.8088
15235.2941,-1039.6967,225.3848,-210.3843,732.2069,-293.4554,-395.1952
15254.902,-1031.0767,277.2786,-226.6362,789.6664,-290.4761,-382.7554
15274.5098,-998.6789,293.4203,-234.3881,812.1026,-289.4533,-381.1563
15294.1176,-1026.0745,256.3542,-304.44,772.883,-290.4804,-395.7396
15313.7255,-1011.5684,246.4824,-346.6564,765.1416,-280.453,-392.209
15333.3333,-1053.0542,235.4329,-396.439,711.9291,-288.4884,-407.7559
15352.9412,-971.6469,262.442,-409.8378,751.006,-291.4399,-398.1719
15372.549,-944.1948,234.3947,-453.1373,746.9019,-289.4932,-399.7743
15392.1569,-921.6617,206.4319,-520.8176,736.0169,-290.4353,-402.2064
15411.7647,-891.2142,218.4304,-532.0192,744.8388,-287.5,-404.777
15431.3725,-852.6046,214.398,-562.909,749.0137,-291.4285,-395.1865
15450.9804,-803.1706,211.5491,-568.9111,750.9889,-288.5053,-392.7586
15470.5882,-781.5854,210.2597,-616.201,718.8846,-282.4292,-392.2014
15490.1961,-717.0906,176.5697,-631.8455,736.1019,-292.5079,-396.7951
15509.8039,-668.5056,169.1743,-667.3381,718.8372,-287.4203,-402.1999
15529.4118,-616.1088,154.5613,-697.8014,711.1234,-297.5107,-406.7948
15549.0196,-504.376,204.1571,-696.308,733.7204,-285.4156,-399.2156
15568.6275,-433.1935,219.6259,-689.7137,748.1936,-290.5215,-393.8134
15588.2353,-344.4272,243.2388,-717.5381,751.7536,-288.4059,-379.2149
15607.8431,-240.2062,240.6077,-795.4843,724.2612,-281.5348,-372.7629
15627.451,-197.3879,186.1658,-868.7679,697.6383,-285.3999,-374.2151
15647.0588,-89.2579,183.5927,-885.3115,689.1919,-291.5367,-362.759
15666.6667,-45.3268,209.0428,-906.7891,679.4962,-289.3914,-363.1639
15686.2745,39.5547,234.6176,-900.244,691.3484,-287.5467,-348.8087
15705.8824,148.5889,287.0365,-872.9085,720.4659,-291.3805,-335.1791
15725.4902,331.5918,338.7966,-880.0941,724.4269,-288.5568,-317.7551
15745.098,413.6884,326.1243,-872.188,724.4025,-290.3703,-303.164
15764.7059,542.791,332.7662,-867.9028,741.3168,-291.5638,-285.733
15784.3137,618.5414,337.1315,-843.2656,753.3763,-293.3594,-281.1479
15803.9216,728.803,359.7968,-835.9097,770.4072,-288.5751,-264.7646
15823.5294,731.6005,333.0153,-887.3008,694.4221,-288.3543,-268.1668
15843.1373,973.741,398.7008,-813.6161,746.4745,-287.5836,-233.7091
15862.7451,1053.6571,398.0465,-821.568,745.2752,-288.3471,-218.17
15882.3529,1134.7898,423.7844,-832.6376,758.5252,-287.5934,-212.7357
15901.9608,1202.6274,449.0302,-823.6346,780.3483,-289.3339,-190.1936
15921.5686,1374.9127,470.9042,-801.518,780.6606,-287.6074,-169.7489
15941.1765,1444.7078,469.1093,-807.8393,800.2731,-287.323,-157.1277
15960.7843,1663.916,522.786,-737.244,839.6203,-288.6177,-111.6697
15980.3922,1781.6584,539.98,-716.9124,853.2345,-289.3121,-95.2007
16000,1851.9272,563.8637,-655.1057,864.7123,-288.6251,-86.6605
16019.6078,1961.7235,589.0203,-639.9824,880.103,-289.3019,-72.1382
16039.2157,2018.0208,620.9205,-614.0865,904.7339,-289.6347,-41.6513
16058.8235,2103.6658,630.9351,-591.0272,926.1154,-290.2929,-41.1827
16078.4314,2225.981,662.8591,-557.9954,944.9727,-289.644,-16.638
16098.0392,2281.7554,675.0063,-509.14,946.0411,-287.2823,1.7032
16117.6471,2331.1802,692.0434,-487.7072,953.8655,-289.6566,11.2697
16137.2549,2405.7224,719.9465,-404.2206,980.0655,-290.2687,33.7103
16156.8627,2411.1885,698.967,-409.6701,972.0091,-288.6697,46.2828
16176.4706,2544.5874,737.0081,-368.3893,1008.8334,-286.2576,47.734
16196.0784,2628.1367,772.8916,-334.4343,1050.109,-289.6833,86.2983
16215.6863,2635.6912,749.9604,-346.543,1019.9301,-288.2441,90.7034
16235.2941,2632.3452,729.8962,-357.351,1005.1454,-288.6949,101.3161
16254.902,2706.6394,770.9172,-291.544,1043.8638,-286.233,103.6717
16274.5098,2778.3171,812.0282,-239.2851,1075.2476,-291.7057,126.3347
16294.1176,2827.522,837.0304,-203.6167,1066.7373,-292.217,145.6734
16313.7255,2849.3577,804.0472,-184.0771,1069.2053,-291.719,143.3708
16333.3333,2883.5466,816.0483,-186.7223,1066.673,-291.2028,161.6196
16352.9412,2889.5232,813.1453,-186.1177,1076.2119,-288.7345,165.4139
16372.549,2852.3735,771.9488,-193.9264,1039.6869,-288.1927,169.6698
16392.1569,2873.5996,779.0189,-180.8501,1023.2565,-292.7427,172.453
16411.7647,2877.5132,801.9755,-169.0482,1039.6372,-282.1861,185.6163
16431.3725,2965.6926,850.9954,-106.9239,1064.3311,-293.754,207.4765
16450.9804,2973.4031,830.9179,-95.0999,1048.6332,-286.1704,214.631
16470.5882,2974.7512,831.1348,-99.7269,1069.432,-282.7738,220.4809
16490.1961,3011.2419,852.9468,-60.0942,1081.402,-288.1566,228.5618
16509.8039,2986.884,868.106,-27.7481,1074.5289,-286.7832,234.453
16529.4118,3013.1382,886.856,-1.4028,1080.5143,-295.14,249.5926
16549.0196,3000.999,878.0745,2.4706,1069.5369,-291.7924,249.4806
16568.6275,2974.0701,856.7985,14.4553,1064.4828,-288.1321,257.5539
16588.2353,2980.0398,868.1517,28.3675,1089.5613,-285.8087,273.5391
16607.8431,3009.052,886.8161,72.5093,1114.2954,-275.129,279.5508
16627.451,3004.0149,923.2784,127.4516,1125.5817,-287.8181,289.5317
16647.0588,3021.8938,900.8394,125.4015,1132.3394,-292.106,298.4763
16666.6667,3001.2566,914.2269,143.4446,1132.785,-285.8326,301.5745
16686.2745,2988.9578,921.7914,203.2772,1133.3555,-291.0929,298.4547
16705.8824,2982.2856,933.2598,229.5929,1156.8043,-287.8444,315.6363
16725.4902,2958.866,932.7979,249.3057,1164.2438,-292.0817,330.4526
16745.098,2943.3762,910.158,249.6607,1166.7319,-289.8529,337.6788
16764.7059,2933.8132,945.7498,304.3726,1194.2877,-283.0779,332.4483
16784.3137,2885.4065,930.2718,292.5381,1164.8757,-285.8652,345.6869
16803.9216,2897.5789,959.7852,374.2971,1222.2349,-289.0635,353.4811
16823.5294,2861.3936,942.3857,363.6039,1209.9263,-284.8762,348.6933
16843.1373,2827.6077,961.7175,366.3165,1202.224,-287.0531,353.4615
16862.7451,2825.5479,980.2192,411.6301,1215.0011,-278.8946,363.7175
16882.3529,2791.3796,977.7039,408.28,1219.2448,-286.0402,376.4271
16901.9608,2772.605,983.2507,432.737,1223.8519,-284.903,370.7552
16921.5686,2722.5054,958.6732,474.36,1207.2344,-292.0244,372.3727
16941.1765,2684.6133,935.2953,475.7979,1194.0049,-277.9192,370.7772
16960.7843,2644.2012,945.6981,469.1981,1185.131,-285.018,374.3712
16980.3922,2623.7856,964.2648,505.7122,1194.016,-282.9279,376.7615
17000,2628.1238,963.8378,511.1809,1197.1149,-283.0057,387.3383
17019.6078,2591.877,961.2559,521.6343,1203.9161,-284.9407,387.8324
17039.2157,2528.1426,988.6791,575.3444,1229.0852,-288.9891,390.3059
17058.8235,2476.9373,948.3046,569.6285,1206.8715,-290.9474,387.8523
17078.4314,2457.9468,950.6337,617.343,1201.1102,-291.975,390.2908
17098.0392,2446.9827,974.4568,638.6945,1211.9133,-286.9629,397.867
17117.6471,2437.9316,985.6371,671.4095,1219.2057,-286.9668,392.2938
17137.2549,2358.0923,954.3652,654.5875,1202.0128,-285.9745,396.8249
17156.8627,2331.8303,975.6978,712.3622,1202.1874,-285.957,399.3017
17176.4706,2291.1047,978.3455,723.6311,1203.8883,-286.9844,397.888
17196.0784,2269.7617,984.7794,751.6032,1219.2549,-289.9424,401.3121
17215.6863,2205.0476,978.3437,745.527,1181.9836,-289.9955,393.8597
17235.2941,2166.7231,947.8232,772.5438,1206.2305,-290.9308,391.3045
17254.902,2127.0962,985.4774,815.4229,1238.9698,-291.005,401.8469
17274.5098,2129.6406,999.6885,841.7078,1247.2791,-288.9217,408.3177
17294.1176,2089.2395,1002.3234,900.377,1263.7644,-291.0139,413.8705
17313.7255,2081.5916,990.8375,933.696,1293.1714,-287.9143,424.279
17333.3333,2039.3302,1009.4514,963.3719,1281.8253,-289.0234,412.9078
17352.9412,2015.5745,993.6433,941.7332,1281.2073,-287.9045,418.3086
17372.549,1966.193,980.2732,950.3751,1283.8951,-288.0351,415.8896
17392.1569,1930.5155,993.6494,981.0026,1279.3562,-283.8979,417.2579
17411.7647,1858.2174,973.3539,987.3085,1268.7062,-290.0411,417.9034
17431.3725,1843.4899,974.869,1006.0709,1290.3427,-286.8874,423.3157
17450.9804,1778.277,959.2935,1000.1298,1282.7634,-289.0515,421.8448
17470.5882,1798.3149,987.8425,1047.0624,1296.4873,-287.8775,429.287
17490.1961,1738.2026,984.342,1052.9684,1302.687,-290.0594,431.8347
17509.8039,1677.3376,966.8953,1031.2446,1268.5682,-290.866,423.3296
17529.4118,1654.3058,995.3425,1061.8918,1253.6106,-289.0702,418.8407
17549.0196,1531.1677,951.7862,1068.386,1280.6257,-292.856,419.307
17568.6275,1495.2604,949.2939,1074.9033,1277.5244,-290.0774,422.8607
17588.2353,1447.2319,933.8779,1066.5778,1249.5684,-292.8477,416.3402
17607.8431,1460.2219,946.2464,1109.6515,1273.4628,-288.0878,409.8606
17627.451,1373.155,937.7875,1095.5475,1250.6897,-288.8435,412.3223
17647.0588,1400.4094,972.1434,1110.588,1246.4574,-289.0908,409.8385
17666.6667,1287.0203,949.9131,1124.7378,1256.6505,-284.8422,416.3748
17686.2745,1265.2262,969.2928,1162.3177,1272.2454,-288.0963,407.7975
17705.8824,1231.1311,953.8387,1140.8081,1272.9341,-289.8323,416.3961
17725.4902,1182.1851,934.2458,1133.3265,1249.2288,-288.1036,398.7371
17745.098,1171.1073,959.9396,1196.0663,1258.9344,-285.8265,404.403
17764.7059,1130.2579,955.1727,1219.0645,1280.0677,-289.1136,402.7463
17784.3137,1077.9792,947.0022,1190.1774,1287.0016,-286.8151,412.4109
17803.9216,1003.1813,917.1049,1182.9769,1279.9808,-288.1243,401.6652
17823.5294,998.0054,947.04,1210.3446,1287.0922,-287.807,405.4227
17843.1373,955.1859,950.1235,1213.8187,1292.9301,-291.128,400.6698
17862.7451,914.9766,936.0648,1214.589,1285.2931,-287.8025,397.4683
17882.3529,835.1107,904.0466,1205.7029,1246.7626,-287.1349,387.6544
17901.9608,788.9976,919.0349,1221.6241,1257.2039,-286.7971,385.4825
17921.5686,753.1646,888.0254,1232.467,1255.7189,-291.1383,383.5868
17941.1765,718.0195,910.2122,1261.8065,1275.3903,-278.7984,386.5682
17960.7843,716.1179,935.956,1279.4441,1294.7434,-292.1418,387.586
17980.3922,721.9697,963.2,1306.9457,1318.4042,-287.787,389.5846
18000,692.2173,964.8633,1345.1492,1334.6074,-289.1489,389.5654
18019.6078,640.9126,961.296,1366.0769,1322.7144,-283.7831,386.638
18039.2157,571.0462,940.8364,1329.0712,1308.4254,-285.1585,382.5102
18058.8235,537.9565,939.2979,1370.3204,1312.7184,-290.7722,379.6581
18078.4314,492.1539,935.8153,1350.866,1302.4355,-289.1617,374.4877
18098.0392,512.1136,951.2325,1362.5056,1303.7736,-291.7664,375.6624
18117.6471,463.0114,940.745,1373.7628,1321.2778,-289.1672,375.416
18137.2549,408.053,929.4529,1403.5361,1341.9396,-288.7613,366.7507
18156.8627,363.0927,938.745,1387.6052,1324.126,-284.1764,368.3589
18176.4706,355.9245,956.5158,1388.6174,1322.049,-286.7596,374.7716
18196.0784,315.9736,935.6716,1423.4066,1340.0197,-287.1796,361.301
18215.6863,328.9936,969.5397,1441.9348,1331.1929,-287.7521,378.8491
18235.2941,308.0814,953.5557,1440.2753,1356.9708,-292.1821,372.3147
18254.902,309.0703,998.5438,1479.0907,1389.1277,-293.7451,369.8513
18274.5098,276.0692,1004.5048,1490.2853,1374.9662,-291.1849,373.2392
18294.1176,212.0346,961.6391,1452.1102,1376.1699,-293.7399,360.8573
18313.7255,214.916,968.5773,1492.0796,1376.7571,-285.1952,368.1957
18333.3333,183.1479,964.7277,1489.2806,1370.387,-285.7409,367.9203
18352.9412,212.9525,1004.4094,1550.9424,1414.7495,-287.1969,379.2103
18372.549,157.0897,1013.613,1533.5333,1386.4603,-285.7385,361.9946
18392.1569,62.8592,962.4332,1467.9481,1327.5696,-289.1978,356.0998
18411.7647,60.0524,968.7137,1485.6545,1354.569,-288.7333,347.034
18431.3725,50.7947,983.35,1503.7756,1351.463,-286.2018,355.0952
18450.9804,12.0919,962.7128,1503.6387,1372.5306,-289.7314,357.0741
18470.5882,-43.865,930.3575,1483.6526,1336.446,-293.1981,345.0571
18490.1961,-63.6846,962.7737,1503.7592,1340.6521,-289.7311,337.1147
18509.8039,-84.8473,976.3384,1500.5529,1347.299,-285.2047,345.0181
18529.4118,-121.737,936.8842,1484.923,1321.7974,-289.7291,331.0993
18549.0196,-103.9183,962.2477,1491.4137,1337.3387,-287.204,349.0164
18568.6275,-211.5465,933.0518,1463.9376,1284.8528,-279.7353,337.1932
18588.2353,-211.9411,930.2152,1464.4159,1309.2825,-282.2068,332.9239
18607.8431,-260.6112,925.9627,1457.9985,1291.0184,-289.7283,329.1585
18627.451,-268.91,941.2003,1496.1974,1298.0769,-290.2041,324.9094
18647.0588,-300.6866,933.1426,1473.1608,1287.0905,-287.7302,318.2277
18666.6667,-312.0722,933.1616,1473.0894,1288.1375,-289.2028,312.8598
18686.2745,-372.5506,884.9897,1451.2841,1252.0125,-287.7301,309.2239
18705.8824,-376.0551,906.9789,1466.1317,1267.0453,-283.2068,309.8462
18725.4902,-342.5268,945.1085,1506.2439,1306.1277,-286.7319,320.307
18745.098,-420.0978,922.9339,1492.9773,1280.0421,-290.2029,310.7816
18764.7059,-418.5497,923.0982,1490.3781,1284.0839,-287.7289,306.299
18784.3137,-433.0307,930.8958,1497.0121,1277.8966,-281.2084,299.7885
18803.9216,-454.7017,923.1301,1469.5537,1289.1719,-294.727,297.3772
18823.5294,-463.9338,908.8239,1451.9755,1274.9122,-278.2089,296.7816
18843.1373,-501.593,888.1523,1466.5822,1244.1833,-288.7306,282.4024
18862.7451,-551.135,875.9547,1444.8387,1242.9127,-284.2025,284.738
18882.3529,-576.7538,872.1822,1444.4431,1223.1694,-288.736,271.3733
18901.9608,-539.0894,907.9082,1469.7739,1246.8801,-293.1923,274.7133
18921.5686,-505.5582,923.2023,1477.6233,1264.2148,-291.7365,283.4131
18941.1765,-555.1008,909.8279,1469.7561,1257.7992,-293.1927,276.708
18960.7843,-633.7342,870.2878,1410.4906,1220.2637,-290.7389,265.4491
18980.3922,-589.07,920.829,1463.9307,1256.7333,-284.1931,281.6882
19000,-608.7676,897.3141,1444.5121,1256.2472,-284.7469,264.4137
19019.6078,-656.1171,877.8054,1417.8602,1225.8007,-288.1865,261.6683
19039.2157,-659.6151,874.195,1403.6106,1223.2144,-274.7577,262.4971
19058.8235,-666.2189,890.7499,1409.8949,1222.8583,-289.1829,259.6336
19078.4314,-691.8353,870.3185,1370.6672,1180.2915,-289.7504,247.5077
19098.0392,-671.0513,879.7156,1411.8384,1232.7506,-287.1816,253.5663
19117.6471,-693.8163,870.3289,1397.5552,1216.2504,-288.7544,252.5186
19137.2549,-725.1783,862.8462,1374.8291,1213.8296,-282.1806,241.6222
19156.8627,-696.6648,893.2485,1404.6464,1234.3348,-288.7583,247.5285
19176.4706,-662.1135,899.7829,1431.8729,1228.7733,-277.1809,251.6092
19196.0784,-734.8045,870.3403,1378.5701,1171.1958,-272.7709,238.496
19215.6863,-760.2607,861.7496,1370.7795,1184.839,-288.1699,234.5876
19235.2941,-717.7244,882.2239,1374.4491,1196.1974,-275.7731,237.5331
19254.902,-720.1837,891.783,1399.0092,1216.8503,-281.1706,234.5807
19274.5098,-746.8744,887.4093,1393.3468,1211.0905,-283.7726,237.535
19294.1176,-749.1331,894.805,1399.9049,1220.0376,-273.1706,231.5882
19313.7255,-792.9003,854.3342,1366.3877,1188.1163,-287.7751,223.4987
19333.3333,-796.2439,856.7719,1379.9216,1192.9376,-286.1572,217.5507
19352.9412,-744.7111,911.3769,1406.3724,1233.0897,-285.7811,232.5323
19372.549,-748.2745,889.8409,1381.0404,1232.1073,-286.1537,233.5126
19392.1569,-781.7436,879.379,1379.1935,1226.0928,-287.7841,219.46
19411.7647,-813.3626,866.725,1370.976,1219.1123,-290.147,217.5452
19431.3725,-792.9178,897.2979,1384.2859,1219.9326,-283.7922,218.4896
19450.9804,-791.241,891.807,1414.0819,1223.1632,-286.1419,214.5657
19470.5882,-767.7288,920.1818,1422.0941,1236.9104,-281.8002,220.4995
19490.1961,-789.2739,898.7426,1400.1527,1219.226,-294.1321,219.5692
19509.8039,-788.7692,879.3168,1412.1211,1232.8456,-288.7994,211.4582
19529.4118,-791.2642,907.8362,1409.2554,1232.3267,-288.1309,212.552
19549.0196,-793.7953,900.2585,1378.0457,1226.6819,-284.8084,202.5031
19568.6275,-841.2254,863.7724,1373.377,1193.2681,-290.1227,195.5406
19588.2353,-841.7709,861.1198,1353.8589,1222.6146,-286.8145,193.4604
19607.8431,-844.3243,859.8903,1361.3792,1206.3671,-287.1183,190.544
19627.451,-838.9106,870.1748,1363.897,1205.5094,-279.8227,187.4843
19647.0588,-814.3391,894.9183,1388.3447,1232.5123,-292.1113,194.5867
19666.6667,-880.7301,858.0557,1346.827,1188.6178,-288.8215,164.4029
19686.2745,-890.3743,855.8317,1337.4065,1200.3954,-284.1119,168.5431
19705.8824,-882.671,863.2264,1351.7065,1216.5264,-296.821,165.444
19725.4902,-922.3881,838.7817,1331.6614,1189.5294,-279.1096,163.5535
19745.098,-949.6929,841.1526,1317.619,1196.4607,-293.8286,160.4299
19764.7059,-964.4865,823.8924,1317.7389,1175.7253,-290.097,151.5444
19784.3137,-972.6767,825.9987,1316.4589,1187.3301,-288.8367,149.3641
19803.9216,-1031.5443,804.9115,1280.8005,1165.7122,-290.0936,130.5905
19823.5294,-1052.6122,793.1216,1260.4153,1171.2648,-289.8395,125.4057
19843.1373,-1069.4724,798.8869,1225.7639,1162.8417,-292.0886,119.6363
19862.7451,-1131.6804,760.8862,1199.4202,1118.1758,-288.8424,108.3746
19882.3529,-1186.4969,742.9476,1166.8589,1108.8547,-290.0871,91.5776
19901.9608,-1186.6299,736.0067,1160.1708,1107.1584,-288.8468,89.3236
19921.5686,-1226.6238,761.991,1134.8585,1127.0175,-289.0846,78.6061
19941.1765,-1315.6371,717.83,1081.1005,1078.8962,-289.8506,62.293
19960.7843,-1349.5658,720.0911,1043.0134,1061.0343,-290.0795,40.6344
19980.3922,-1363.5808,706.9921,1027.0004,1050.8381,-289.8515,43.3294
20000,-1437.6694,657.0236,972.0513,1021.9882,-290.0794,30.6488
20019.6078,-1452.4845,665.8994,967.9445,1031.8303,-288.8524,20.3341
20039.2157,-1532.787,620.1052,876.119,984.1934,-285.0824,-10.3069
20058.8235,-1577.5424,597.792,832.9131,944.6649,-288.8539,-15.6468
20078.4314,-1619.8011,602.2078,810.1091,978.1655,-292.0759,-21.2608
20098.0392,-1651.5516,573.7616,759.8685,934.6967,-293.8531,-37.6767
20117.6471,-1678.7661,548.2206,733.1155,920.3932,-283.0806,-47.2152
20137.2549,-1671.4426,567.6774,723.8516,927.6794,-294.8513,-51.6372
20156.8627,-1732.9138,537.2341,662.1477,918.3606,-296.0744,-75.2726
20176.4706,-1740.4064,527.6637,631.668,911.4152,-280.8586,-83.6684
20196.0784,-1764.9403,505.2832,590.3028,893.3934,-286.0821,-99.2079
20215.6863,-1762.4766,498.6773,566.6147,889.4743,-289.8518,-106.6656
20235.2941,-1729.9286,536.218,543.4301,900.3975,-289.0801,-109.1949
20254.902,-1755.4119,502.5367,493.585,866.4827,-287.852,-118.6944
20274.5098,-1747.9302,485.2537,453.2914,855.4398,-279.0902,-124.1841
20294.1176,-1719.2119,481.5433,457.5937,877.3649,-288.8489,-120.7245
20313.7255,-1705.0313,477.2831,433.3121,836.561,-290.085,-142.1557
20333.3333,-1700.3184,441.5381,400.515,814.2083,-283.8502,-144.7728
20352.9412,-1717.1146,444.2561,359.5237,813.6821,-288.0871,-159.1606
20372.549,-1672.2153,451.4391,339.3407,839.1869,-293.8404,-157.7657
20392.1569,-1639.1547,440.4024,276.476,764.7184,-294.0868,-172.2204
20411.7647,-1607.0948,444.497,249.3304,765.098,-282.8438,-175.7583
20431.3725,-1581.1342,437.4044,200.5245,775.697,-290.0947,-172.2104
20450.9804,-1541.1039,430.4204,178.2655,780.2034,-288.8355,-173.7486
20470.5882,-1537.1227,409.3462,109.5049,762.6896,-285.1027,-171.1492
20490.1961,-1513.0065,447.4638,100.3182,759.1402,-282.8342,-178.7567
20509.8039,-1445.1346,442.4382,19.5606,751.787,-295.1007,-174.1197
20529.4118,-1367.9272,437.4978,18.2841,762.0493,-280.8305,-174.8193
20549.0196,-1351.1721,434.4721,-26.264,736.888,-290.1091,-177.1795
20568.6275,-1293.8296,412.4097,-49.5358,731.9363,-282.8237,-179.8279
20588.2353,-1263.1284,432.5429,-37.2353,739.8477,-289.1161,-176.1201
20607.8431,-1238.7966,448.4808,-82.6916,734.0216,-287.8161,-183.7842
20627.451,-1135.2024,416.5746,-123.3287,722.8265,-279.1254,-174.0928
20647.0588,-1065.6757,439.3885,-155.6662,711.9142,-289.81,-175.8097
20666.6667,-956.2239,485.5329,-100.2913,755.87,-287.126,-155.1344
20686.2745,-919.7255,471.3539,-132.6337,751.0316,-281.8089,-156.7819
20705.8824,-870.1401,475.6144,-149.1468,755.8781,-282.1362,-153.1076
20725.4902,-832.7194,472.4059,-167.5093,749.9717,-288.7983,-150.8234
20745.098,-742.199,442.5815,-194.3466,733.8002,-285.1411,-150.1172
20764.7059,-679.5488,461.3687,-187.5197,737.9791,-285.7922,-137.8475
20784.3137,-592.1304,514.564,-117.2932,792.91,-288.1463,-121.0731
20803.9216,-525.5092,524.2347,-121.6513,780.8975,-288.7849,-122.854
20823.5294,-477.1177,516.7424,-122.2492,780.9116,-290.1501,-117.0308
20843.1373,-425.577,506.2841,-141.6543,769.9754,-278.784,-112.8589
20862.7451,-337.1272,517.6261,-153.2554,750.8255,-289.1585,-109.0393
20882.3529,-278.5382,513.1877,-160.5798,769.984,-287.7709,-99.8807
20901.9608,-230.2193,508.7827,-176.2968,752.9194,-285.1685,-89.0328
20921.5686,-226.3797,490.2714,-211.5767,724.9845,-286.7653,-90.8503
20941.1765,-152.2285,531.7021,-181.2688,736.9099,-279.1776,-88.0597
20960.7843,-86.3793,559.1923,-177.545,744.9891,-297.7522,-70.8571
20980.3922,3.5403,571.6872,-182.3639,738.7856,-288.179,-64.0149
21000,72.2616,625.3132,-132.5345,784.9803,-290.7493,-52.8804
21019.6078,165.6719,592.6597,-165.3859,733.7099,-288.186,-46.0246
21039.2157,205.4661,622.2796,-140.4666,783.1197,-287.7448,-28.8511
21058.8235,175.7669,556.8011,-199.4178,723.7959,-293.1889,-36.9808
21078.4314,203.2573,567.1602,-179.4078,733.0845,-285.7397,-24.909
21098.0392,256.6282,567.8303,-171.468,704.8226,-291.1965,-28.9934
21117.6471,322.4299,571.2588,-165.3787,701.1484,-288.7318,-15.8805
21137.2549,361.8177,565.6794,-177.5256,691.7401,-286.2054,-15.0367
21156.8627,414.4223,603.2292,-182.3553,675.1049,-281.7303,-13.869
21176.4706,410.7031,576.7093,-191.5495,673.6049,-285.2118,1.8978
21196.0784,438.2855,598.2598,-190.2784,691.3559,-288.7213,-1.853
21215.6863,519.8404,585.7875,-163.6047,694.5928,-288.2168,13.9225
21235.2941,538.3906,557.1973,-186.3653,694.3585,-291.7112,15.0736
21254.902,530.8298,556.837,-209.489,651.6254,-281.2285,18.9287
21274.5098,543.3923,527.1479,-198.3869,655.2802,-290.709,20.0673
21294.1176,609.9525,578.8793,-146.6773,656.4042,-282.2281,31.917
21313.7255,624.1979,570.1492,-151.2106,660.3837,-289.7058,36.0278
21333.3333,694.9963,614.7506,-112.7176,686.4212,-292.2273,52.9737
21352.9412,688.1423,565.181,-150.0922,634.5746,-288.7017,46.0249
21372.549,720.0196,634.8469,-123.7344,663.4307,-290.2326,55.9632
21392.1569,733.2264,626.1162,-106.1492,639.4744,-285.6989,61.0183
21411.7647,786.0205,630.7439,-59.6259,667.3668,-289.2368,71.9365
21431.3725,784.2177,611.204,-87.1736,631.5429,-281.6975,68.9938
21450.9804,844.1313,639.8152,7.0527,667.2975,-293.2396,88.9587
21470.5882,861.0726,658.1025,5.6364,654.7468,-285.6904,91.9742
21490.1961,860.1732,661.847,0.9811,661.1261,-286.2489,90.9795
21509.8039,881.1846,673.239,30.8682,672.7043,-286.6859,106.0075
21529.4118,889.1442,630.7175,-4.8837,659.1553,-285.252,96.9509
21549.0196,853.9573,618.1383,-3.9581,623.7664,-286.6845,95.9997
21568.6275,931.2635,661.8225,57.9193,687.0539,-281.2547,120.9918
21588.2353,971.9879,668.2803,97.8939,686.9426,-288.6819,125.0304
21607.8431,979.3026,681.6892,102.8545,714.9566,-293.2491,123.0141
21627.451,1000.8569,685.1583,120.9781,714.9996,-281.6843,130.9936
21647.0588,983.5164,668.7046,93.7605,668.8087,-285.2557,123.9818
21666.6667,941.8655,648.2187,96.0516,655.9667,-282.684,131.9548
21686.2745,969.5511,656.8018,115.6668,678.8242,-285.2555,141.967
21705.8824,1018.7086,698.3658,149.9077,698.1168,-291.679,141.953
21725.4902,1006.6467,691.799,179.7717,723.7717,-292.2492,151.0074
21745.098,1006.8148,683.2548,182.0234,708.2858,-288.6821,150.9852
21764.7059,976.6876,674.7014,178.6424,682.6744,-282.254,156.0087
21784.3137,993.6116,681.3344,157.097,671.3345,-292.6827,153.9643
21803.9216,947.6167,631.6802,159.6603,623.4921,-280.2523,145.0477
21823.5294,929.5786,630.355,158.2162,657.3209,-287.6871,155.9816
21843.1373,927.7385,633.5967,167.5802,641.5023,-287.2475,153.0305
21862.7451,931.4906,643.3492,175.2625,656.3491,-290.6868,160.0165
21882.3529,908.7357,643.5095,178.5124,642.4783,-279.2507,151.9784
21901.9608,902.5236,625.4467,190.1655,648.4378,-292.6882,161.9463
21921.5686,862.777,622.5132,209.4558,636.2936,-292.2385,158.9966
21941.1765,862.3718,609.4833,203.3369,621.5894,-279.6994,152.9964
21960.7843,783.9571,573.4234,150.4269,578.1546,-281.2432,148.0337
21980.3922,779.2953,598.4993,193.2721,585.7032,-289.6952,151.945
22000,766.9243,591.5448,179.4425,577.2383,-286.2368,150.0531
22019.6078,754.2667,590.5444,219.3567,597.7717,-286.7007,146.9449
22039.2157,711.9846,579.4033,242.4669,596.0956,-279.2376,153.9995
22058.8235,687.1686,566.5886,237.4707,571.7474,-274.7129,152.9969
22078.4314,668.0026,593.4116,239.4165,572.89,-291.2247,156.0163
22098.0392,643.296,597.5264,251.5001,570.7675,-290.7076,151.9451
22117.6471,652.0621,601.3682,267.3584,597.0149,-286.2247,161.0157
22137.2549,658.1502,626.5275,317.4076,607.856,-277.7181,153
22156.8627,657.1463,630.2853,351.2675,651.8549,-293.2171,156.0154
22176.4706,630.0724,602.5912,354.4666,628.963,-291.7137,170.9872
22196.0784,604.1727,593.285,370.1742,631.8073,-277.2217,160.0476
22215.6863,572.2012,602.6391,388.511,664.16,-290.7203,170.0265
22235.2941,531.2388,601.2261,366.2546,622.6912,-290.2072,151.0072
22254.902,567.116,621.6984,417.5992,671.1599,-278.733,161.957
22274.5098,565.2411,616.0913,451.2427,694.7892,-279.2085,166.9707
22294.1176,551.9709,621.7487,468.6561,729.2793,-291.7309,166.9637
22313.7255,550.1514,625.1158,469.065,706.7192,-284.2003,166.9651
22333.3333,532.0005,623.7408,477.7271,732.274,-293.7356,175.0382
22352.9412,524.3354,652.0797,502.1814,755.6848,-281.1972,175.0317
22372.549,538.977,655.9872,528.7681,746.2071,-280.7505,178.0244
22392.1569,522.3965,658.9484,561.9932,776.4704,-288.1844,178.9758
22411.7647,512.8857,672.8972,574.8719,778.4453,-278.7578,178.031
22431.3725,469.3941,658.0291,587.1334,777.4702,-281.1837,175.9872
22450.9804,473.867,679.0031,600.7307,779.3274,-286.7592,186.0181
22470.5882,442.2456,656.0271,601.0935,781.4229,-289.1735,183.965
22490.1961,462.8896,672.1365,656.9342,814.4951,-279.7682,185.0571
22509.8039,479.276,704.809,706.0989,869.5231,-293.165,200.0099
22529.4118,390.8138,670.0369,669.8859,822.5388,-289.7693,177.085
22549.0196,359.2205,656.7753,653.9794,817.3157,-292.1567,177.9843
22568.6275,325.9486,674.1975,649.8971,782.5999,-286.7795,175.0727
22588.2353,313.2156,663.8461,694.8429,819.3868,-289.1522,172.9781
22607.8431,318.9362,663.2367,669.9407,816.4943,-288.7845,179.0259
22627.451,307.2981,691.6591,716.9843,839.3435,-288.1471,180.955
22647.0588,289.8022,714.3005,740.9948,867.6365,-288.7895,181.0496
22666.6667,252.3012,683.6063,734.8245,847.3096,-291.138,178.9314
22686.2745,268.7621,675.2346,773.0799,851.6625,-278.8028,177.1058
22705.8824,241.3379,698.6766,780.866,872.322,-285.1361,178.9228
22725.4902,228.8991,703.3837,776.1182,879.6566,-277.8094,185.0973
22745.098,203.2147,720.4474,833.7954,922.3847,-278.1336,183.9171
22764.7059,165.8046,700.4119,834.0326,925.7318,-291.8089,179.051
22784.3137,176.2506,723.4089,839.7969,927.212,-282.1232,179.9619
22803.9216,155.7321,716.4578,859.0108,932.6719,-278.8243,178.0917
22823.5294,134.1757,713.4092,863.8913,945.2999,-293.1086,179.9531
22843.1373,112.8001,684.5349,860.0939,934.5591,-287.8252,182.1336
22862.7451,89.246,708.3771,863.878,955.1931,-281.1098,181.9646
22882.3529,71.8556,730.6271,889.1713,953.6984,-291.8294,177.1429
22901.9608,53.3052,714.374,885.8208,936.2751,-279.1041,170.9053
22921.5686,101.883,774.7686,944.0696,988.6016,-281.8434,182.1483
22941.1765,78.2566,737.2143,949.7304,970.3618,-291.0894,178.8823
22960.7843,146.8133,793.8454,1021.1334,1040.5424,-282.8496,193.1194
22980.3922,58.081,737.1563,967.8007,980.2663,-286.0849,182.9103
23000,-12.8724,721.7303,964.1093,1000.5618,-285.8546,181.1124
23019.6078,-42.7181,695.1731,946.702,1009.3187,-288.0775,185.8862
23039.2157,-35.8521,717.9017,993.1705,1034.6132,-289.8575,183.1353
23058.8235,-7.6841,730.9875,1008.6871,1065.304,-291.0706,191.934
23078.4314,-39.7712,721.8467,995.1061,1010.5968,-288.8647,187.1734
23098.0392,-8.5848,735.9049,1042.6935,1090.3689,-291.0623,189.9144
23117.6471,-86.8436,683.8734,991.2333,1016.4537,-290.8719,186.1241
23137.2549,-148.8182,671.0171,984.8004,1010.4734,-288.0559,167.8953
23156.8627,-156.7096,678.0923,1017.0584,1035.5552,-289.8805,169.1088
23176.4706,-124.7308,708.7873,1035.8245,1036.6016,-290.0465,160.8773
23196.0784,-126.6665,716.1799,1047.1837,1057.3898,-288.89,162.0928
23215.6863,-158.7074,721.9204,1045.7378,1075.5642,-284.0414,175.8792
23235.2941,-174.6283,737.1871,1044.1595,1084.2668,-287.8985,168.1437
23254.902,-206.695,674.7645,1027.8903,1042.5881,-287.0329,160.8815
23274.5098,-233.7474,691.2146,1022.2056,1072.2382,-287.9061,158.147
23294.1176,-242.8519,727.6646,1049.8663,1100.7063,-293.0201,170.8873
23313.7255,-290.7019,700.3297,1038.1127,1056.191,-285.9161,154.1072
23333.3333,-324.7943,710.7745,1054.8433,1063.745,-291.0118,153.8724
23352.9412,-376.7887,679.196,1030.9889,1064.1248,-284.9281,155.1584
23372.549,-357.8716,711.6058,1064.9943,1082.7449,-279.0092,156.8624
23392.1569,-389.6945,685.2922,1026.031,1073.1189,-287.936,159.1042
23411.7647,-380.8786,731.6624,1068.0275,1119.8247,-283.9951,158.8842
23431.3725,-429.7743,706.2946,1064.9736,1099.1459,-284.947,156.1192
23450.9804,-455.798,689.7148,1062.0359,1090.8746,-291.984,150.911
23470.5882,-504.6969,685.3637,1041.0621,1075.0935,-280.9559,148.1295
23490.1961,-502.8965,695.5209,1056.0426,1087.9993,-287.9769,147.9401
23509.8039,-542.5947,673.51,1070.9554,1067.0259,-290.9619,134.0868
23529.4118,-594.6923,662.6457,1048.115,1065.9821,-285.9672,136.8958
23549.0196,-597.5829,645.4483,1031.9674,1056.8584,-294.9702,132.0625
23568.6275,-602.7962,666.5043,1075.0588,1089.197,-285.9551,125.942
23588.2353,-632.6454,659.5166,1070.032,1095.908,-284.9878,130.1211
23607.8431,-622.7186,659.574,1072.0972,1103.1683,-282.9456,134.9897
23627.451,-622.7953,676.3953,1076.874,1103.8141,-286.9991,131.0741
23647.0588,-671.7899,656.5283,1048.2476,1067.2863,-283.9323,131.9346
23666.6667,-719.6355,613.5398,1038.9594,1066.7157,-294.0079,116.0612
23686.2745,-757.8655,657.3775,1032.1565,1076.4171,-293.9113,110.9859
23705.8824,-765.6781,648.5554,1035.9005,1077.5637,-289.0229,111.0457
23725.4902,-793.7746,634.4623,1018.2227,1060.527,-289.9018,105.0394
23745.098,-819.8265,617.4452,1012.8184,1073.4747,-283.0431,98.0457
23764.7059,-825.7338,621.4909,1012.2546,1063.5609,-286.8876,90.0557
23784.3137,-861.929,603.6219,1021.8101,1106.4124,-283.058,93.0274
23803.9216,-922.746,590.3754,989.5078,1042.6184,-287.8735,80.076
23823.5294,-958.8088,572.5005,947.7121,1026.1766,-289.0675,61.9556
23843.1373,-953.6031,560.3383,954.4924,1040.816,-286.8593,65.0947
23862.7451,-970.0379,541.5969,937.5339,1027.1377,-286.0843,61.9353
23882.3529,-986.6461,537.4348,918.6109,1033.965,-286.8448,63.099
23901.9608,-988.0566,566.4542,936.622,1071.0184,-281.103,64.9829
23921.5686,-1034.5764,501.349,878.636,1035.9497,-273.8365,62.0701
23941.1765,-1073.9917,505.5042,865.5344,1030.9646,-292.1119,45.9257
23960.7843,-1120.6387,466.3539,820.5916,1017.9492,-286.8136,36.1268
23980.3922,-1170.2394,448.4406,792.5023,1013.8356,-289.1277,27.9179
24000,-1195.5149,427.4671,771.7974,997.211,-288.7974,23.168
24019.6078,-1211.2698,439.5733,747.2414,1005.759,-285.1468,13.8581
24039.2157,-1185.3798,476.5362,754.8677,1016.2318,-285.7827,7.1411
24058.8235,-1231.2804,431.5574,729.3049,989.684,-279.1664,1.8141
24078.4314,-1246.4489,401.5709,682.8339,967.304,-289.7636,-4.7631
24098.0392,-1271.4519,401.499,679.0836,982.6605,-287.1788,-13.127
24117.6471,-1296.3386,371.5483,656.8519,955.3879,-276.755,-20.702
24137.2549,-1290.3737,380.5159,624.1307,965.545,-289.1942,-26.1376
24156.8627,-1313.3523,376.5464,619.0432,939.4845,-288.7294,-27.6911
24176.4706,-1327.4899,332.2972,577.9965,912.4509,-287.215,-40.2034
24196.0784,-1335.1975,339.6129,559.0578,916.423,-283.7128,-53.6281
24215.6863,-1304.5696,338.3279,514.0013,879.3473,-285.235,-55.2341
24235.2941,-1316.0638,315.6476,533.0828,907.6594,-275.6999,-57.636
24254.902,-1324.813,315.3954,507.9063,899.264,-293.2491,-65.264
24274.5098,-1237.106,327.5602,501.0863,934.6613,-285.6749,-59.6238
24294.1176,-1233.7692,339.3461,466.7197,890.3584,-285.2704,-78.2776
24313.7255,-1278.8713,308.5767,443.2589,907.8022,-291.6533,-83.5416
24333.3333,-1258.8472,297.168,417.779,879.1348,-288.2873,-85.3279
24352.9412,-1258.8483,290.6795,396.4182,867.9053,-282.6406,-90.5287
24372.549,-1263.9884,288.2701,377.6677,848.145,-289.3068,-92.2918
24392.1569,-1206.8138,293.7534,388.3229,871.973,-289.6147,-100.4973
24411.7647,-1192.016,304.2184,380.6022,874.1699,-288.3279,-92.324
24431.3725,-1163.7755,304.812,357.3976,873.9246,-287.596,-93.4486
24450.9804,-1149.1886,316.0639,356.4219,870.9626,-290.3477,-107.3574
24470.5882,-1105.6167,324.7373,366.5123,880.922,-288.5745,-106.399
24490.1961,-1107.2335,301.1085,356.3507,866.0747,-287.3699,-93.4407
24509.8039,-1113.399,273.7827,314.4955,833.0064,-281.5591,-115.4058
24529.4118,-1065.4945,320.0809,329.3772,862.0348,-273.3971,-116.4519
24549.0196,-1082.4124,308.8342,301.6481,808.0125,-292.5338,-126.3462
24568.6275,-1081.5924,310.1044,287.3389,814.8781,-275.4139,-129.4612
24588.2353,-1009.348,359.0119,303.6582,838.1364,-271.5301,-124.3889
24607.8431,-986.6122,337.0804,288.1344,839.8781,-291.4211,-127.4726
24627.451,-975.0681,325.9845,274.8765,838.1699,-288.5027,-132.3438
24647.0588,-939.8328,326.0193,295.1737,856.8905,-280.4441,-121.5352
24666.6667,-957.0081,326.0195,266.7559,839.2435,-288.4843,-132.32
24686.2745,-927.8845,335.9235,286.0771,845.7304,-287.4599,-141.5599
24705.8824,-857.0003,393.0462,309.0079,857.1436,-287.4649,-125.2756
24725.4902,-881.9776,347.7688,267.9355,837.7244,-289.4765,-140.6225
24745.098,-829.7354,375.1549,318.9613,864.3043,-291.4453,-127.2691
24764.7059,-810.0033,380.7878,333.956,860.8549,-278.5036,-121.6105
24784.3137,-781.6584,401.1259,331.06,868.3055,-290.4257,-130.2305
24803.9216,-720.0622,413.8036,351.9843,897.8775,-279.5209,-119.6159
24823.5294,-765.5638,385.179,323.1501,854.2089,-287.4114,-144.2427
24843.1373,-714.2549,420.6702,349.7737,879.7823,-284.5334,-142.6249
24862.7451,-683.5256,427.1489,341.076,861.1535,-280.4003,-139.2192
24882.3529,-656.2855,457.8007,366.7295,880.8464,-286.5461,-138.6966
24901.9608,-636.3324,448.3673,352.0936,887.222,-285.3855,-131.133
24921.5686,-614.3234,450.6229,379.8062,907.7844,-281.56,-137.6634
24941.1765,-598.3433,435.2194,362.2476,878.1512,-287.3711,-141.1156
24960.7843,-550.4374,454.6917,382.774,900.8662,-288.5703,-138.732
24980.3922,-538.2222,477.3995,408.3562,891.1769,-284.3596,-140.135
25000,-544.6041,442.5557,373.6963,885.9542,-284.5856,-140.766
25019.6078,-510.0914,470.3094,387.2982,903.1415,-282.3481,-136.0873
25039.2157,-477.6511,467.5809,405.7296,911.8574,-287.5943,-140.7775
25058.8235,-458.9573,486.3357,389.2656,922.0413,-285.3366,-134.1455
25078.4314,-416.8247,508.6081,430.67,923.8874,-291.6013,-126.7536
25098.0392,-399.9449,508.412,448.2675,939.0424,-275.3347,-127.1184
25117.6471,-393.899,506.4069,443.559,931.076,-281.6157,-123.7802
25137.2549,-387.8099,499.5955,431.2925,904.0942,-289.318,-133.0728
25156.8627,-355.841,512.434,435.5782,923.1261,-281.6223,-123.7874
25176.4706,-321.8022,532.466,462.5161,926.9769,-282.3165,-124.1194
25196.0784,-325.8958,517.3732,469.5645,906.1317,-280.6275,-130.8114
25215.6863,-306.6126,502.4565,440.3669,913.8874,-288.3089,-133.0612
25235.2941,-242.9238,548.4671,501.6145,950.1509,-292.6243,-119.7625
25254.902,-195.694,563.6329,516.3547,949.7957,-286.304,-110.0765
25274.5098,-148.9944,583.4543,545.5123,978.1895,-278.6394,-112.7463
25294.1176,-224.5416,553.5074,502.3868,909.7755,-291.2975,-122.0927
25313.7255,-216.0821,541.2927,505.4637,917.2515,-286.6365,-124.7619
25333.3333,-173.4457,538.611,537.4803,917.7026,-289.2959,-124.1138
25352.9412,-156.0943,554.2404,529.5661,923.4172,-290.6366,-115.809
25372.549,-161.5772,548.5641,540.4856,960.7549,-285.2995,-120.0872
25392.1569,-112.0843,579.3013,528.4943,955.4653,-288.6391,-107.7293
25411.7647,-77.4142,594.6033,542.4192,935.6523,-288.2943,-104.1303
25431.3725,-96.1117,587.2897,536.4633,927.5609,-283.6411,-99.7368
25450.9804,-95.3589,568.6763,539.3935,934.5198,-288.2971,-104.1423
25470.5882,-85.1807,575.3917,536.4684,930.5809,-291.6339,-113.7605
25490.1961,-113.306,536.6992,533.3496,922.4496,-286.2996,-116.0837
25509.8039,-92.2027,578.4163,530.4533,917.6157,-292.6295,-112.6961
25529.4118,-127.3121,557.668,544.524,910.3795,-285.3073,-112.1515
25549.0196,-57.1517,585.3293,573.5217,949.6674,-284.6269,-98.7312
25568.6275,-23.447,596.5728,612.5303,949.2269,-290.3108,-93.1299
25588.2353,-36.1298,597.2086,597.6439,931.8647,-288.6193,-96.6969
25607.8431,7.4484,622.7231,600.4457,951.2418,-289.3183,-106.133
25627.451,-10.275,590.293,600.68,947.93,-288.6104,-109.6593
25647.0588,34.3952,631.5817,647.3431,980.1934,-288.3279,-93.1695
25666.6667,19.5358,636.3286,653.6617,981.0396,-277.6063,-93.6733
25686.2745,83.4585,666.5781,705.4202,995.0409,-287.3409,-89.245
25705.8824,28.5363,610.4124,651.7585,932.1132,-288.5878,-95.6663
25725.4902,35.4599,619.6678,625.3067,933.9448,-289.3517,-95.2367
25745.098,35.5809,620.3745,665.793,929.0523,-284.5799,-94.5841
25764.7059,73.3412,623.5392,690.2683,963.9426,-281.3672,-87.2818
25784.3137,90.5984,646.322,715.7697,985.3044,-279.5695,-81.572
25803.9216,120.4219,665.6666,721.2231,979.8442,-285.3787,-74.3293
25823.5294,145.8443,659.3035,724.8467,1006.2103,-293.547,-63.5573
25843.1373,108.3312,656.5678,718.1583,963.7683,-291.3888,-81.2948
25862.7451,156.853,682.4501,743.8389,980.4266,-292.532,-69.4843
25882.3529,168.3201,685.5057,729.0895,984.7198,-292.4048,-63.3464
25901.9608,178.817,689.3866,747.9818,983.4619,-286.52,-64.4486
25921.5686,193.2488,684.6221,753.1451,997.4683,-285.4251,-60.3985
25941.1765,220.9432,707.5703,771.9299,1003.5278,-290.4991,-62.3941
25960.7843,230.2144,713.5417,810.983,1024.5199,-287.4428,-48.4186
25980.3922,260.0096,691.6077,809.007,1066.7153,-292.4784,-49.3707
26000,284.0513,723.4534,843.8608,1064.4154,-291.46,-40.4751
26019.6078,313.9681,718.4424,862.0099,1092.6642,-283.4667,-31.3472
26039.2157,314.0051,758.4252,836.9162,1087.2657,-287.4824,-29.5504
26058.8235,301.1135,733.6028,848.0795,1030.6799,-286.4431,-36.307
26078.4314,322.043,751.4693,872.793,1053.3223,-281.5093,-33.54
26098.0392,358.1627,779.6762,892.2676,1075.7692,-286.419,-24.2441
26117.6471,378.9292,793.3563,935.8011,1109.212,-288.5288,-20.6017
26137.2549,376.2085,804.5664,934.3019,1129.8956,-282.3971,-6.2172
26156.8627,407.7711,829.403,980.7233,1160.0508,-288.5506,2.2495
26176.4706,418.3663,813.694,978.2822,1132.0695,-286.3715,-2.1355
26196.0784,356.8585,796.2918,963.6547,1130.1179,-290.5746,-12.7096
26215.6863,354.4883,794.72,970.3809,1112.1484,-286.3453,-5.1571
26235.2941,395.7706,809.2183,986.623,1133.0087,-284.6049,2.1584
26254.902,442.6449,861.7441,1037.5948,1174.0404,-285.3226,2.8704
26274.5098,453.5258,839.2215,1048.5497,1203.0115,-292.623,4.1307
26294.1176,426.7362,815.7513,1046.479,1170.0865,-285.2968,9.9332
26313.7255,416.6354,819.3,1019.4316,1163.0015,-288.6526,0.138
26333.3333,410.8499,846.926,1030.6266,1146.1575,-287.2699,8.9283
26352.9412,372.5143,803.0478,1016.3536,1148.8597,-286.6795,6.0555
26372.549,409.8504,845.0245,1056.7294,1157.347,-289.242,13.9783
26392.1569,411.4081,840.1699,1087.3143,1192.781,-279.7104,23.023
26411.7647,450.9258,848.9637,1106.7335,1209.3516,-289.2149,22.0119
26431.3725,381.2823,800.1382,1084.2285,1193.7843,-283.7352,21.9204
26450.9804,406.1295,860.0413,1088.9446,1178.262,-287.188,29.0792
26470.5882,406.1698,859.9569,1106.3398,1192.7076,-285.7613,31.8762
26490.1961,369.2089,827.023,1104.9344,1182.2848,-286.1608,27.1107
26509.8039,372.9809,833.975,1140.0641,1223.8147,-282.7914,34.8985
26529.4118,419.2649,853.214,1151.0607,1231.3204,-288.1328,35.2301
26549.0196,416.0417,873.9072,1160.0173,1241.6736,-290.8138,52.8331
26568.6275,381.4626,847.2017,1145.9556,1219.3441,-279.1106,47.2076
26588.2353,340.8,812.934,1097.9642,1166.7711,-283.8458,32.7864
26607.8431,314.5255,811.1544,1093.0688,1155.4045,-287.0777,25.3252
26627.451,368.7375,850.9146,1139.0068,1187.5795,-285.8723,40.7196
26647.0588,368.5353,851.1839,1137.259,1192.447,-291.0475,50.3757
26666.6667,360.5393,816.7313,1147.9869,1177.6899,-275.9048,48.6584
26686.2745,327.6713,819.2448,1147.2216,1190.3424,-288.0241,53.4026
26705.8824,296.4648,789.6769,1081.8459,1139.6166,-280.9286,39.6655
26725.4902,298.852,812.3703,1135.2344,1173.5134,-286.9967,50.4654
26745.098,281.472,801.7324,1120.7408,1146.5547,-289.9514,44.6225
26764.7059,208.9031,761.4159,1092.2405,1090.4177,-272.9789,32.4388
26784.3137,181.2555,754.5829,1035.6635,1082.6118,-286.9769,37.5626
26803.9216,191.0415,767.5058,1075.2927,1114.3927,-281.9489,33.5348
26823.5294,164.2922,762.5402,1061.6543,1118.5914,-284.0048,33.4865
26843.1373,183.0337,785.4766,1081.3702,1172.4382,-280.9221,52.5259
26862.7451,131.1298,761.6497,1064.6245,1128.7089,-277.0354,39.4981
26882.3529,122.222,765.4154,1072.599,1137.2867,-284.8955,35.6377
26901.9608,148.1322,810.6716,1092.554,1157.7606,-286.0529,47.4432
26921.5686,109.3871,781.435,1046.6003,1120.4288,-293.8693,49.6234
26941.1765,56.0301,765.4813,1075.5088,1138.6444,-279.0786,41.3527
26960.7843,109.4718,781.4573,1099.5925,1133.2335,-281.8548,49.6612
26980.3922,6.8823,733.4796,1047.4922,1094.7086,-282.0984,42.3704
27000,-32.4094,727.6732,1039.5841,1089.2347,-291.8259,41.716
27019.6078,12.7354,764.5775,1052.4144,1101.9034,-293.1134,41.2864
27039.2157,-8.227,750.6017,1051.6777,1096.3514,-285.8085,37.7145
27058.8235,11.7942,765.4263,1090.4839,1135.8123,-276.1454,45.2923
27078.4314,-11.2235,747.5936,1082.7053,1112.2892,-285.7885,46.7812
27098.0392,-6.0117,757.4174,1080.3392,1116.9258,-280.1605,49.2999
27117.6471,-90.0178,719.5167,1038.8318,1096.2509,-278.7757,33.8275
27137.2549,-70.0291,732.5668,1044.3796,1099.9524,-289.1715,34.2781
27156.8627,-110.1023,715.6381,1029.8287,1091.9983,-277.7599,36.8394
27176.4706,-85.1975,736.4536,1064.375,1096.0054,-292.1875,34.2546
27196.0784,-74.9814,725.5926,1065.8115,1106.0476,-279.7405,32.8314
27215.6863,-80.2009,688.4796,1031.4268,1083.0186,-285.2094,40.1982
27235.2941,-124.8693,677.6199,1017.8445,1054.0337,-285.7199,28.908
27254.902,-142.2386,693.4652,1032.2814,1039.1127,-285.2272,26.1457
27274.5098,-151.7672,686.6854,1010.7636,1031.8864,-284.7041,26.9121
27294.1176,-141.3807,697.5951,1049.2883,1058.1138,-291.2368,33.1498
27313.7255,-207.8064,647.5625,983.8806,1013.9468,-282.6917,18.9496
27333.3333,-248.3233,627.5944,972.4409,990.2333,-289.2513,13.135
27352.9412,-253.7766,615.5635,934.8281,970.7607,-286.6795,7.9165
27372.549,-237.3936,653.5427,977.3943,991.3467,-289.2602,4.1768
27392.1569,-248.695,654.67,974.0186,997.8433,-287.671,9.9495
27411.7647,-257.3471,654.6551,969.4365,978.37,-287.2697,7.1504
27431.3725,-274.7351,632.6062,950.9968,981.7935,-278.6662,-1.9659
27450.9804,-306.447,625.5087,920.3604,955.5034,-286.2803,-0.841
27470.5882,-342.6267,595.6266,900.004,931.6652,-284.653,-8.9703
27490.1961,-317.411,639.5879,921.4427,969.4623,-286.2868,-0.8467
27509.8039,-284.7743,670.5856,963.9389,988.6097,-286.646,-1.9456
27529.4118,-334.4989,629.6874,938.4584,972.4711,-285.2931,-2.7755
27549.0196,-299.6736,675.52,976.0003,1013.5855,-284.6433,1.0409
27568.6275,-299.4331,674.6863,978.2914,1000.7256,-279.3022,3.1006
27588.2353,-353.7871,653.4377,935.9713,961.3553,-286.6364,0.0823
27607.8431,-367.3611,660.6855,943.4369,955.7737,-286.301,-9.793
27627.451,-380.7413,643.4478,951.0361,970.3395,-287.6339,-17.8981
27647.0588,-389.4805,628.7539,949.4783,981.7106,-286.3031,-11.8083
27666.6667,-420.6325,627.4074,917.8859,981.4325,-284.6338,-21.9352
27686.2745,-418.3873,616.9298,912.4838,964.7415,-278.3094,-12.7671
27705.8824,-477.8209,594.2969,893.9958,947.3043,-288.6301,-14.9171
27725.4902,-439.4104,628.0103,917.4587,952.8151,-286.3047,-11.793
27745.098,-470.8308,627.3051,927.9886,961.1291,-287.6305,-14.9244
27764.7059,-444.4397,633.9012,927.386,956.031,-275.3112,-6.7832
27784.3137,-469.7651,605.1974,920.0088,933.0914,-290.6309,-24.9326
27803.9216,-471.3702,600.0396,924.3965,956.0966,-286.3025,-16.7734
27823.5294,-476.8207,597.1339,923.8637,956.1711,-289.6341,-24.9445
27843.1373,-483.3879,598.1697,906.5676,933.0258,-290.2968,-29.7414
27862.7451,-495.9267,597.0584,896.9283,946.0139,-287.6415,-14.9542
27882.3529,-521.2546,583.1193,896.4897,927.2051,-287.2908,-32.7087
27901.9608,-526.8644,580.9902,887.8645,924.9189,-287.6492,-29.0029
27921.5686,-547.2975,564.1743,862.514,918.2192,-285.2866,-23.7463
27941.1765,-584.1154,566.8642,850.8121,896.8783,-282.658,-34.9847
27960.7843,-602.251,550.4277,840.5981,885.2476,-289.276,-37.6767
27980.3922,-590.9711,567.8566,845.819,883.7742,-290.662,-32.0217
28000,-616.2218,562.4035,829.6671,854.3882,-275.2749,-41.6914
28019.6078,-626.0942,550.6889,794.7595,827.7573,-292.6684,-55.9878
28039.2157,-665.2577,528.5598,772.6683,818.4731,-292.2565,-47.6384
28058.8235,-666.2502,520.5615,784.61,831.7068,-289.6797,-52.0577
28078.4314,-653.1732,538.5823,811.6545,850.4879,-272.2594,-55.694
28098.0392,-659.31,546.4005,810.6126,845.7532,-288.6917,-56.0255
28117.6471,-666.0544,550.7689,778.7589,822.5515,-283.2396,-60.6734
28137.2549,-655.4441,542.4184,792.7019,853.6946,-285.7051,-64.1195
28156.8627,-628.9703,566.8546,791.9323,871.6161,-283.228,-49.5981
28176.4706,-625.5054,582.3016,769.6271,845.6603,-288.7159,-57.1225
28196.0784,-658.0592,566.9451,753.8758,836.5266,-292.2107,-64.578
28215.6863,-672.4714,532.2802,754.5099,826.4764,-278.7338,-63.1101
28235.2941,-666.9896,559.9101,754.9977,822.6751,-293.1961,-62.5406
28254.902,-615.5775,595.0722,806.5523,870.6176,-286.7428,-58.1317
28274.5098,-671.9676,569.0903,800.8996,826.7111,-285.188,-73.57
28294.1176,-649.6146,575.9564,796.387,847.4436,-287.7547,-64.2079
28313.7255,-658.7592,567.2445,777.0544,858.7291,-285.1756,-63.5465
28333.3333,-683.6506,535.8813,772.4499,835.4247,-291.7647,-61.1614
28352.9412,-712.8085,530.1769,751.0622,815.6379,-289.1608,-73.5237
28372.549,-720.7555,544.8593,749.3677,796.4823,-280.7841,-80.2191
28392.1569,-725.6645,528.3342,717.1125,774.6476,-288.1489,-78.5022
28411.7647,-683.8081,535.6871,755.3437,808.4485,-285.7915,-77.2606
28431.3725,-684.6188,579.439,760.2144,842.8412,-282.1426,-76.4598
28450.9804,-716.9736,548.5477,735.2703,794.3273,-289.8026,-84.3013
28470.5882,-753.5656,499.5815,686.2234,767.7672,-292.1201,-95.4736
28490.1961,-702.1583,538.5087,736.0803,777.269,-281.8242,-90.2899
28509.8039,-677.4583,547.6549,748.2719,797.8816,-294.1041,-87.3786
28529.4118,-717.1415,539.4858,720.091,777.2513,-288.834,-93.2948
28549.0196,-695.355,546.6743,750.2651,774.753,-284.097,-94.3743
28568.6275,-665.3136,578.2744,777.0577,833.3931,-291.8438,-92.3548
28588.2353,-628.2435,573.7807,790.3544,835.7726,-292.0796,-79.3548
28607.8431,-691.2659,544.2395,743.839,814.224,-287.8614,-90.3602
28627.451,-706.1658,533.0345,747.3637,782.7794,-286.0654,-97.3181
28647.0588,-708.4442,572.0141,730.8566,800.3204,-291.8758,-91.3477
28666.6667,-696.2409,579.1567,710.6066,792.8887,-286.0512,-96.3322
28686.2745,-639.5169,612.9683,742.8483,813.3461,-277.8983,-80.4057
28705.8824,-680.1793,572.1205,733.4719,818.9752,-277.0425,-99.2963
28725.4902,-657.572,562.9506,724.6993,801.1281,-284.9071,-97.4451
28745.098,-694.1387,531.1462,724.703,804.8876,-288.0225,-100.3344
28764.7059,-662.7046,559.8251,732.5892,817.3097,-282.9206,-96.4134
28784.3137,-664.9279,568.4053,724.7593,816.8812,-291.0095,-91.283
28803.9216,-654.9023,569.6714,717.6696,787.2216,-287.929,-101.4293
28823.5294,-663.9767,570.4437,739.671,819.8323,-289.9991,-104.2495
28843.1373,-657.8293,550.5637,730.5111,816.2391,-284.9418,-90.4826
28862.7451,-667.8507,545.4587,710.8876,811.004,-289.987,-108.27
28882.3529,-701.0892,496.4398,658.5349,765.0984,-283.9563,-112.5225
28901.9608,-678.7533,530.6205,667.8846,748.9432,-285.9747,-111.2406
28921.5686,-710.1497,497.4334,671.3808,763.1998,-286.9677,-111.4853
28941.1765,-682.6362,528.7471,687.9592,771.8689,-281.9644,-108.2452
28960.7843,-725.1231,491.3099,662.2681,749.0985,-285.982,-126.4991
28980.3922,-732.7545,500.7157,650.9831,737.7806,-290.9455,-119.2029
29000,-735.2839,488.2015,666.2729,733.0991,-284.9951,-126.5159
29019.6078,-750.6682,451.7278,646.9464,728.9392,-292.9324,-125.2461
29039.2157,-756.3962,479.2677,654.1438,740.0367,-279.0094,-123.5461
29058.8235,-811.5123,413.7608,606.9781,676.7683,-278.9305,-138.22
29078.4314,-815.4058,445.0506,604.9863,663.0341,-291.0135,-140.5762
29098.0392,-782.543,437.8124,607.0334,659.9285,-288.9134,-150.2333
29117.6471,-826.4321,409.1083,581.8724,660.0764,-284.0291,-149.6222
29137.2549,-830.4734,429.0066,588.1487,661.8195,-287.9036,-153.2106
29156.8627,-847.5377,399.969,568.882,633.1433,-283.0371,-146.5634
29176.4706,-832.3893,429.9228,588.2097,633.8444,-284.8959,-156.1851
29196.0784,-835.5569,405.9544,578.7006,647.0171,-281.0502,-155.6084
29215.6863,-840.441,420.0395,569.336,628.7941,-278.8881,-155.2166
29235.2941,-862.569,374.7791,518.7806,604.0929,-288.0582,-163.6008
29254.902,-906.3383,355.042,526.3455,601.8622,-289.87,-169.1605
29274.5098,-879.7156,381.8547,534.6359,613.9773,-288.0685,-170.6252
29294.1176,-912.2094,375.1864,517.3585,582.9223,-288.8602,-184.1595
29313.7255,-909.7898,381.8082,504.6439,567.0555,-287.0786,-184.6662
29333.3333,-895.2975,355.1308,504.5012,578.9257,-279.8539,-185.2119
29352.9412,-922.7732,342.6443,478.5232,581.9796,-280.0963,-190.6381
29372.549,-909.2769,352.1398,482.3936,588.8068,-289.8362,-187.228
29392.1569,-923.913,364.6459,479.3123,565.9989,-280.1076,-187.6591
29411.7647,-952.1801,337.2647,470.6108,555.7737,-278.8344,-197.2278
29431.3725,-973.0338,298.6983,435.3301,530.0188,-280.1144,-192.662
29450.9804,-951.0515,307.2568,427.6178,552.8259,-292.8167,-189.1589
29470.5882,-962.9918,323.514,421.2702,557.9862,-291.1188,-195.6494
29490.1961,-997.0343,277.2459,383.5469,526.7375,-289.8068,-206.1786
29509.8039,-993.0356,298.64,373.2097,500.9849,-290.1301,-201.7025
29529.4118,-1030.0736,273.3839,368.7536,482.7745,-289.7963,-213.194
29549.0196,-1042.1451,264.4648,349.0278,470.0511,-292.1387,-221.7078
29568.6275,-1025.0135,275.352,351.8106,491.8222,-275.7953,-217.2326
29588.2353,-1062.9919,245.4174,323.1238,459.0987,-283.1554,-229.6886
29607.8431,-1062.0195,248.3637,306.8806,454.7969,-290.7738,-225.2198
29627.451,-1064.1082,270.4645,309.9261,452.9929,-282.1695,-234.6888
29647.0588,-1061.9928,211.4308,257.8683,406.8428,-276.7696,-229.1678
29666.6667,-1132.0356,228.5235,252.829,407.976,-281.183,-239.6896
29686.2745,-1116.0808,227.4457,272.9944,405.7964,-277.7552,-246.1855
29705.8824,-1114.0876,215.3191,272.7763,393.8705,-281.1955,-242.6707
29725.4902,-1118.0498,205.409,284.0155,402.8447,-282.7413,-253.2118
29745.098,-1084.0795,238.4363,274.8665,410.0588,-280.2076,-248.6326
29764.7059,-1113.871,221.4175,258.0331,411.9034,-284.7287,-250.2329
29784.3137,-1145.2119,193.4679,213.6735,375.9704,-289.2126,-262.6676
29803.9216,-1159.8776,196.356,208.1461,366.8889,-288.7143,-266.2022
29823.5294,-1165.1438,193.4634,216.6286,367.9686,-285.2275,-262.6639
29843.1373,-1169.9507,205.4365,209.0545,359.7396,-279.7083,-267.2613
29862.7451,-1157.2651,204.474,212.4781,346.9196,-286.2395,-281.6969
29882.3529,-1125.0378,235.4777,234.0736,366.8997,-283.6915,-269.1979
29901.9608,-1152.2134,219.3839,250.5248,397.818,-285.2544,-272.6577
29921.5686,-1141.9064,223.3832,247.2633,392.7937,-285.679,-273.2333
29941.1765,-1101.1453,251.3655,273.4994,408.9546,-279.2682,-269.6716
29960.7843,-1141.9268,220.3523,253.3329,376.811,-287.6672,-275.2572
29980.3922,-1168.1705,192.3711,240.5164,347.9434,-291.2719,-291.6895
30000,-1159.0266,208.4714,245.416,376.8207,-283.6578,-283.2417
30019.6078,-1167.0522,188.2642,236.3752,341.829,-290.2849,-284.6724
30039.2157,-1155.1039,205.4408,205.4292,336.865,-289.6407,-290.261
30058.8235,-1177.0999,213.3344,225.3469,350.8644,-280.3051,-298.618
30078.4314,-1140.0038,185.3458,224.4047,343.8117,-280.6322,-298.246
30098.0392,-1124.9221,227.3897,246.1921,372.9518,-292.3126,-298.6164
30117.6471,-1152.9569,205.4353,237.3589,346.9725,-291.6105,-302.2856
30137.2549,-1141.0961,224.3727,240.3419,378.8325,-282.3323,-307.6497
30156.8627,-1161.0963,235.4635,219.5259,379.793,-293.5946,-310.2688
30176.4706,-1169.9756,206.4446,204.148,373.7697,-291.3413,-306.6869
30196.0784,-1224.2225,184.4606,176.5071,381.9087,-277.5926,-319.2156
30215.6863,-1210.896,187.4367,176.1361,360.9304,-294.3513,-321.6864
30235.2941,-1235.2288,189.4109,172.4398,375.808,-271.5823,-326.2353
30254.902,-1227.927,186.375,153.0927,379.865,-288.3688,-326.6857
30274.5098,-1260.255,186.3739,147.4836,358.9768,-278.5652,-334.2212
30294.1176,-1256.7985,178.389,135.2035,413.943,-287.3832,-337.6498
30313.7255,-1298.1995,200.412,106.6077,409.888,-281.5495,-343.2577
30333.3333,-1342.8364,161.5492,48.0153,354.8294,-277.4014,-352.6506
30352.9412,-1408.249,140.3219,18.5859,335.8422,-283.5339,-361.24
30372.549,-1415.724,150.5439,-6.6689,346.8359,-278.4173,-370.6338
30392.1569,-1411.3767,146.3577,4.5987,389.9013,-285.5197,-370.2754
30411.7647,-1444.5735,148.3975,-18.7292,382.815,-294.4184,-374.6705
30431.3725,-1514.403,128.4117,-71.1554,380.8625,-286.5058,-382.2901
30450.9804,-1575.5116,76.4534,-142.7114,310.8693,-293.4349,-410.6362
30470.5882,-1635.6332,62.2701,-172.3245,306.8047,-282.4919,-414.3087
30490.1961,-1671.3986,62.4181,-199.7503,293.8326,-279.4601,-428.7104
30509.8039,-1749.6304,2.3944,-276.2972,260.9415,-291.471,-448.2547
30529.4118,-1789.4135,2.5731,-300.6969,235.7762,-280.4726,-459.6796
30549.0196,-1902.8401,-43.4243,-400.2758,202.8886,-295.4551,-478.252
30568.6275,-1929.3296,-63.3237,-433.7095,208.8617,-281.4846,-499.6814
30588.2353,-1939.7208,-30.475,-451.3018,233.8044,-279.4533,-499.3027
30607.8431,-2046.2347,-106.3084,-537.6542,170.7929,-285.4944,-521.7022
30627.451,-2068.8521,-94.4596,-566.2674,174.8902,-289.4335,-535.2681
30647.0588,-2099.1489,-95.2619,-597.6765,150.8265,-282.5104,-541.7043
30666.6667,-2130.0598,-93.6095,-657.3392,149.8441,-272.4306,-567.2828
30686.2745,-2186.0273,-128.3011,-749.6049,141.804,-285.5209,-581.7062
30705.8824,-2254.1584,-165.5981,-784.3716,105.8559,-276.416,-597.2808
30725.4902,-2289.9973,-208.2413,-823.6157,113.8393,-274.5385,-606.7114
30745.098,-2340.1348,-222.6685,-853.5013,86.6966,-288.3992,-630.2599
30764.7059,-2276.9636,-199.1356,-847.6776,126.9065,-286.5407,-624.6964
30784.3137,-2355.3508,-218.5847,-945.4487,100.7712,-287.3902,-657.2764
30803.9216,-2358.7957,-230.2298,-982.5967,57.927,-289.5481,-663.7354
30823.5294,-2359.3979,-226.6086,-1006.6226,65.8273,-288.3814,-660.2557
30843.1373,-2414.7837,-266.088,-1043.4724,78.9821,-290.5537,-685.7581
30862.7451,-2400.468,-278.7097,-1087.6027,50.6576,-283.3781,-688.322
30882.3529,-2485.6648,-327.2259,-1150.6193,24.9383,-284.5662,-693.7461
30901.9608,-2491.7214,-342.7033,-1227.79,-8.0671,-283.3727,-722.2692
30921.5686,-2486.4275,-361.1281,-1258.3969,-31.8285,-286.5673,-738.7527
30941.1765,-2487.6714,-357.8575,-1285.7571,-28.084,-286.3682,-744.2835
30960.7843,-2445.3364,-338.1866,-1276.4092,-14.7554,-274.5769,-740.7703
30980.3922,-2421.8376,-343.8378,-1330.8098,-60.3033,-286.366,-747.2645
31000,-2420.2415,-389.1619,-1394.291,-74.6734,-284.5722,-756.7366
31019.6078,-2483.0864,-446.951,-1505.8822,-168.2574,-289.3654,-792.2667
31039.2157,-2480.1406,-461.9511,-1561.2443,-181.7059,-278.5735,-806.7401
31058.8235,-2493.0732,-509.869,-1579.1443,-226.3604,-293.3644,-812.2661
31078.4314,-2430.0662,-467.971,-1593.2444,-198.7068,-282.5701,-823.7596
31098.0392,-2412.344,-469.9148,-1635.1748,-223.24,-283.3735,-815.2483
31117.6471,-2387.0051,-475.9362,-1650.2076,-250.6216,-273.5711,-818.7576
31137.2549,-2280.3411,-455.8957,-1675.287,-254.4136,-283.3789,-822.2661
31156.8627,-2274.707,-460.9938,-1708.0253,-271.6152,-280.5605,-824.7234
31176.4706,-2246.4956,-484.0188,-1702.2727,-306.4115,-280.3859,-838.3171
31196.0784,-2226.6006,-490.9932,-1747.9703,-319.5391,-278.5557,-844.7265
31215.6863,-2173.657,-484.0564,-1773.3912,-325.3811,-282.3921,-844.2786
31235.2941,-2162.5044,-490.9569,-1805.9943,-360.5119,-280.5461,-852.7968
31254.902,-2005.7343,-468.9633,-1800.3876,-323.5356,-269.4097,-838.3154
31274.5098,-1968.256,-474.9189,-1828.9221,-312.4914,-277.5385,-843.7587
31294.1176,-1884.6863,-438.1021,-1791.6503,-285.4997,-276.4154,-833.3147
31313.7255,-1882.2496,-478.769,-1840.6658,-333.4818,-280.5239,-845.775
31333.3333,-1784.9061,-421.078,-1788.7388,-284.496,-288.4238,-834.2821
31352.9412,-1767.1113,-448.6907,-1832.6078,-326.2869,-278.5079,-847.7906
31372.549,-1687.9509,-403.1766,-1833.8094,-334.5981,-276.4453,-844.2833
31392.1569,-1586.0184,-366.7442,-1792.4718,-290.2653,-274.4965,-823.7516
31411.7647,-1518.9348,-369.2965,-1802.9181,-294.678,-279.4616,-827.2665
31431.3725,-1444.8019,-329.7462,-1761.3738,-259.2919,-284.4709,-820.767
31450.9804,-1391.1051,-358.3216,-1764.918,-246.7614,-289.4739,-812.2689
31470.5882,-1312.5614,-321.4744,-1734.3577,-243.2569,-285.4516,-795.7602
31490.1961,-1273.3538,-366.3759,-1768.0371,-289.7245,-278.4997,-802.275
31509.8039,-1199.6124,-327.4754,-1733.1722,-260.2408,-282.4336,-796.7192
31529.4118,-1126.2346,-324.2859,-1731.119,-277.7799,-278.5191,-794.2944
31549.0196,-1038.4592,-298.4548,-1707.015,-234.1074,-292.4098,-783.7328
31568.6275,-1054.4816,-346.3851,-1742.2009,-278.8733,-284.5353,-783.3329
31588.2353,-1010.3081,-361.501,-1769.9802,-268.1449,-282.3925,-784.6932
31607.8431,-1005.5017,-388.3624,-1793.3175,-295.9495,-283.5604,-783.3353
31627.451,-958.058,-399.2613,-1796.9923,-352.0327,-283.3663,-783.7232
31647.0588,-919.7214,-395.5497,-1804.3948,-375.9313,-287.5847,-779.3052
31666.6667,-900.1076,-421.2376,-1820.7772,-403.1031,-282.3389,-781.7003
31686.2745,-901.635,-446.6102,-1849.481,-442.02,-284.6148,-785.2753
31705.8824,-887.9521,-464.1821,-1873.6222,-461.959,-279.3133,-779.6756
31725.4902,-907.8593,-529.6447,-1934.5981,-484.9655,-294.636,-782.2968
31745.098,-921.8119,-552.2883,-1943.692,-573.8385,-285.2809,-792.7393
31764.7059,-885.826,-529.7141,-1933.8365,-553.1607,-280.6755,-798.3549
31784.3137,-815.6721,-500.138,-1903.5466,-530.878,-288.2474,-779.6628
31803.9216,-812.0724,-536.6833,-1943.8237,-575.0653,-278.7066,-784.3219
31823.5294,-880.6514,-541.9987,-1980.5082,-658.9493,-283.2214,-796.6747
31843.1373,-832.9636,-512.7584,-1960.061,-657.1381,-283.733,-791.3444
31862.7451,-778.4642,-490.0663,-1919.2769,-606.746,-272.1976,-786.6653
31882.3529,-722.1882,-474.7916,-1877.0753,-598.2653,-283.7659,-780.2979
31901.9608,-702.3622,-450.0283,-1858.2743,-584.8539,-278.1599,-770.6953
31921.5686,-609.218,-413.0553,-1804.1965,-540.2271,-277.8024,-759.3392
31941.1765,-492.3831,-368.9128,-1750.1222,-492.6883,-294.1178,-737.7041
31960.7843,-432.2566,-326.0323,-1698.1644,-456.0931,-276.8356,-723.3771
31980.3922,-379.2525,-295.8004,-1654.0271,-452.6968,-277.0951,-725.6771
32000,-349.2843,-253.0642,-1639.2701,-423.2919,-276.8694,-714.3482
32019.6078,-267.236,-246.6772,-1566.9878,-396.7236,-287.0566,-699.6182
32039.2157,-239.3573,-244.0546,-1507.402,-343.1645,-286.8967,-698.3866
32058.8235,-162.0074,-198.6275,-1479.7264,-304.7765,-283.0242,-670.6639
32078.4314,-35.4289,-135.2093,-1392.325,-242.1997,-295.9246,-658.3031
32098.0392,5.8682,-109.526,-1348.7821,-215.5781,-275.9978,-639.603
32117.6471,48.4369,-85.3623,-1314.4767,-215.2778,-283.962,-643.3093
32137.2549,90.922,-82.4406,-1284.566,-205.6854,-274.9685,-634.5947
32156.8627,88.2729,-96.2392,-1216.6095,-155.1177,-282.9922,-625.3313
32176.4706,163.9267,-53.4049,-1196.4581,-159.6137,-285.931,-615.6411
32196.0784,266.3587,24.4859,-1084.5127,-70.1288,-278.0279,-585.333
32215.6863,385.9148,84.5485,-989.5329,-9.6209,-287.8978,-568.6153
32235.2941,432.3891,123.378,-949.6205,20.5452,-284.0547,-559.3732
32254.902,470.0804,156.5856,-893.2604,49.0555,-286.8673,-541.5922
32274.5098,514.2944,149.2315,-844.6425,82.6077,-277.0908,-538.3243
32294.1176,591.046,215.657,-752.2205,137.1825,-284.837,-516.5864
32313.7255,696.3427,266.2849,-625.7855,205.6894,-292.1116,-485.3435
32333.3333,754.0747,285.7541,-585.1389,249.0786,-282.8089,-473.598
32352.9412,890.4417,354.1681,-469.7774,328.7728,-290.1402,-457.3635
32372.549,914.2537,373.7826,-444.1049,350.239,-284.7812,-444.5571
32392.1569,971.288,406.1867,-380.6953,418.8456,-286.1708,-431.3091
32411.7647,1043.09,419.88,-323.0987,472.2252,-285.7519,-402.537
32431.3725,1082.3622,430.1079,-238.6626,529.7418,-287.1968,-396.3063
32450.9804,1138.1819,475.0579,-170.0176,560.1246,-277.733,-381.5695
32470.5882,1195.4215,492.9256,-113.8513,573.7455,-294.217,-367.357
32490.1961,1259.1187,550.1183,-63.0064,604.0546,-288.7034,-354.5525
32509.8039,1288.3231,577.9933,18.0646,649.9386,-279.2475,-345.3344
32529.4118,1291.3193,565.1041,29.7941,665.0159,-286.6834,-333.5031
32549.0196,1341.3655,582.899,114.0516,732.0371,-278.2686,-303.3091
32568.6275,1363.1704,615.3122,173.8211,768.0479,-284.6652,-298.5025
32588.2353,1373.3761,630.8097,193.0272,769.1119,-279.2867,-282.3398
32607.8431,1408.2823,632.2316,252.8346,813.0105,-283.6467,-276.5754
32627.451,1446.5852,653.658,295.0499,838.1752,-284.3009,-262.3309
32647.0588,1462.1495,644.3896,329.9007,852.9196,-297.6215,-249.5622
32666.6667,1510.5894,697.6887,374.0433,890.2001,-284.3169,-230.3045
32686.2745,1524.125,707.5544,430.8612,951.9398,-288.613,-226.5841
32705.8824,1548.5273,737.6083,454.9759,943.2759,-281.3303,-208.2795
32725.4902,1546.2192,736.5668,507.056,986.7974,-277.6107,-203.5211
32745.098,1547.6912,717.4603,530.104,1002.2486,-295.332,-201.2515
32764.7059,1558.0161,735.5488,560.01,1011.7631,-284.5968,-189.581
32784.3137,1562.6345,745.5027,583.0676,1038.5067,-281.3487,-172.2932
32803.9216,1587.11,749.6397,617.9019,1062.594,-287.5857,-168.537
32823.5294,1551.7318,719.5275,590.1843,1015.4479,-285.3539,-159.2083
32843.1373,1521.9801,734.7655,649.9565,1033.6946,-283.5829,-169.6038
32862.7451,1558.8076,776.5408,713.109,1093.5795,-289.3547,-137.1749
32882.3529,1556.9756,770.681,716.8816,1094.6156,-289.5757,-128.5632
32901.9608,1569.8202,774.3418,743.0535,1109.6515,-283.3635,-132.1603
32921.5686,1576.8507,775.6857,782.9397,1135.3434,-288.5734,-113.5761
32941.1765,1601.8602,804.3387,821.2109,1161.6937,-273.3701,-105.2156
32960.7843,1558.8218,788.6866,839.9536,1158.3955,-288.5736,-106.5736
32980.3922,1511.8739,768.4376,801.2243,1125.8132,-274.3689,-94.1477
33000,1466.7444,753.7071,826.7949,1135.1675,-296.5716,-110.6236
33019.6078,1458.9241,772.3011,859.158,1154.9408,-282.3593,-110.1818
33039.2157,1514.6534,826.7803,936.9744,1218.1692,-289.5814,-78.6216
33058.8235,1463.1521,778.319,945.2743,1214.1333,-278.3573,-79.112
33078.4314,1465.4995,772.7813,935.8755,1191.998,-283.5903,-74.6914
33098.0392,1455.1228,795.1534,980.391,1222.219,-286.3439,-63.1273
33117.6471,1455.5688,802.8453,1006.8801,1247.0249,-288.5944,-59.709
33137.2549,1454.3223,826.2529,1031.4384,1255.1273,-284.3358,-58.1065
33156.8627,1403.3478,822.9574,1042.7913,1252.8265,-285.6084,-42.711
33176.4706,1442.3477,849.1425,1085.5015,1275.415,-277.33,-39.0498
33196.0784,1410.2789,824.9193,1086.8844,1271.8829,-287.617,-31.6765
33215.6863,1410.4379,843.2924,1103.4008,1293.3879,-287.3118,-31.0474
33235.2941,1372.2891,837.0275,1082.7507,1270.7291,-272.6392,-36.6985
33254.902,1340.4139,843.2888,1140.4669,1306.5232,-289.2971,-33.0432
33274.5098,1331.2271,838.9737,1130.7039,1304.7152,-273.6537,-24.7906
33294.1176,1329.5499,844.157,1159.453,1283.6956,-280.2868,-16.0008
33313.7255,1287.1102,831.847,1138.6315,1292.6398,-286.6599,-20.7753
33333.3333,1301.59,856.2565,1189.6265,1316.5942,-281.274,-2.9964
33352.9412,1322.9548,896.8948,1215.6512,1337.577,-286.6728,4.1151
33372.549,1277.787,886.2925,1228.6256,1317.7272,-280.2588,-3.9375
33392.1569,1228.0028,845.0243,1282.5515,1364.4186,-279.6972,2.074
33411.7647,1260.7755,863.1807,1278.6014,1371.8766,-288.2333,18.0172
33431.3725,1261.8707,880.0176,1313.5055,1392.3099,-278.7158,30.1213
33450.9804,1212.8824,857.1425,1301.6658,1378.8942,-289.2133,31.9888
33470.5882,1222.7815,875.8941,1319.4929,1389.2844,-290.7289,25.098
33490.1961,1184.9283,854.3466,1312.6824,1393.0613,-290.1912,31.0474
33509.8039,1155.6506,840.8759,1324.4105,1389.2109,-278.7562,30.0738
33529.4118,1115.1223,841.1751,1335.741,1399.0155,-288.1751,35.1053
33549.0196,1140.4449,866.7901,1339.4482,1410.1847,-284.7693,31.9803
33568.6275,1099.0049,836.2264,1304.7791,1405.1814,-282.1642,28.1128
33588.2353,1159.4138,857.9082,1344.371,1426.9473,-283.7867,55.9934
33607.8431,1128.2305,854.3997,1348.9301,1416.1857,-287.1423,42.084
33627.451,1145.3013,876.9012,1381.3671,1439.9232,-281.8076,56.9371
33647.0588,1129.1934,859.3928,1381.8918,1453.2666,-291.1185,61.1413
33666.6667,1140.1853,834.742,1371.4474,1436.9324,-288.8257,58.9347
33686.2745,1100.3575,831.3263,1378.9003,1442.3744,-281.1027,61.1625
33705.8824,1064.0742,825.8542,1378.3165,1421.9492,-280.8516,58.9138
33725.4902,1047.4233,839.3478,1383.8678,1404.3308,-292.0743,62.1497
33745.098,952.0338,798.8098,1337.402,1335.8708,-290.8646,45.9087
33764.7059,974.5535,820.3636,1371.8381,1394.4834,-280.0632,51.2056
33784.3137,976.0586,811.7477,1400.4607,1440.8134,-286.8863,63.8757
33803.9216,1003.5636,856.4896,1423.9486,1464.3551,-281.0446,74.2099
33823.5294,951.0091,843.698,1428.4304,1453.8292,-277.9109,74.9115
33843.1373,954.7969,863.4531,1453.0311,1469.4348,-291.0183,86.2493
33862.7451,872.9364,829.6108,1411.4142,1393.8534,-287.9239,70.8593
33882.3529,902.7449,861.5506,1448.1041,1399.4077,-288.0007,70.3038
33901.9608,860.813,845.566,1429.2755,1398.6753,-284.9441,74.8806
33921.5686,836.874,838.4614,1436.0605,1433.494,-284.9863,74.2674
33941.1765,837.7507,842.5151,1445.4238,1421.8094,-289.9568,85.8329
33960.7843,778.8943,837.6382,1442.0962,1426.5576,-279.974,90.3393
33980.3922,764.7319,831.4564,1455.3331,1449.7887,-290.9723,92.8374
34000,709.9618,805.6993,1436.9446,1409.524,-282.9589,82.2891
34019.6078,696.5334,829.4727,1464.3875,1439.6987,-290.9849,89.8435
34039.2157,688.1262,849.6133,1453.0896,1457.4808,-288.9426,93.3567
34058.8235,670.4097,854.5098,1477.3149,1467.6887,-286.002,90.7982
34078.4314,626.1921,811.8366,1431.1307,1423.3883,-289.9276,90.3896
34098.0392,648.4511,827.4611,1457.3284,1444.7872,-289.0099,100.7916
34117.6471,643.1457,838.6871,1496.146,1487.5337,-282.922,106.3733
34137.2549,619.4827,840.3907,1480.385,1461.8646,-285.0226,100.7848
34156.8627,628.3085,865.7419,1493.1248,1472.3549,-289.9082,109.3638
34176.4706,638.2835,896.3267,1514.4224,1483.7773,-291.0268,102.801
34196.0784,628.3631,889.9897,1524.9731,1490.4121,-272.9134,112.3541
34215.6863,649.4348,919.4211,1589.584,1554.9297,-278.0405,126.749
34235.2941,679.4656,938.0157,1609.9966,1575.3683,-287.8968,145.4353
34254.902,701.3188,943.3663,1656.5541,1607.9889,-278.0475,152.8038
34274.5098,654.5428,898.0837,1600.0796,1566.2734,-286.8918,138.4223
34294.1176,655.268,911.3413,1622.577,1576.0709,-284.0492,142.8032
34313.7255,656.5615,938.1087,1614.0608,1558.2365,-287.888,139.3919
34333.3333,703.2142,990.1863,1693.6555,1617.1517,-276.0572,157.8058
34352.9412,656.6118,964.0901,1674.964,1588.2676,-286.8858,157.383
34372.549,691.1257,955.1382,1695.6353,1640.1428,-280.0576,164.8255
34392.1569,695.6521,953.1148,1711.9635,1618.292,-277.8894,162.3841
34411.7647,644.1987,896.0979,1642.7242,1607.1816,-284.0541,166.7604
34431.3725,666.5415,934.1367,1668.0289,1587.0881,-283.8867,157.3803
34450.9804,589.1757,903.1931,1635.881,1574.2391,-274.062,162.8177
34470.5882,563.5793,917.0983,1632.9128,1555.0328,-283.8867,165.4476
34490.1961,524.0803,891.0576,1620.8679,1567.3854,-283.0536,165.8072
34509.8039,499.6326,867.2167,1602.9597,1574.9368,-286.8887,161.4095
34529.4118,506.9589,894.05,1602.8368,1560.5323,-283.0492,159.8513
34549.0196,505.5575,899.2329,1594.9618,1527.9396,-286.8922,151.4015
34568.6275,513.063,890.1275,1616.8789,1566.5168,-284.0419,160.826
34588.2353,453.625,830.3302,1556.8242,1486.8188,-286.9027,153.4089
