t,AF3,F7,F3,F4,F8,AF4,
0.0000,-3416.2690,-2859.3916,-2297.2937,534.8264,-2692.6853,-2531.6606
19.6078,-3225.4385,-2811.3396,-2041.2095,538.1292,-2487.6221,-2297.6274
39.2157,-3150.8582,-2697.1902,-1914.9694,551.8642,-2380.3762,-2182.3906
58.8235,-3271.5344,-2535.3430,-1944.3192,568.1576,-2540.8630,-2188.8054
78.4314,-3688.6575,-2460.2190,-1874.6818,575.8892,-2553.0212,-2204.0757
98.0392,-3764.7866,-2435.4556,-1854.4735,581.1497,-2571.1128,-2207.9790
117.6471,-3120.4900,-2372.0947,-1650.6304,579.8680,-2210.7439,-1975.8763
137.2549,-2883.8394,-2361.4185,-1535.5814,569.1022,-1910.3145,-1795.1550
156.8627,-2846.3042,-2366.9216,-1444.4778,568.8589,-1869.4604,-1726.6726
176.4706,-2882.0391,-2248.4907,-1448.6094,581.1321,-1942.5867,-1675.3412
196.0784,-3245.1853,-2180.0559,-1406.3672,606.9076,-2037.1686,-1741.4359
215.6863,-3411.1274,-2160.4954,-1369.8328,611.0921,-2051.8044,-1714.4897
235.2941,-3323.1394,-2229.8589,-1496.1874,594.8793,-2119.9580,-1803.2736
254.9020,-3020.3413,-2276.5503,-1597.0408,577.0762,-2067.1362,-1917.7657
274.5098,-2789.9102,-2283.8633,-1415.0912,572.9236,-1804.7090,-1653.1260
294.1176,-2869.4333,-2266.5667,-1515.0131,577.0638,-1875.3690,-1696.9142
313.7255,-3029.8589,-2266.7844,-1618.7123,582.9340,-1997.3452,-1775.8527
333.3333,-3638.6353,-2276.6116,-1728.2209,586.0803,-2389.6494,-2025.0569
352.9412,-3798.7202,-2376.6807,-1936.7510,578.9139,-2592.2156,-2228.8064
372.5490,-3424.6118,-2469.7549,-2060.4280,553.0213,-2593.9822,-2351.3032
392.1569,-3245.6494,-2588.8679,-2042.6317,546.9719,-2427.9922,-2264.7146
411.7647,-3356.6719,-2714.6213,-2138.5281,541.0291,-2571.2375,-2375.4663
431.3725,-3450.6350,-2739.8169,-2346.4941,534.9495,-2703.7791,-2477.6074
450.9804,-3745.6733,-2733.7590,-2648.8982,526.9902,-3185.5017,-2707.6052
470.5882,-4057.6677,-2575.7988,-2440.5701,539.9597,-3148.6438,-2704.5208
490.1961,-3698.8503,-2540.6719,-2309.9797,552.0122,-2974.7593,-2569.7522
509.8039,-3311.6265,-2575.7891,-2205.5073,539.0131,-2595.4121,-2418.4358
529.4118,-3307.9419,-2676.7483,-2181.1011,538.9928,-2592.9565,-2389.8687
549.0196,-3310.6582,-2734.6809,-2196.2493,539.9890,-2616.2415,-2383.3728
568.6275,-3804.9690,-2864.7681,-2795.3442,508.9386,-3176.2192,-2917.0212
588.2353,-4319.7837,-2789.9053,-2889.4475,509.0108,-3598.2441,-3294.4666
607.8431,-3972.9395,-2636.9595,-2571.2749,530.9487,-3268.4285,-2839.1077
627.4510,-3566.8977,-2626.8516,-2459.1653,540.0223,-2912.0190,-2674.3423
647.0588,-3196.9106,-2607.8599,-2117.4058,541.9446,-2521.5444,-2331.1345
666.6667,-3168.9001,-2632.9370,-2056.2351,549.0686,-2487.8477,-2268.2910
686.2745,-3366.7593,-2669.8301,-2266.5449,546.9163,-2709.7036,-2480.1863
705.8824,-3974.9841,-2715.8887,-2768.2935,517.0660,-3467.8843,-3002.4048
725.4902,-4187.6504,-2671.9116,-2692.5735,528.9033,-3418.9424,-2965.2761
745.0980,-3784.0298,-2603.8633,-2494.1658,539.1141,-3137.7427,-2768.3855
764.7059,-3285.5237,-2548.8984,-2239.5544,535.8666,-2604.9155,-2447.1870
784.3137,-3102.2292,-2534.9592,-1991.2023,557.1287,-2401.6030,-2206.3738
803.9216,-3107.3547,-2569.8628,-2002.7273,548.8412,-2404.9990,-2208.1553
823.5294,-3898.5310,-2794.0208,-2932.1558,502.1404,-3227.6587,-2919.5208
843.1373,-4293.3657,-2877.7910,-3152.8213,503.8008,-3828.2815,-3379.2913
862.7451,-4273.6831,-2822.9285,-3023.2634,505.1734,-3716.6775,-3279.6240
882.3529,-3907.1406,-2907.8101,-2933.8345,506.7914,-3334.2349,-3123.1836
901.9608,-3622.8916,-2935.0459,-2708.2639,526.1987,-3103.6257,-2897.7061
921.5686,-3489.0100,-2940.8799,-2542.7439,518.7414,-2944.2466,-2736.0930
941.1765,-3894.9758,-3019.2046,-2967.3557,498.1703,-3419.7209,-3138.8765
960.7843,-4271.9790,-3034.7219,-3247.7629,495.7270,-3773.3843,-3403.1099
980.3922,-4665.3477,-3011.1074,-3420.4705,490.1866,-4082.8669,-3634.0820
1000.0000,-4127.5869,-2964.7878,-3241.8301,476.6878,-3658.3259,-3440.9939
1019.6078,-3765.5049,-2954.3218,-2820.5103,519.2198,-3229.7751,-2989.1079
1039.2157,-3539.1731,-2959.6047,-2639.6421,506.6990,-3025.1575,-2826.7517
1058.8235,-3465.6416,-2809.2527,-2498.4355,524.2361,-2911.7944,-2674.2031
1078.4314,-3684.0398,-2694.6716,-2665.4443,524.6715,-3240.0791,-2775.5632
1098.0392,-3904.0251,-2658.3669,-2617.4297,536.2937,-3275.9492,-2893.3992
1117.6471,-4132.9160,-2560.4124,-2435.4929,543.6710,-3125.9084,-2695.3501
1137.2549,-3503.2839,-2508.4302,-2284.5850,545.2819,-2844.0308,-2551.5457
1156.8627,-2998.2722,-2402.3975,-1900.1234,557.6120,-2289.6191,-2123.0520
1176.4706,-2813.5066,-2261.3579,-1560.6176,578.3439,-1981.0685,-1795.6466
1196.0784,-2974.1418,-2200.3535,-1620.9475,577.6346,-2071.4114,-1847.7920
1215.6863,-3323.9045,-2202.5090,-1748.9132,587.3253,-2402.3308,-2067.9202
1235.2941,-3710.8032,-2227.2859,-1824.9474,584.5938,-2565.2756,-2133.5908
1254.9020,-3679.1245,-2254.5647,-1842.1278,577.3565,-2531.6084,-2151.1992
1274.5098,-3170.4543,-2270.9993,-1861.7648,570.5535,-2375.0269,-2148.3718
1294.1176,-2692.4861,-2145.6494,-1371.1262,570.3921,-1823.7638,-1624.3945
1313.7255,-2658.0579,-1990.9025,-1222.4858,594.5500,-1715.6617,-1492.9996
1333.3333,-2811.9758,-1884.8612,-1175.4240,604.4105,-1790.0591,-1515.6760
1352.9412,-3014.7791,-1789.7747,-927.2304,640.5725,-1637.3744,-1313.6960
1372.5490,-2817.3152,-1670.9218,-675.5377,645.4087,-1395.3690,-1118.9673
1392.1569,-2686.3262,-1493.8466,-401.9364,650.5475,-1025.9984,-772.3486
1411.7647,-2229.5039,-1426.8948,-235.6359,640.4282,-861.5936,-616.1777
1431.3725,-1875.7743,-1234.7113,133.0587,654.5037,-462.5855,-249.9709
1450.9804,-1863.0066,-1126.0450,282.8952,667.4639,-296.8616,-104.4252
1470.5882,-1952.4785,-1011.4324,476.4223,706.5535,-98.1397,53.9240
1490.1961,-1780.3613,-911.1299,634.7109,709.4818,85.3514,221.8275
1509.8039,-1624.9517,-737.3660,994.7380,721.5300,420.8428,413.3214
1529.4118,-1408.7034,-581.1592,1288.6104,715.5116,720.0582,687.5715
1549.0196,-825.4216,-269.0311,1838.0317,732.5348,1288.3870,1347.8086
1568.6275,-673.8476,-114.2223,2087.3022,745.4883,1570.7583,1599.3575
1588.2353,-619.9298,-38.0557,2137.4067,757.5007,1694.9060,1704.2377
1607.8431,-564.4567,19.3899,2103.0603,762.5275,1679.3723,1731.0619
1627.4510,-370.5056,222.0251,2420.7339,779.5239,1973.3890,1901.6138
1647.0588,-216.6307,268.2973,2613.7600,780.5295,2094.9875,2118.7656
1666.6667,-123.0305,408.9672,2869.1680,779.5222,2407.9402,2363.0601
1686.2745,247.6136,682.3678,3248.5583,809.5410,2825.6433,2780.5190
1705.8824,487.1880,839.3471,3243.4502,802.5087,2852.5181,2874.5327
1725.4902,731.2634,1002.1035,3294.4290,807.4905,2903.1968,2933.2046
1745.0980,855.4886,1115.5057,3507.7502,810.5120,2995.0459,3000.9324
1764.7059,1047.9119,1270.1204,3653.0000,809.5436,3301.7769,3258.9033
1784.3137,1155.0289,1392.6067,4073.2549,837.5397,3573.6807,3487.3899
1803.9216,1425.7245,1678.1462,4371.8555,859.5543,4170.4297,4050.7007
1823.5294,1584.5037,1790.8436,4309.5762,856.4997,4023.3137,3963.8772
1843.1373,1734.3334,1906.1338,4173.5708,853.5287,3890.9504,3853.3811
1862.7451,1898.0157,2066.9902,4333.9258,850.5494,4021.8379,3957.2407
1882.3529,2170.0876,2315.0864,4844.3579,856.5322,4392.5034,4301.0874
1901.9608,2438.4331,2529.0222,5203.4033,872.5231,4773.4771,4632.7021
1921.5686,2644.6450,2650.8965,5358.0786,887.5201,5053.0654,4870.8096
1941.1765,2835.9202,2809.1289,5060.8149,891.5528,4875.0356,4826.1118
1960.7843,2796.3347,2898.9097,5005.7456,887.5056,4826.5498,4762.4741
1980.3922,2661.1907,2970.4170,5117.1855,883.5580,4867.5669,4753.4502
2000.0000,2638.0662,3031.8420,5177.5669,880.5137,4944.0483,4832.1479
2019.6078,2683.6357,3059.4795,5303.5234,876.5926,5052.1104,4921.8042
2039.2157,2666.6650,3018.7061,5311.2017,877.4927,5082.5186,4945.8071
2058.8235,2482.8330,2838.4875,4965.6899,883.5891,4776.5684,4717.0996
2078.4314,2418.3110,2811.5488,4745.7476,881.4430,4562.9395,4528.4233
2098.0392,2331.1584,2826.4470,4671.8921,871.6293,4389.0347,4327.3652
2117.6471,2200.8923,2837.5740,4603.4502,860.4210,4316.3911,4272.0693
2137.2549,2323.6025,2927.6016,4771.3149,856.5999,4481.5454,4423.6792
2156.8627,2406.6021,2960.5000,4973.0645,867.3821,4612.9014,4518.7739
2176.4706,2517.8870,2972.5989,5144.5752,880.6348,4919.0796,4633.9814
2196.0784,2547.2869,2998.4382,4821.8730,889.3903,4615.4453,4581.5298
2215.6863,2604.1736,3062.8057,4747.8613,883.6649,4523.5293,4494.2676
2235.2941,2498.1580,3115.5801,4720.5981,873.3566,4385.9541,4353.2368
2254.9020,2480.4238,3159.7493,4788.1641,865.6947,4484.9995,4453.5356
2274.5098,2646.9758,3275.5894,5005.5151,859.3737,4672.5479,4615.0259
2294.1176,2750.5679,3318.8831,5146.3643,882.6944,4847.5103,4765.8428
2313.7255,2897.6926,3342.4282,5274.1831,893.3510,5033.1460,4891.8198
2333.3333,2984.8455,3413.7000,4914.6362,896.7438,4697.9233,4682.0571
2352.9412,2821.3467,3452.5989,4896.0054,890.3096,4620.6572,4580.5410
2372.5490,2832.0251,3454.9192,4905.8735,889.7904,4633.2896,4587.2266
2392.1569,2707.1870,3502.4431,4965.7163,876.2553,4639.2417,4608.3223
2411.7647,2682.1470,3470.7466,5000.0166,870.8043,4686.6724,4626.4189
2431.3725,2745.0510,3441.4092,5186.6060,887.2408,4766.8535,4682.1133
2450.9804,2894.4707,3475.8416,4935.1875,900.8666,4713.0107,4780.6001
2470.5882,2852.0181,3489.4331,4773.4312,892.2024,4535.5054,4527.9541
2490.1961,2546.6626,3443.6897,4607.3745,875.8588,4218.3135,4230.7153
2509.8039,2425.8496,3417.5125,4564.2261,864.1896,4201.1934,4208.8062
2529.4118,2371.7012,3352.8196,4547.5029,851.8801,4162.6411,4166.8750
2549.0196,2163.6882,3172.5142,4377.1523,852.1244,3975.8647,3982.6653
2568.6275,1798.5771,2880.5786,4287.6309,854.9231,3885.8450,3843.9097
2588.2353,1865.4871,2894.6733,4111.9165,859.1316,3705.6086,3759.5581
2607.8431,1812.6895,2867.4758,3748.4885,852.9712,3345.0276,3445.9524
2627.4510,1666.5055,2794.5737,3521.7131,835.0828,3052.2847,3170.3813
2647.0588,1638.8635,2782.3772,3532.6270,832.0024,3077.1938,3174.9819
2666.6667,1403.4209,2634.8484,3372.5762,823.0124,2894.0334,3007.2781
2686.2745,1120.6635,2436.3555,3348.7437,825.0585,2857.2874,2939.9626
2705.8824,966.2761,2334.9067,3250.5576,819.0067,2714.8560,2817.2134
2725.4902,894.7441,2255.2600,2956.7087,814.0758,2458.3965,2596.9509
2745.0980,727.3476,2160.7578,2549.5051,803.9847,2042.6237,2269.1003
2764.7059,551.6264,2034.0762,2307.4717,802.0707,1767.3710,1990.8406
2784.3137,187.0292,1826.7875,1993.4623,798.8915,1387.3446,1642.9316
2803.9216,-142.2355,1569.9004,1685.4589,766.1166,952.2548,1280.6591
2823.5294,-248.6302,1483.0482,1477.2595,750.8897,741.1220,1098.8112
2843.1373,-402.4109,1359.6157,1055.2167,736.1797,484.1303,844.5013
2862.7451,-738.8011,1054.0618,621.0529,731.8329,-183.6059,427.6728
2882.3529,-1238.7341,807.3734,132.0425,733.2023,-669.5930,-229.2609
2901.9608,-1563.6805,578.9440,-337.8297,723.7930,-1136.8279,-638.0151
2921.5686,-1920.8335,289.1397,-882.0650,692.1867,-1755.8293,-1167.5093
2941.1765,-1816.7313,245.0585,-962.6719,663.7595,-1720.8433,-1289.0133
2960.7843,-1735.0216,116.1530,-1088.1746,650.2151,-1708.8596,-1358.6050
2980.3922,-1717.6089,74.2422,-1205.5359,649.7025,-1743.7355,-1396.9071
3000.0000,-2004.0398,-14.9037,-1441.2556,654.2819,-2121.9761,-1690.7238
3019.6078,-2292.4023,-122.4503,-1615.3959,662.6693,-2539.7761,-1878.8954
3039.2157,-2683.2566,-392.2238,-2127.6313,646.3083,-3056.2800,-2351.9749
3058.8235,-2672.4211,-540.2016,-2313.4612,610.6413,-2925.7175,-2503.8867
3078.4314,-2466.5828,-629.3088,-2187.8562,616.3047,-2766.4004,-2382.1230
3098.0392,-2422.2356,-741.9933,-2209.1809,611.6381,-2756.5107,-2385.7190
3117.6471,-2400.6819,-792.5344,-2401.8147,615.3727,-2976.5933,-2476.2646
3137.2549,-2740.0034,-858.0197,-2721.1035,597.5858,-3380.3286,-2998.5808
3156.8627,-3108.8772,-907.7763,-2894.1467,594.3983,-3888.9250,-3305.5349
3176.4706,-3119.6570,-978.7056,-2981.7388,584.5648,-3563.0496,-3269.3887
3196.0784,-2870.1125,-1073.7987,-2774.2354,583.4127,-3308.0369,-3047.6348
3215.6863,-2772.4133,-1190.4845,-2728.5520,592.5474,-3207.6960,-2987.1270
3235.2941,-2727.1335,-1237.9629,-2837.5486,586.4446,-3225.2617,-2966.7751
3254.9020,-2951.1992,-1347.2888,-3120.3662,566.5221,-3739.4656,-3402.9741
3274.5098,-3471.5017,-1278.2244,-3408.8496,566.4241,-4318.7432,-3826.1201
3294.1176,-3421.0056,-1286.0668,-3389.0298,567.5270,-4023.1973,-3693.8149
3313.7255,-3157.8979,-1337.3522,-3125.1255,567.4720,-3634.9619,-3396.2644
3333.3333,-3056.8057,-1502.9807,-3063.7925,566.4842,-3538.7832,-3306.5383
3352.9412,-2979.1606,-1612.6602,-3021.3555,572.4834,-3547.3284,-3291.4961
3372.5490,-3084.5186,-1670.7472,-3153.4673,565.4363,-3741.4424,-3429.3311
3392.1569,-3721.3252,-1745.8899,-3906.8091,526.5189,-4582.8428,-4163.8647
3411.7647,-4117.3643,-1787.7450,-4201.3174,531.4179,-4716.2271,-4453.2705
3431.3725,-3855.6775,-1916.1348,-3924.0618,519.4917,-4428.2061,-4141.0918
3450.9804,-3573.9529,-1992.5599,-3682.9924,528.4597,-4139.7944,-3884.9858
3470.5882,-3263.8979,-1983.4088,-3389.3667,548.5151,-3890.5676,-3624.2686
3490.1961,-3180.7139,-1964.4111,-3339.5911,552.3954,-3872.3210,-3571.6904
3509.8039,-3499.2078,-1926.5387,-3685.6702,535.5202,-4248.0322,-3884.5564
3529.4118,-3761.4258,-1842.1754,-3960.4844,531.3788,-4692.0146,-4220.5430
3549.0196,-3822.6582,-1857.7692,-3864.0105,526.5660,-4426.4873,-4128.8398
3568.6275,-3430.1113,-1831.9731,-3453.1724,544.3748,-3944.4607,-3689.2158
3588.2353,-3073.7043,-1811.8022,-3073.3069,559.5575,-3525.7722,-3319.9109
3607.8431,-2969.8074,-1867.6351,-2991.7266,567.4233,-3477.8989,-3232.8613
3627.4510,-3859.0762,-2107.1028,-4122.6362,505.5770,-4451.3120,-4112.2432
3647.0588,-4295.6201,-2175.6289,-4436.4907,506.3944,-4832.5840,-4613.7754
3666.6667,-4092.3142,-2305.2590,-4121.9800,497.5759,-4648.7266,-4349.4683
3686.2745,-3783.2544,-2335.4763,-3826.9360,518.3727,-4271.0010,-4034.3979
3705.8824,-3398.6782,-2296.3064,-3479.1819,531.5845,-3952.1104,-3711.5952
3725.4902,-3236.7891,-2239.3105,-3311.6011,553.4019,-3808.4521,-3553.0742
3745.0980,-3383.9485,-2042.5262,-3402.4539,543.5591,-3963.5208,-3623.7737
3764.7059,-3723.4233,-1974.0555,-3694.3438,540.4058,-4401.0000,-3882.8389
3784.3137,-3806.1191,-1968.5865,-3653.7439,543.5559,-4275.9570,-3929.0237
3803.9216,-3424.1902,-1942.9406,-3273.9419,542.3975,-3768.4351,-3514.5208
3823.5294,-3004.3953,-1871.7927,-2840.9453,561.5441,-3290.3145,-3079.1318
3843.1373,-2655.7322,-1746.5979,-2466.3596,582.4316,-2929.8157,-2724.1321
3862.7451,-2546.6423,-1488.6984,-2238.1528,597.5910,-2746.6521,-2516.2383
3882.3529,-2720.4778,-1352.5419,-2178.0061,621.4408,-2900.2803,-2579.8330
3901.9608,-2679.9451,-1172.6995,-1888.1864,642.5395,-2674.9875,-2442.3499
3921.5686,-2543.0303,-1126.2404,-1775.7283,640.4719,-2549.7324,-2182.4910
3941.1765,-2301.1729,-1032.8248,-1588.5850,646.5562,-2185.4722,-1993.6194
3960.7843,-1873.6256,-911.1032,-1198.3127,639.4576,-1670.2122,-1560.2262
3980.3922,-1619.4989,-721.0049,-831.8281,656.5317,-1338.8160,-1212.7322
4000.0000,-1814.3853,-645.9150,-756.9555,678.4727,-1429.6998,-1205.9464
4019.6078,-1795.7863,-540.0838,-552.9906,711.5234,-1327.1708,-1094.8425
4039.2157,-1839.0402,-570.8214,-635.5372,701.4844,-1299.1035,-1063.6139
4058.8235,-1755.0377,-511.0472,-487.3919,707.5339,-1136.6550,-943.0474
4078.4314,-1702.8876,-513.9100,-472.4333,678.5060,-1139.7788,-922.5408
4098.0392,-1237.1746,-316.1440,-69.4552,681.4534,-667.0513,-524.1942
4117.6471,-1185.7020,-158.8482,197.7256,706.5718,-418.2760,-274.2910
4137.2549,-1306.4182,-170.1516,166.0293,725.4897,-459.3916,-306.3127
4156.8627,-1364.3425,-161.5700,126.0617,737.5952,-457.7406,-310.0078
4176.4706,-1444.6094,-230.2829,9.7062,725.4666,-545.7137,-391.4108
4196.0784,-1447.1605,-201.5724,86.1857,707.5842,-564.4697,-388.9292
4215.6863,-943.9250,19.6568,531.5364,708.4084,-100.0673,60.9671
4235.2941,-664.7757,250.1507,947.5309,729.6353,351.5254,469.8388
4254.9020,-482.9231,390.4935,1217.5403,746.4252,643.2152,714.9437
4274.5098,-401.4205,477.3171,1388.9005,772.6331,809.0806,848.1526
4294.1176,-359.9660,514.6620,1452.4841,778.3599,891.0402,920.9630
4313.7255,-420.1214,543.2845,1481.1295,770.6741,908.4102,953.2841
4333.3333,-531.4822,516.5142,1379.2292,747.3365,818.5959,895.7498
4352.9412,-512.0826,528.3610,1390.0911,748.7319,822.6241,899.3112
4372.5490,-608.5792,486.6920,1304.1567,747.3084,731.2595,827.6025
4392.1569,-684.7722,440.2552,1183.2511,750.7439,617.8821,716.3836
4411.7647,-739.8507,406.5473,1074.9290,766.2992,530.0301,631.5001
4431.3725,-855.7382,336.3271,922.1869,755.7657,327.0616,510.4430
4450.9804,-797.0305,380.4849,1024.8176,736.2956,409.6707,564.3118
4470.5882,-785.6771,384.2797,993.3940,726.7878,372.2658,522.5020
4490.1961,-734.1484,414.5222,1044.6682,730.2463,428.3667,590.1765
4509.8039,-711.3182,444.0917,1074.5155,738.7899,476.5168,610.5986
4529.4118,-697.4152,451.6029,1092.4075,758.2023,489.2159,626.1461
4549.0196,-748.1434,441.0145,1032.7607,771.8655,445.7991,559.7405
4568.6275,-621.4591,566.7332,1297.3320,754.1956,692.9772,704.0303
4588.2353,-414.0817,651.9896,1421.8090,743.8484,812.9769,927.7844
4607.8431,-321.8160,711.9385,1530.3777,757.1061,938.8187,1052.0250
4627.4510,-332.9727,732.9504,1543.7882,757.9074,954.0824,1051.7775
4647.0588,-180.6987,821.9443,1695.1615,765.0760,1121.7246,1207.0223
4666.6667,-115.6682,871.9041,1732.9604,789.9558,1228.3549,1267.8960
4686.2745,273.9883,1116.9221,2163.1809,791.1016,1707.5845,1706.0026
4705.8824,444.0572,1258.7164,2495.8562,791.0090,1971.5099,1962.9655
4725.4902,292.6958,1218.0852,2381.1062,789.0186,1828.3611,1858.8766
4745.0980,387.1040,1290.7325,2486.8955,793.0262,1950.5555,1965.9437
4764.7059,478.4556,1345.1014,2421.0483,793.9769,1977.2408,2049.8291
4784.3137,382.3007,1313.6311,2278.9265,790.0432,1819.5924,1878.8984
4803.9216,125.4385,1192.1285,2083.9907,797.9701,1609.0358,1674.6964
4823.5294,65.2933,1139.2468,2100.8677,780.0839,1524.5427,1618.8175
4843.1373,37.3772,1146.3157,2080.8296,774.9491,1480.8540,1563.6201
4862.7451,72.1570,1169.1315,2076.7563,778.0667,1502.4843,1579.7046
4882.3529,148.2377,1213.4801,2168.8286,779.9093,1596.7635,1661.5474
4901.9608,22.3783,1150.0970,1963.6531,785.1353,1431.4502,1503.6276
4921.5686,-177.7127,1032.3685,1707.7723,791.8512,1167.6765,1243.4872
4941.1765,-98.4001,1060.9664,1816.4524,789.1357,1241.4144,1323.5728
4960.7843,-125.7112,1039.4814,1766.6613,767.8072,1188.6844,1312.5243
4980.3922,-146.5430,1018.6522,1690.3926,752.1573,1077.2937,1228.4973
5000.0000,-260.8641,975.7787,1577.8008,750.8065,970.6417,1142.4655
5019.6078,-401.4241,891.4984,1385.3445,752.1796,790.1705,957.3663
5039.2157,-540.8783,794.9149,1161.7761,768.7700,578.6451,758.4490
5058.8235,-565.5027,771.3448,1102.2172,776.2222,509.0392,674.2548
5078.4314,-654.0981,722.8534,964.7325,744.7253,379.7062,566.4813
5098.0392,-722.4987,610.1933,762.0844,724.2583,123.8070,481.1087
5117.6471,-879.0693,523.1406,594.8203,715.6878,-70.8054,197.4605
5137.2549,-1124.4720,365.8987,288.9843,703.2817,-388.8548,-113.5305
5156.8627,-1600.0588,94.2231,-284.1049,714.6998,-983.7502,-659.0582
5176.4706,-1565.5077,90.6315,-303.9549,717.3353,-995.9819,-663.6061
5196.0784,-1519.0208,93.4527,-276.9507,715.6371,-989.6176,-652.9750
5215.6863,-1442.5776,103.4713,-219.1152,703.3401,-940.2039,-610.7337
5235.2941,-1345.2067,118.5347,-182.9985,682.6274,-846.5448,-541.9667
5254.9020,-1322.7930,50.4075,-331.0593,671.3470,-934.3876,-708.8517
5274.5098,-1672.0356,-68.1385,-580.8039,699.5690,-1289.4000,-943.9227
5294.1176,-1679.8542,-64.6342,-599.3284,711.3987,-1306.5442,-953.9216
5313.7255,-1721.0469,-103.8215,-649.6901,708.5729,-1367.1987,-1005.8212
5333.3333,-1611.9246,-65.7722,-572.3735,701.4355,-1275.7867,-917.0309
5352.9412,-1415.0459,19.1345,-312.6667,679.5396,-1095.0325,-753.7454
5372.5490,-1308.9796,26.7673,-325.4973,670.4630,-943.9850,-733.1425
5392.1569,-1467.9910,-6.5214,-390.4306,696.4888,-1098.7428,-786.6142
5411.7647,-1548.9147,-38.1754,-467.5321,712.4930,-1183.1582,-840.1683
5431.3725,-1541.7756,-34.2896,-463.3048,712.4758,-1195.4690,-842.4789
5450.9804,-1461.0682,-2.4966,-379.5617,712.5153,-1125.3802,-778.2540
5470.5882,-1261.7859,94.7119,-153.3432,705.4766,-876.2673,-546.3773
5490.1961,-1096.0077,188.1227,45.0992,700.4957,-668.5752,-367.3150
5509.8039,-1154.6537,84.8862,-182.2248,690.4720,-887.0654,-595.3167
5529.4118,-1524.0608,-15.6447,-400.6455,704.5508,-1113.7524,-801.3801
5549.0196,-1614.4788,-65.8623,-503.9439,714.4733,-1235.7866,-906.1902
5568.6275,-1672.1456,-99.9111,-569.7365,715.5884,-1318.9390,-982.3956
5588.2353,-1675.5688,-118.5356,-602.0688,703.4439,-1345.6024,-1004.1547
5607.8431,-1720.2117,-175.0810,-759.9265,671.5467,-1400.2646,-1076.5627
5627.4510,-1460.3713,-181.4822,-691.0113,667.3712,-1241.3597,-999.0950
5647.0588,-1562.4063,-143.3539,-608.1164,678.6074,-1313.5131,-985.6392
5666.6667,-1542.2369,-103.2659,-548.5948,706.4207,-1254.9856,-921.8921
5686.2745,-1379.4656,-1.4382,-346.9879,719.6110,-1061.6813,-735.6155
5705.8824,-1251.1204,67.6733,-201.6561,728.3721,-875.6798,-585.7535
5725.4902,-1202.5643,96.2469,-127.2002,708.6086,-840.9532,-542.7386
5745.0980,-974.9702,208.1169,147.4025,697.3651,-556.3618,-278.6141
5764.7059,-844.5970,280.1242,251.6549,707.6622,-409.1194,-164.7393
5784.3137,-1120.6859,199.2502,70.5864,720.3476,-611.0156,-356.4842
5803.9216,-1456.6354,18.8313,-301.2701,730.6705,-986.4398,-699.8159
5823.5294,-1755.5906,-144.3662,-646.3528,708.3679,-1365.8182,-1015.4511
5843.1373,-1942.9985,-295.0795,-915.2103,693.6705,-1638.7886,-1279.9766
5862.7451,-1788.6277,-396.2389,-1085.2289,647.3311,-1571.5642,-1397.4237
5882.3529,-1625.0757,-367.2034,-961.3923,647.6367,-1425.9955,-1222.0233
5901.9608,-1733.4050,-406.9564,-1102.0961,669.3556,-1698.2898,-1417.3052
5921.5686,-2059.1404,-456.3405,-1203.4889,674.6698,-1920.3225,-1533.1313
5941.1765,-2042.2031,-436.8169,-1149.0935,682.3506,-1919.0070,-1496.1973
5960.7843,-2052.1479,-454.6276,-1169.3608,677.6880,-1945.5564,-1528.1748
5980.3922,-1839.2167,-420.5956,-1044.0291,657.3063,-1680.6930,-1389.1013
6000.0000,-1540.2234,-359.7271,-890.3271,648.6831,-1376.7000,-1185.1709
6019.6078,-1573.7811,-372.4137,-870.8950,653.3341,-1413.3669,-1194.9712
6039.2157,-1690.3790,-383.8430,-970.4000,676.6743,-1653.9912,-1312.2389
6058.8235,-1785.7930,-334.2441,-876.9536,696.3046,-1620.1016,-1232.8656
6078.4314,-1671.6188,-267.9563,-734.4247,704.7237,-1477.1818,-1097.2499
6098.0392,-1200.3885,-9.1452,-159.8564,701.2999,-860.6678,-573.6445
6117.6471,-871.6337,187.7815,470.5507,704.7173,-453.2308,-191.1351
6137.2549,-537.1238,409.8620,900.0845,734.3461,17.2942,225.0923
6156.8627,-259.7713,686.6293,1279.6875,752.6801,624.2062,604.4535
6176.4706,160.7861,897.1376,1659.3453,779.3751,1067.7528,1142.3530
6196.0784,366.1152,1050.6945,1844.9025,791.7448,1367.1600,1416.5724
6215.6863,772.2646,1375.2780,2421.4236,803.3904,1973.2206,1992.6411
6235.2941,864.0360,1483.6298,2726.1445,816.7132,2207.1086,2195.6921
6254.9020,627.2986,1400.5658,2550.5042,807.3633,2012.5492,2028.7542
6274.5098,441.6828,1313.4559,2243.9001,784.6889,1815.7910,1858.5894
6294.1176,286.3511,1239.5007,2010.5428,790.4050,1612.7151,1685.7660
6313.7255,45.6678,1104.4333,1781.9286,785.7105,1279.4629,1401.4745
6333.3333,254.6126,1210.7272,1971.4449,793.3600,1483.9695,1587.8256
6352.9412,422.5054,1301.4011,2235.9890,793.7008,1667.3551,1758.5045
6372.5490,558.8375,1396.7338,2407.5696,795.4177,1853.3245,1917.9762
6392.1569,595.2128,1439.2316,2475.2917,799.6477,1887.1444,1960.4988
6411.7647,575.9396,1449.0155,2330.5208,790.4353,1862.5309,1931.0200
6431.3725,400.1010,1349.2856,2024.2031,790.6763,1637.9077,1755.4600
6450.9804,-83.7874,1106.9178,1660.3038,793.3976,1120.6329,1221.9501
6470.5882,-239.7688,996.0646,1479.1652,778.6241,882.6445,1035.3746
6490.1961,-627.5560,788.9927,1028.2179,745.4464,380.7711,598.9175
6509.8039,-820.0529,637.0180,767.1024,724.6212,54.2558,330.1763
6529.4118,-913.5394,528.1512,403.1418,703.4534,-182.6763,101.8335
6549.0196,-1130.3558,394.0323,176.1527,716.6005,-455.4871,-156.4048
6568.6275,-1213.2107,308.0796,59.0650,740.4938,-631.5815,-319.6863
6588.2353,-1122.4061,334.8375,131.2723,738.6081,-584.6210,-255.4140
6607.8431,-1099.0414,346.9918,152.0167,725.4641,-577.3489,-257.6045
6627.4510,-1073.5067,347.8305,159.3195,706.5620,-570.8394,-239.5112
6647.0588,-1022.0844,346.0761,127.8347,695.5160,-576.3016,-251.6557
6666.6667,-976.6468,331.7581,128.3406,707.5602,-555.9619,-277.5368
6686.2745,-1194.8087,251.0553,20.6006,732.5559,-760.1874,-427.6479
6705.8824,-1144.9811,259.7668,24.6361,741.5399,-727.0668,-383.5260
6725.4902,-1091.7103,307.1717,87.6508,728.5499,-645.9921,-322.5691
6745.0980,-1084.9843,297.9650,81.6961,710.4482,-634.2288,-320.5683
6764.7059,-1052.6084,319.0492,99.4426,702.5784,-607.9929,-280.6549
6784.3137,-1006.0912,280.9743,70.6993,697.4158,-614.3646,-306.6284
6803.9216,-1194.4337,235.1563,-14.4445,710.6123,-786.9562,-432.6915
6823.5294,-1161.4050,226.9411,-51.8298,743.4261,-795.4257,-433.6281
6843.1373,-1146.3335,249.0763,-28.6775,739.6549,-766.8219,-431.6382
6862.7451,-1169.4635,230.8902,-50.7889,719.3749,-787.5306,-433.6746
6882.3529,-1091.2532,262.9934,31.8603,706.7078,-707.8798,-353.7025
6901.9608,-1199.6539,162.9034,-168.7475,679.3117,-869.7126,-543.8193
6921.5686,-1657.2292,-86.0206,-738.1039,676.7101,-1416.0045,-1082.8578
6941.1765,-1953.9427,-215.8206,-1039.8696,690.2855,-1757.8525,-1298.9286
6960.7843,-2076.8806,-390.9856,-1329.1674,679.7651,-2143.9490,-1637.8160
6980.3922,-2294.1328,-491.8124,-1478.6487,667.2555,-2289.9387,-1783.9529
7000.0000,-2319.0391,-555.9849,-1583.4824,642.7936,-2308.0549,-1879.9595
7019.6078,-2100.3708,-658.7828,-1624.6251,629.1719,-2106.0588,-1863.0957
7039.2157,-2213.8782,-783.2012,-1767.8333,632.8442,-2328.1292,-1990.0345
7058.8235,-2429.5247,-806.8543,-1998.6466,623.1691,-2613.0801,-2216.1304
7078.4314,-2757.6873,-865.3256,-2243.8813,630.9020,-3005.2468,-2454.1074
7098.0392,-2733.5879,-928.6064,-2290.4758,631.1281,-3118.0557,-2479.1367
7117.6471,-2852.6521,-1025.4788,-2416.1899,609.9426,-3105.3706,-2648.1697
7137.2549,-2819.7878,-1237.6543,-2544.5215,593.0463,-2988.1121,-2721.2800
7156.8627,-3063.8579,-1679.7252,-2953.3223,577.9681,-3475.5996,-3093.3342
7176.4706,-3301.9656,-1761.6833,-3240.4832,555.9819,-3812.1807,-3366.4038
7196.0784,-3594.7334,-1829.9124,-3603.6965,542.9834,-4218.8594,-3716.4973
7215.6863,-3762.9263,-1772.5243,-3790.4043,532.9409,-4508.1416,-3900.4473
7235.2941,-3897.7310,-1803.9819,-3774.8599,528.0444,-4281.0308,-3920.5774
7254.9020,-3393.9043,-1848.3381,-3374.1580,540.8964,-3900.9246,-3523.3977
7274.5098,-3134.7583,-2007.2743,-3202.1489,554.0971,-3723.1685,-3344.5549
7294.1176,-3308.0598,-2061.3643,-3378.0525,548.8494,-3940.8560,-3514.4375
7313.7255,-3480.7612,-2028.4187,-3570.4299,530.1312,-4157.4448,-3691.6895
7333.3333,-3797.2231,-2073.1069,-3870.9841,523.7528,-4547.7588,-4007.4834
7352.9412,-4033.7813,-2025.5590,-4121.6597,515.1917,-4757.7324,-4256.8208
7372.5490,-3873.1665,-2052.0151,-3730.7510,511.7277,-4231.5923,-4064.5107
7392.1569,-3091.7798,-2108.8975,-3140.6150,559.2367,-3618.7898,-3274.7493
7411.7647,-3215.0601,-2130.8433,-3263.6692,550.6786,-3795.3555,-3406.4155
7431.3725,-3207.7483,-2059.0066,-3271.9900,546.2878,-3832.0981,-3408.8484
7450.9804,-3357.2229,-1968.8027,-3365.5056,548.6351,-4059.2090,-3577.4443
7470.5882,-3529.6670,-1898.1992,-3515.1318,540.3170,-4244.3574,-3686.8899
7490.1961,-3659.2437,-1917.6064,-3523.3250,541.6026,-4219.9634,-3804.4233
7509.8039,-3291.7458,-2139.2415,-3158.3086,550.4276,-3660.5229,-3403.8914
7529.4118,-3197.0623,-2216.5454,-3176.0869,552.5009,-3694.6282,-3305.3196
7549.0196,-3245.9421,-2252.4360,-3264.5027,547.4742,-3815.8884,-3386.9983
7568.6275,-3577.2087,-2313.3042,-3575.1218,521.4485,-4134.4810,-3697.3945
7588.2353,-3935.0933,-2406.8503,-3962.6511,516.4661,-4604.3320,-4079.1746
7607.8431,-4552.1157,-2536.0591,-4568.9404,468.3671,-5125.3550,-4679.5176
7627.4510,-4110.9985,-2810.9702,-4203.9424,478.5468,-4713.6567,-4341.2632
7647.0588,-3703.0874,-2794.9182,-3821.8555,509.3663,-4332.9258,-3940.3689
7666.6667,-3555.0715,-2722.1641,-3701.0830,508.6384,-4191.8730,-3800.2068
7686.2745,-3578.9668,-2622.7996,-3693.5667,517.3173,-4230.5425,-3812.2664
7705.8824,-3690.1506,-2505.2256,-3775.1184,515.6698,-4353.1724,-3904.2166
7725.4902,-3898.8350,-2410.6201,-3911.4458,504.2668,-4597.2339,-4038.2283
7745.0980,-3819.1211,-2380.5259,-3556.2087,512.7061,-4260.4336,-3870.1982
7764.7059,-3424.8049,-2463.2908,-3344.2100,537.2051,-3829.7290,-3478.0508
7784.3137,-3301.2520,-2519.5537,-3258.2322,536.7697,-3757.6870,-3400.1672
7803.9216,-3378.4983,-2532.2874,-3308.9709,517.1771,-3815.3467,-3430.9775
7823.5294,-3747.3540,-2602.9067,-3687.4148,522.7968,-4189.1235,-3794.2883
7843.1373,-3989.6509,-2608.9795,-3914.0400,499.1311,-4480.0942,-4002.0229
7862.7451,-4354.6255,-2648.9924,-4234.5776,478.8517,-4737.6196,-4357.4453
7882.3529,-3808.3181,-2587.8435,-3542.8196,514.0651,-4030.6877,-3840.9749
7901.9608,-3288.6724,-2488.2280,-3177.6663,529.9341,-3622.8379,-3312.3506
7921.5686,-3278.2295,-2541.7988,-3135.5955,558.0129,-3592.2639,-3261.8784
7941.1765,-3281.6995,-2451.3767,-3136.8240,538.9396,-3605.2437,-3260.4192
7960.7843,-3566.1501,-2438.4324,-3361.5493,529.9845,-3894.9255,-3506.8613
7980.3922,-4014.9775,-2318.5684,-3587.9014,533.9867,-4461.8374,-3807.6160
8000.0000,-3709.9377,-2267.2703,-3373.4663,530.9054,-3879.5293,-3554.8013
8019.6078,-3401.2256,-2243.7595,-2906.0984,552.0206,-3565.1448,-3265.6321
8039.2157,-2871.8135,-2194.2014,-2519.2988,557.8880,-2977.9836,-2728.6233
8058.8235,-2757.1475,-2051.9504,-2395.1345,569.0925,-2818.3560,-2591.5251
8078.4314,-2768.5129,-1929.8895,-2293.1543,584.8701,-2795.5750,-2516.5542
8098.0392,-2897.3279,-1660.0690,-2054.9680,610.1160,-2855.7708,-2373.5615
8117.6471,-2618.3538,-1495.7791,-1714.9988,634.8492,-2462.1636,-2054.4629
8137.2549,-2499.6545,-1434.2332,-1600.0598,643.1296,-2260.0596,-1932.5090
8156.8627,-2195.2354,-1307.6360,-1244.8976,633.7934,-1754.6141,-1694.3341
8176.4706,-1822.7401,-1172.3245,-945.0308,636.1774,-1448.3191,-1268.4482
8196.0784,-1855.8577,-1120.4296,-899.8265,642.7882,-1397.1373,-1225.1962
8215.6863,-2117.9097,-1034.3376,-782.1673,675.2054,-1450.7412,-1139.4972
8235.2941,-2120.6318,-1017.3105,-754.6588,676.7663,-1440.7000,-1140.0818
8254.9020,-2173.1921,-1023.5222,-753.2399,674.2723,-1454.1915,-1153.5756
8274.5098,-2236.5376,-1111.0403,-951.7103,658.7506,-1638.2986,-1308.0239
8294.1176,-2064.2979,-1109.5736,-887.1959,627.2338,-1312.4729,-1328.5836
8313.7255,-1814.0835,-1093.8912,-785.5827,637.7267,-1277.7429,-1098.8571
8333.3333,-2218.4192,-1030.6932,-804.0476,658.3159,-1499.8171,-1165.5503
8352.9412,-2289.1306,-1073.7422,-909.4043,674.6539,-1575.4395,-1281.8318
8372.5490,-2188.7095,-1018.9178,-802.2310,669.2826,-1490.2285,-1184.6353
8392.1569,-2376.8489,-1094.8336,-955.5173,683.6615,-1692.0867,-1353.7966
8411.7647,-2023.8967,-1071.8964,-869.1288,650.3502,-1400.5811,-1162.6807
8431.3725,-2041.5677,-1147.5989,-987.4434,629.6671,-1423.5590,-1268.6624
8450.9804,-2632.1013,-1416.9529,-1655.3643,611.3666,-2167.0024,-1910.7880
8470.5882,-3066.3635,-1567.4788,-1930.4515,615.6335,-2657.3169,-2236.6807
8490.1961,-3495.5205,-1756.1788,-2338.1973,599.3419,-3122.4583,-2627.8896
8509.8039,-3545.4028,-1862.5479,-2565.5981,578.6001,-3318.1975,-2865.8428
8529.4118,-3183.6060,-1870.1882,-2472.4878,554.3402,-2998.7959,-2716.9548
8549.0196,-2890.9282,-1971.5039,-2209.5181,576.6080,-2750.7302,-2507.7168
8568.6275,-2852.7371,-2021.4258,-2330.2297,565.3638,-2766.0508,-2517.9470
8588.2353,-3132.8296,-1999.3910,-2516.5657,581.5967,-3016.4165,-2722.6675
8607.8431,-3449.9465,-1939.2361,-2682.2463,553.3912,-3404.4409,-2959.0498
8627.4510,-3786.6694,-2093.4661,-2927.5476,563.5959,-3773.2896,-3197.7278
8647.0588,-3386.3535,-1976.3320,-2757.3745,549.3593,-3337.7903,-3018.1633
8666.6667,-3130.5071,-2080.3899,-2585.6523,564.5550,-3041.8750,-2799.6218
8686.2745,-2739.4438,-2109.3892,-2259.3252,577.4097,-2627.9561,-2412.1074
8705.8824,-2872.1367,-2050.3037,-2502.5273,556.5523,-2998.5596,-2551.5132
8725.4902,-3219.7422,-2030.4332,-2677.2515,555.3774,-3234.2942,-2895.2097
8745.0980,-3644.0635,-2045.3894,-2796.6765,569.5532,-3646.3984,-3101.5583
8764.7059,-3479.8406,-1993.4189,-2717.2715,572.3438,-3437.6526,-2990.3027
8784.3137,-3275.7593,-2048.1860,-2684.6707,567.5706,-3142.1033,-2902.5237
8803.9216,-3033.1101,-2242.4724,-2554.3132,561.3891,-2955.8491,-2747.3386
8823.5294,-2995.5571,-2280.4534,-2616.6953,552.5886,-3095.8569,-2702.4690
8843.1373,-3586.3638,-2415.5410,-3115.1587,531.3495,-3669.1672,-3313.4448
8862.7451,-4115.4087,-2575.3511,-3636.8071,493.6193,-4259.7905,-3814.5735
8882.3529,-4642.8398,-2733.5034,-4173.3564,465.3196,-4728.5488,-4410.6567
8901.9608,-4412.4106,-2904.5210,-4071.1086,457.5758,-4531.6748,-4225.6177
8921.5686,-3992.7336,-3202.6433,-3839.1431,476.3263,-4259.6670,-3963.6318
8941.1765,-3881.9282,-3217.3682,-3817.9670,482.6263,-4261.3608,-3881.4766
8960.7843,-3995.1362,-3234.5317,-4055.2542,465.3020,-4388.8809,-4015.6711
8980.3922,-4475.7490,-3262.5676,-4385.0278,442.6154,-4892.2310,-4498.4912
9000.0000,-4925.3584,-3319.5225,-4832.2637,407.2730,-5174.1606,-4928.8428
9019.6078,-4878.6216,-3359.5044,-4794.1294,399.5967,-5079.1509,-4897.5347
9039.2157,-4390.4619,-3616.5029,-4367.1729,424.2918,-4784.2949,-4480.8545
9058.8235,-4356.5688,-3783.5305,-4379.2915,434.6380,-4837.9448,-4495.4380
9078.4314,-4592.7646,-3958.6816,-4874.1328,406.2840,-5155.5205,-4761.9648
9098.0392,-5021.4058,-4267.6411,-5410.5269,355.6305,-5695.9536,-5224.5176
9117.6471,-5530.0439,-4412.6265,-5628.2642,306.2453,-5820.7070,-5660.1016
9137.2549,-5566.1743,-4623.8374,-5670.5229,282.6447,-5806.8325,-5701.5132
9156.8627,-5575.1431,-4903.5933,-5784.9717,275.2410,-5985.8047,-5808.1279
9176.4706,-5434.1260,-4860.7983,-5745.7344,294.6327,-6031.7671,-5776.4951
9196.0784,-5394.3418,-4874.6743,-5796.9097,299.2431,-6088.9282,-5799.1694
9215.6863,-5577.8828,-5016.9443,-5923.8716,266.6609,-6128.7388,-5920.5234
9235.2941,-5757.4653,-5138.5435,-5964.0103,246.2031,-6141.9741,-6008.2168
9254.9020,-5766.7847,-5286.9829,-5941.8418,233.6965,-6072.6489,-5966.4902
9274.5098,-5687.6592,-5298.5171,-5922.9624,235.1759,-6101.0259,-5943.2422
9294.1176,-5613.6826,-5199.2402,-5914.8828,243.7017,-6128.6763,-5944.5039
9313.7255,-5566.7690,-5164.5303,-5958.7280,263.1428,-6241.1279,-5973.3052
9333.3333,-5706.3999,-5242.2046,-6073.0347,245.6990,-6267.7568,-6063.5605
9352.9412,-5851.0693,-5353.3882,-6136.6768,223.1670,-6311.1665,-6135.3779
9372.5490,-5944.4600,-5617.3193,-6092.1929,192.6891,-6233.7056,-6178.5391
9392.1569,-5785.1245,-5710.4258,-6025.6768,205.1591,-6187.1436,-6046.3892
9411.7647,-5798.2656,-5539.3745,-6055.3560,195.7139,-6220.7617,-6086.5479
9431.3725,-5641.4272,-5345.3745,-6020.7422,246.1269,-6244.2490,-6032.5039
9450.9804,-5549.1206,-5300.4692,-5930.4810,256.7495,-6210.8110,-5965.5488
9470.5882,-5624.4229,-5285.2437,-5967.7412,264.1019,-6211.3032,-5989.5845
9490.1961,-5818.1929,-5524.6807,-6024.5908,211.7412,-6177.9302,-6093.6064
9509.8039,-5867.7212,-5902.2671,-6025.6128,177.0640,-6179.3135,-6056.6782
9529.4118,-5796.0273,-5720.6870,-6016.7139,187.7408,-6173.0190,-6046.6274
9549.0196,-5748.8154,-5542.1143,-6011.7241,205.0991,-6190.3750,-6031.7964
9568.6275,-5471.7373,-5344.8022,-5821.8721,254.7921,-6082.0854,-5852.6030
9588.2353,-5340.9634,-5227.0845,-5745.4854,285.0705,-6042.2617,-5767.7461
9607.8431,-5452.6553,-5280.7817,-5743.0068,268.7649,-5967.0454,-5786.4976
9627.4510,-5674.0161,-5481.1255,-5723.1787,236.0751,-5892.0972,-5810.7095
9647.0588,-5553.4541,-5480.9141,-5650.9629,225.8123,-5804.0098,-5698.3872
9666.6667,-5486.0640,-5301.9331,-5607.2476,250.0279,-5808.0615,-5656.7358
9686.2745,-5296.4888,-5201.9268,-5486.9668,279.8008,-5796.1108,-5558.3716
9705.8824,-5171.3101,-5138.8062,-5366.9502,295.0356,-5743.9512,-5442.7134
9725.4902,-5321.3955,-5187.0825,-5505.1895,288.8357,-5832.1738,-5563.3369
9745.0980,-5688.3633,-5414.7856,-5756.0903,246.0431,-5933.8892,-5796.7910
9764.7059,-5647.1709,-5568.2241,-5688.1914,224.8086,-5815.2227,-5735.2974
9784.3137,-5581.3672,-5465.7065,-5628.7974,230.0313,-5802.7422,-5669.7368
9803.9216,-5452.0933,-5305.0566,-5518.2798,262.8506,-5721.3140,-5577.2646
9823.5294,-5069.3779,-5115.7490,-5151.5864,298.0357,-5552.5479,-5237.6558
9843.1373,-5019.0078,-5058.1929,-5088.3892,322.8533,-5525.3604,-5194.1714
9862.7451,-5337.6387,-5127.5669,-5336.5449,296.0490,-5720.4492,-5437.6973
9882.3529,-5550.8379,-5217.3433,-5516.3389,246.8423,-5677.4819,-5587.1924
9901.9608,-5378.7295,-5195.5215,-5317.3691,266.0145,-5517.2847,-5390.6997
9921.5686,-5265.8970,-5098.3569,-5204.4141,287.8275,-5403.5469,-5288.1113
9941.1765,-4907.5625,-4927.3589,-4756.3833,324.0334,-5202.1426,-4890.6660
9960.7843,-4688.7095,-4824.2505,-4541.4331,345.8420,-4918.6177,-4662.0205
9980.3922,-4867.8828,-4794.3164,-4645.1938,357.0739,-5092.0435,-4762.7080
10000.0000,-5024.6392,-4743.4956,-4767.6245,341.8650,-5187.8535,-4891.0781
10019.6078,-5225.9849,-4663.3447,-4895.1733,326.0187,-5298.9229,-5071.7725
10039.2157,-4931.4917,-4407.3984,-4483.7222,360.8156,-4913.9385,-4672.0156
10058.8235,-4374.8916,-4304.3486,-3906.0942,395.0576,-4269.6582,-4103.6792
10078.4314,-3983.4807,-4221.3228,-3472.6714,423.8220,-3829.9150,-3683.8376
10098.0392,-3984.0203,-4142.1992,-3369.8601,433.0979,-3764.4861,-3573.6633
10117.6471,-4148.4663,-4067.3904,-3469.7036,427.8483,-3904.0835,-3683.8171
10137.2549,-4475.9634,-3981.1948,-3735.7087,418.0540,-4203.4092,-3930.7515
10156.8627,-4681.3027,-3838.4290,-3566.7798,427.8403,-4303.2461,-3955.7991
10176.4706,-3966.9219,-3592.1411,-3061.6682,456.1020,-3509.1587,-3325.6841
10196.0784,-3461.2034,-3449.4468,-2581.8672,487.8355,-2959.1887,-2852.6067
10215.6863,-3151.8982,-3380.1362,-2152.4114,502.0880,-2535.8840,-2413.5916
10235.2941,-3273.0417,-3351.4053,-2247.7939,499.8033,-2640.2754,-2491.5042
10254.9020,-3524.9395,-3227.9700,-2430.3723,509.1396,-2853.7354,-2650.6062
10274.5098,-3875.1489,-3166.4727,-2262.9373,524.8311,-2988.4563,-2697.4998
10294.1176,-3847.1675,-2972.8464,-2003.0812,534.1253,-2615.5061,-2533.5833
10313.7255,-3170.9939,-2845.4866,-1739.0668,536.7983,-2272.4692,-2092.3516
10333.3333,-2495.9988,-2634.8091,-1130.0460,551.1731,-1508.1860,-1455.4360
10352.9412,-2498.8625,-2602.3171,-1097.9496,551.7710,-1481.5404,-1414.2333
10372.5490,-2866.1448,-2623.8435,-1292.9349,561.1694,-1818.0928,-1672.5194
10392.1569,-3144.9509,-2579.5215,-1288.9988,575.7755,-1879.7416,-1666.2347
10411.7647,-3242.1006,-2521.7839,-1072.6476,587.1782,-1819.9027,-1584.5160
10431.3725,-3064.8721,-2410.4163,-998.0383,589.7899,-1601.8252,-1391.1512
10450.9804,-2320.9226,-2198.6577,-540.5901,580.1469,-1088.6449,-985.4371
10470.5882,-2137.8066,-2125.2939,-415.0466,582.8008,-917.8783,-848.0226
10490.1961,-2337.8840,-2153.6392,-507.4958,592.1982,-1093.4573,-952.4395
10509.8039,-2475.8965,-2064.4854,-361.1523,611.7378,-964.9530,-813.9098
10529.4118,-2764.9226,-2085.5928,-424.2351,613.2136,-1103.2689,-923.4406
10549.0196,-2735.6616,-2044.4684,-405.2555,617.7513,-1015.0502,-848.8315
10568.6275,-2642.8579,-2054.5942,-462.2943,615.2086,-1101.1584,-905.4767
10588.2353,-2143.9146,-1962.4991,-289.3235,581.7496,-841.2430,-754.8564
10607.8431,-2117.9136,-1946.5129,-303.0830,594.2112,-851.0497,-748.5681
10627.4510,-2260.8027,-1889.3708,-228.4283,602.7451,-824.3580,-699.7867
10647.0588,-2579.1262,-1893.6534,-314.0623,628.2239,-921.9332,-761.6266
10666.6667,-2626.9150,-1874.4645,-215.5307,645.7051,-904.4689,-749.7143
10686.2745,-2344.0313,-1654.4056,139.8237,641.2321,-459.7077,-477.6035
10705.8824,-1909.8627,-1574.4460,282.1395,638.7178,-311.5782,-196.6070
10725.4902,-1650.8934,-1442.4323,514.0014,625.2233,-67.5997,34.8128
10745.0980,-1693.7660,-1424.4529,490.2007,642.7461,-88.6560,-6.5154
10764.7059,-1966.9869,-1427.5609,442.0058,652.2537,-122.5284,-49.8014
10784.3137,-2163.8291,-1473.4086,257.8923,667.7115,-320.8297,-238.5115
10803.9216,-2356.2275,-1559.6622,73.0791,648.2236,-560.5015,-420.9440
10823.5294,-2056.7642,-1472.4932,251.9319,637.7357,-394.9723,-239.4519
10843.1373,-1841.0345,-1430.5894,285.0481,643.2323,-350.4006,-185.0000
10862.7451,-1708.8073,-1379.5576,359.7050,623.7089,-272.0703,-101.3855
10882.3529,-1851.0768,-1393.5586,284.1680,639.2666,-334.2789,-175.0615
10901.9608,-2017.7549,-1370.4858,245.6656,651.6927,-356.1953,-203.3316
10921.5686,-2168.0586,-1411.4836,118.2668,669.2361,-481.1400,-301.1083
10941.1765,-2120.8286,-1401.4330,126.7922,658.7422,-484.2430,-311.1922
10960.7843,-1963.0184,-1388.3796,142.3396,630.2378,-502.0569,-294.1904
10980.3922,-1808.7754,-1399.5787,107.5985,611.6725,-505.3934,-313.1623
11000.0000,-2016.0304,-1536.5514,-203.5111,617.2392,-842.0076,-601.3127
11019.6078,-2425.9841,-1625.5710,-457.1936,622.6870,-1120.6277,-876.2153
11039.2157,-2632.1353,-1653.5023,-578.5637,616.2759,-1240.9393,-977.4222
11058.8235,-2950.1274,-1810.5662,-833.3463,637.7361,-1598.8511,-1292.2561
11078.4314,-2535.1138,-1890.6462,-1120.5858,574.2639,-1666.9147,-1483.5746
11098.0392,-2844.1199,-1899.5461,-1173.4641,593.6799,-1872.0498,-1552.2704
11117.6471,-3064.0552,-1919.5361,-1285.3649,598.2748,-2005.8501,-1646.6602
11137.2549,-3047.2625,-1915.6282,-1280.6942,580.6881,-2010.1875,-1634.2263
11156.8627,-2966.9629,-1910.6954,-1228.2762,597.2451,-1996.7167,-1631.7013
11176.4706,-2527.1970,-1841.5784,-1123.7385,578.7085,-1744.2955,-1514.1788
11196.0784,-2210.7307,-1743.6738,-935.1900,588.2083,-1416.4564,-1258.6525
11215.6863,-2411.4321,-1728.6150,-913.8369,609.7067,-1557.4567,-1258.1267
11235.2941,-2480.8457,-1630.4790,-778.1005,616.2452,-1481.4020,-1162.7657
11254.9020,-2546.5442,-1630.5417,-756.8674,632.7029,-1451.5659,-1109.0503
11274.5098,-2526.6941,-1609.5214,-752.1279,637.2418,-1444.2806,-1135.8251
11294.1176,-2275.4243,-1493.5468,-722.0366,637.7762,-1149.5729,-888.8990
11313.7255,-2094.5803,-1583.6661,-680.8920,596.1809,-1240.0603,-1042.8318
11333.3333,-2179.4827,-1625.6013,-774.1305,602.7617,-1362.7375,-1148.8645
11352.9412,-2540.4929,-1681.4835,-989.7997,607.1821,-1649.0087,-1353.9427
11372.5490,-2987.8169,-1829.6620,-1338.1818,614.7502,-2017.9783,-1646.9030
11392.1569,-2940.4631,-1807.5222,-1390.9910,633.1680,-1974.9530,-1606.0459
11411.7647,-2902.7329,-1810.6075,-1225.2861,606.7571,-1972.1409,-1593.8929
11431.3725,-2288.3647,-1589.5278,-850.8107,590.1770,-1493.7864,-1154.0817
11450.9804,-2125.8391,-1687.6237,-942.3478,580.7703,-1433.2386,-1224.8333
11470.5882,-2310.1292,-1664.5348,-994.8454,581.1299,-1580.6948,-1276.1581
11490.1961,-2518.1353,-1605.6309,-953.4824,619.7893,-1654.3873,-1312.7623
11509.8039,-2776.1768,-1670.6040,-1100.7454,637.1448,-1789.6147,-1372.2476
11529.4118,-2672.1587,-1643.5845,-1042.5272,635.8193,-1754.4738,-1373.6769
11549.0196,-2611.0640,-1718.6202,-1175.6315,603.1174,-1887.5581,-1518.3831
11568.6275,-1939.2144,-1603.5261,-1086.6569,598.8231,-1285.5480,-1137.6171
11588.2353,-2343.0625,-1755.6786,-1110.6260,568.0674,-1575.4601,-1384.4719
11607.8431,-2781.4121,-1958.7560,-1660.7733,568.8751,-2191.7549,-1934.6517
11627.4510,-3343.9597,-2091.8237,-2037.8436,558.0649,-2795.5334,-2366.6292
11647.0588,-3754.5217,-2253.6667,-2411.7839,544.8829,-3246.0212,-2755.7466
11666.6667,-3197.9651,-2187.8333,-2220.7939,545.0416,-2793.4336,-2535.7380
11686.2745,-2815.5286,-2118.5559,-1788.7802,552.9041,-2393.0249,-2178.6201
11705.8824,-2664.7549,-2109.8247,-1774.7937,564.9963,-2241.2939,-2002.7550
11725.4902,-2581.5757,-2065.6594,-1703.7939,562.9122,-2197.0833,-1966.5375
11745.0980,-3100.8345,-2079.7861,-2002.6740,554.9901,-2713.2593,-2310.8313
11764.7059,-3521.6860,-2194.6692,-2237.8269,566.9774,-3014.2368,-2523.4902
11784.3137,-3595.4966,-2297.7935,-2425.4514,551.9612,-3195.1204,-2738.8525
11803.9216,-3328.7009,-2214.6626,-2391.8516,528.9612,-2999.2747,-2694.4277
11823.5294,-2449.2180,-2188.7649,-1881.4214,591.9608,-2056.8093,-1835.7158
11843.1373,-2504.8794,-2016.6305,-1507.8833,554.9844,-2007.2225,-1889.2413
11862.7451,-2705.3323,-1985.8900,-1755.4059,553.9025,-2292.7898,-2021.8342
11882.3529,-3118.9011,-2064.5540,-2010.8400,563.0148,-2707.3367,-2314.1760
11901.9608,-3295.3347,-2047.8553,-2000.2321,570.9157,-2796.7437,-2349.9033
11921.5686,-3122.8633,-2027.4763,-1906.7396,566.0476,-2688.3699,-2259.0688
11941.1765,-2603.1538,-1929.7770,-1461.1711,570.8948,-2172.5046,-1980.8645
11960.7843,-2292.8738,-1807.3047,-1258.7631,579.0662,-1766.3130,-1565.9259
11980.3922,-2331.0486,-1775.8586,-1283.1765,581.8854,-1821.4734,-1587.9196
12000.0000,-2640.0046,-1803.3036,-1470.8994,592.0896,-2132.4319,-1831.9187
12019.6078,-3067.9822,-1841.8132,-1620.1667,589.8650,-2422.5342,-1990.0529
12039.2157,-3141.2896,-1906.2349,-1736.7307,583.1536,-2544.5142,-2098.8867
12058.8235,-2865.9973,-1874.9319,-1622.2634,570.8219,-2388.4329,-2002.0664
12078.4314,-2463.0364,-1835.1531,-1480.7891,570.1104,-1950.4727,-1783.7915
12098.0392,-2287.8555,-1761.0691,-1233.2988,581.8091,-1722.3087,-1548.0781
12117.6471,-2335.1875,-1690.2087,-1226.6620,586.1445,-1808.5319,-1571.7323
12137.2549,-2704.7927,-1615.0164,-1171.1083,614.7667,-2000.2675,-1607.0834
12156.8627,-2693.2766,-1597.2052,-1111.7140,624.2090,-1981.5748,-1562.6682
12176.4706,-2668.5320,-1608.9750,-1148.1906,608.7274,-1930.1040,-1561.0201
12196.0784,-2433.1968,-1581.9911,-1051.5914,602.2094,-1823.5303,-1472.5447
12215.6863,-2050.5215,-1513.0232,-825.0612,602.7521,-1397.9144,-1259.9418
12235.2941,-2043.3174,-1495.9701,-863.7125,599.2209,-1416.5869,-1188.5201
12254.9020,-2506.5825,-1572.9000,-1118.0142,616.6861,-1925.9525,-1461.0254
12274.5098,-2775.4409,-1590.0198,-1178.4946,615.2545,-2002.6776,-1577.5253
12294.1176,-3053.4182,-1749.0577,-1533.1514,603.6681,-2324.9517,-1918.1005
12313.7255,-3008.4729,-1833.8572,-1666.5793,578.2675,-2447.7212,-2039.4930
12333.3333,-2769.4392,-1942.2203,-1833.1553,557.6710,-2315.8931,-2120.1265
12352.9412,-2579.4998,-1958.8937,-1620.6675,561.3187,-2163.7681,-1929.4822
12372.5490,-2669.3225,-1813.2100,-1631.2247,579.6092,-2397.9641,-1972.2465
12392.1569,-2842.5522,-1778.7593,-1605.5360,591.3085,-2432.7937,-2003.4230
12411.7647,-3150.3464,-1828.1604,-1760.2294,588.6223,-2602.9219,-2141.2627
12431.3725,-3168.6475,-1904.6853,-1840.4425,576.3525,-2638.7839,-2202.3655
12450.9804,-2884.3040,-1925.3429,-1829.2540,561.5853,-2489.8826,-2207.2590
12470.5882,-2681.4841,-2001.5212,-1789.3737,556.3922,-2299.8286,-2078.3760
12490.1961,-2503.2036,-1850.3773,-1429.2487,583.5923,-2101.8489,-1824.2803
12509.8039,-2459.4951,-1589.6316,-1186.2314,603.4120,-1991.7427,-1602.2472
12529.4118,-2566.2844,-1522.2136,-1086.1641,626.5415,-1921.7640,-1538.2172
12549.0196,-2527.4695,-1484.4928,-995.1909,625.4017,-1858.7266,-1444.1792
12568.6275,-2471.2214,-1494.3022,-970.3613,627.5521,-1785.7349,-1419.2134
12588.2353,-2282.4253,-1499.3354,-944.3368,605.4376,-1736.7911,-1394.2122
12607.8431,-1924.1254,-1386.5201,-685.2983,605.5675,-1277.7050,-1058.2300
12627.4510,-1913.5986,-1253.3141,-384.9958,639.4551,-1227.7036,-965.1276
12647.0588,-1966.3478,-1066.5336,-148.4446,666.5101,-928.5964,-733.1721
12666.6667,-1834.4336,-1009.1110,-62.0534,681.4847,-844.6188,-560.9997
12686.2745,-1798.1104,-997.3874,-5.3181,675.5278,-832.5700,-551.1428
12705.8824,-1876.4171,-1042.0897,-78.9830,653.5213,-926.6686,-615.0146
12725.4902,-1523.1622,-963.4462,65.1937,635.4834,-674.6207,-429.2109
12745.0980,-1445.4540,-877.1505,219.9038,651.5508,-554.6227,-283.9751
12764.7059,-1704.4655,-892.7488,97.1517,674.4576,-708.6315,-372.2195
12784.3137,-1654.3882,-820.0300,192.8769,689.5374,-612.6186,-328.9746
12803.9216,-1630.3086,-792.6407,230.1318,694.4875,-540.6112,-296.2079
12823.5294,-1744.1951,-860.0023,110.9928,676.5606,-644.6315,-398.9772
12843.1373,-1524.2817,-844.8344,172.1066,651.4442,-592.6613,-334.2484
12862.7451,-1364.2882,-771.0002,295.2011,652.5572,-457.6176,-191.9732
12882.3529,-1467.3812,-756.8727,274.9661,672.4307,-484.6239,-210.2060
12901.9608,-1617.2030,-759.7974,88.2674,679.5875,-528.6194,-249.0034
12921.5686,-1828.6639,-901.8224,-127.7944,676.3853,-912.6991,-597.2579
12941.1765,-2168.1987,-1052.7767,-425.7226,665.5808,-1237.7372,-878.1108
12960.7843,-2109.6577,-1201.8882,-660.0672,617.3984,-1468.8258,-1120.3480
12980.3922,-1917.1907,-1201.8206,-706.6161,606.6165,-1300.7813,-1104.1926
13000.0000,-1942.7980,-1203.1455,-703.2122,611.3603,-1320.8029,-1079.3417
13019.6078,-2214.0413,-1258.8730,-962.5169,632.6234,-1616.8075,-1311.2278
13039.2157,-2544.7788,-1330.1433,-1063.3387,627.3565,-1875.8923,-1449.3940
13058.8235,-2516.9563,-1307.7289,-1015.4291,635.6481,-1852.8246,-1425.2408
13078.4314,-2460.8213,-1391.1887,-1132.3748,605.3860,-1936.9071,-1555.3757
13098.0392,-2097.9507,-1356.5940,-1047.4225,594.6136,-1615.8295,-1430.2900
13117.6471,-1873.9894,-1249.1550,-786.2849,599.3522,-1341.8262,-1120.3136
13137.2549,-1771.7803,-1106.6368,-578.2713,626.6387,-1195.7432,-956.2183
13156.8627,-1800.8883,-962.2142,-295.3878,655.3036,-1076.7672,-732.2414
13176.4706,-1739.7410,-878.5375,-185.2132,677.6868,-943.6994,-618.1877
13196.0784,-1640.0558,-813.1465,-29.3142,672.3301,-780.6835,-463.1347
13215.6863,-1599.6755,-790.4492,24.6546,658.6863,-721.7079,-416.1882
13235.2941,-1565.0195,-853.2466,-87.3284,642.2817,-833.7115,-519.1468
13254.9020,-1398.5431,-778.5773,28.6788,645.6928,-651.7601,-404.2684
13274.5098,-1340.1777,-634.3331,304.4432,668.2642,-476.6181,-165.0675
13294.1176,-1192.4355,-491.5771,672.7017,709.6731,-182.7692,73.2207
13313.7255,-917.0738,-273.2880,951.5038,726.2679,277.0443,461.5823
13333.3333,-913.3727,-250.4803,991.7999,708.7253,302.7571,511.2411
13352.9412,-968.2125,-258.1690,963.5020,700.2596,263.0986,489.6503
13372.5490,-816.3798,-177.6123,1098.6594,687.7273,373.6345,621.1158
13392.1569,-772.3937,-117.2704,1186.4485,706.2617,479.1399,694.7012
13411.7647,-581.3047,16.2067,1476.8020,731.7277,732.5851,899.0573
13431.3725,-508.4469,100.5257,1537.2555,751.2672,904.2501,1016.7889
13450.9804,-470.2069,138.2570,1629.6399,751.7180,990.5633,1124.0269
13470.5882,-639.3651,77.4492,1458.3960,727.2440,759.3267,948.8667
13490.1961,-694.1424,66.2333,1375.7289,706.7726,686.4103,887.8878
13509.8039,-571.5372,133.5504,1493.4590,719.2231,842.3290,1019.8729
13529.4118,-556.1063,153.3195,1555.5817,729.7684,869.3071,1038.8010
13549.0196,-406.5868,251.4340,1651.4127,747.1945,1029.3860,1169.9095
13568.6275,-291.0422,328.2472,1841.6396,757.7628,1142.2528,1282.7565
13588.2353,-103.5457,468.5381,2046.3640,754.2258,1407.5593,1517.0508
13607.8431,-134.0712,490.0970,2031.5791,746.7557,1414.1672,1543.6848
13627.4510,-93.7753,531.4341,2089.4905,746.2087,1480.6429,1605.1338
13647.0588,-138.0188,530.1240,2031.5649,737.8035,1447.0842,1575.6135
13666.6667,115.8628,675.6527,2137.5190,765.1518,1654.7203,1771.1947
13686.2745,343.8786,818.2549,2438.4097,784.8199,1840.0243,1945.5819
13705.8824,508.1049,948.7195,2591.6238,787.1684,2132.9924,2200.4048
13725.4902,391.8293,928.1568,2642.4863,778.8098,2152.9285,2213.5227
13745.0980,440.0539,975.7759,2745.6755,773.1315,2202.1475,2262.4995
13764.7059,401.8491,976.0673,2714.4507,776.8328,2148.7219,2233.3792
13784.3137,620.9551,1119.7678,2650.8430,787.1473,2204.2810,2318.5977
13803.9216,818.8577,1237.1501,2758.1465,785.8093,2317.5757,2424.2961
13823.5294,655.1410,1171.7843,2675.9304,788.1608,2186.4924,2270.7275
13843.1373,603.0176,1133.8842,2667.1086,789.8539,2196.3572,2327.1519
13862.7451,454.0555,1122.0007,2753.0562,772.1404,2181.6985,2263.8535
13882.3529,417.7700,1099.7881,2698.0361,774.8767,2114.0852,2214.9587
13901.9608,762.0035,1280.9231,2838.2249,790.1231,2348.9543,2444.0291
13921.5686,1216.8485,1536.9684,3053.9485,796.8563,2608.9558,2724.9226
13941.1765,1382.1478,1662.1041,3313.3386,798.1173,2730.2429,2823.2288
13960.7843,1564.8450,1810.8344,3463.7659,809.8679,2966.8132,3034.8496
13980.3922,1541.3610,1830.1307,3565.4453,815.0720,3135.5168,3152.4119
14000.0000,1267.8743,1742.7258,3582.4917,816.9164,3184.5962,3186.7102
14019.6078,1450.2111,1849.2770,3572.6213,819.0961,3185.6667,3231.5000
14039.2157,1709.8423,2001.6705,3552.4399,820.8981,3141.3777,3221.5801
14058.8235,1890.3330,2162.4368,3824.7302,823.0586,3214.8879,3288.6223
14078.4314,2152.8630,2384.5574,3979.4495,821.9316,3578.2441,3623.5427
14098.0392,2329.5532,2523.6035,4370.0654,838.0984,3883.2627,3886.8760
14117.6471,2545.7612,2623.4812,4598.3613,855.9424,4270.1338,4201.5273
14137.2549,2624.5586,2729.6284,4552.2856,869.0820,4300.5791,4292.0771
14156.8627,2678.7500,2833.5078,4499.9717,866.9053,4130.8408,4156.3633
14176.4706,2670.7979,2960.8083,4484.4609,858.0568,4122.8467,4135.2188
14196.0784,2699.8284,3072.4229,4704.9082,853.9215,4264.6504,4259.2793
14215.6863,2871.8159,3204.8176,4920.8140,860.0318,4514.2090,4480.4502
14235.2941,2968.6677,3237.4778,5079.8164,874.9355,4691.4487,4644.1992
14254.9020,2868.9412,3102.8745,4823.0254,874.0392,4570.4404,4559.5728
14274.5098,2821.4297,3098.3091,4640.4106,873.9844,4392.1172,4397.9990
14294.1176,2741.0483,3134.1970,4543.2588,864.0432,4210.6426,4198.6333
14313.7255,2621.4751,3197.2278,4479.1987,856.0052,4167.8965,4153.9048
14333.3333,2768.2402,3320.2263,4698.5117,853.0219,4349.0269,4336.8701
14352.9412,2734.4253,3300.1133,4848.2803,861.0123,4365.7412,4352.8833
14372.5490,3102.3511,3434.4766,5082.7881,885.9910,4832.3647,4739.0547
14392.1569,3251.5608,3451.0051,4895.9141,885.9911,4672.5884,4657.8662
14411.7647,3102.4326,3472.5908,4734.0933,885.0313,4516.6235,4504.1963
14431.3725,3023.3914,3579.0532,4777.7847,871.0162,4423.3896,4411.7798
14450.9804,3040.4895,3634.6206,4906.2871,874.9691,4487.9497,4476.3687
14470.5882,3188.3535,3800.9780,5086.8306,863.0266,4732.2520,4704.7837
14490.1961,3586.7705,3982.7473,5566.5415,893.9783,5279.3242,5153.5796
14509.8039,3798.1846,4048.9590,5362.5762,918.0446,5156.0391,5141.7314
14529.4118,3882.7578,4084.8638,5196.7690,906.0055,4998.4644,4991.6270
14549.0196,3617.1172,4121.7837,5156.3516,904.0272,4919.8110,4914.6226
14568.6275,3433.9961,4142.0381,5289.9990,891.9743,4984.7217,4934.7241
14588.2353,3383.9756,4120.7817,5295.1333,890.0741,4974.6372,4939.5820
14607.8431,3204.0059,3938.0691,5173.1548,874.9318,4859.9204,4806.7871
14627.4510,3223.9265,3843.6953,5038.0229,885.0862,4891.3584,4818.4453
14647.0588,2986.0154,3599.2336,4719.3115,882.9352,4462.0669,4481.8096
14666.6667,2729.6990,3439.4509,4425.8433,862.0404,4095.0483,4182.2915
14686.2745,2508.3159,3379.2131,4103.2944,854.9458,3710.2141,3808.8186
14705.8824,2340.6360,3339.4575,3966.5439,833.0375,3551.8308,3668.2026
14725.4902,2725.2834,3547.2493,4351.6602,840.9106,3959.4241,4019.8955
14745.0980,2903.3601,3587.4500,4650.4053,868.0750,4146.7212,4194.2168
14764.7059,2964.4976,3509.3188,4627.7109,872.9232,4275.5459,4296.8872
14784.3137,2793.1438,3427.3196,4397.2983,874.1008,4096.4673,4149.1348
14803.9216,2582.5288,3343.5466,4081.7935,855.9469,3633.6321,3742.8308
14823.5294,2341.2300,3280.0378,3743.0493,846.1204,3288.2600,3418.0527
14843.1373,2041.7101,3131.4392,3507.8828,820.9111,2975.7307,3119.8037
14862.7451,2371.0437,3221.0229,3823.9275,827.1086,3272.1221,3409.0376
14882.3529,2586.7734,3297.6143,4059.0344,842.9382,3554.9595,3659.9175
14901.9608,2792.7202,3404.0276,4360.9238,863.1028,3971.0164,4039.0610
14921.5686,2855.1479,3437.7190,4283.3311,873.9327,3863.1738,3960.0146
14941.1765,2648.7349,3403.9858,3873.6885,852.0927,3446.9131,3598.0630
14960.7843,2491.1453,3443.8586,3844.2915,839.9262,3363.2625,3513.9893
14980.3922,2730.6831,3563.9707,4099.7134,838.1373,3625.9014,3763.1404
15000.0000,2954.3618,3666.8389,4389.4697,856.8914,3936.3528,4023.0159
15019.6078,3181.6123,3735.8005,4626.5522,879.1218,4213.8345,4253.1538
15039.2157,3310.5583,3771.9583,4597.4502,891.9139,4313.4487,4452.0317
15058.8235,3112.4868,3740.8750,4389.6162,882.1364,3990.7629,4095.1648
15078.4314,2567.6282,3615.0115,3935.6003,848.8789,3460.4282,3606.9194
15098.0392,2513.2346,3558.6924,3882.6685,838.1464,3402.7205,3562.1858
15117.6471,2577.8542,3549.1663,4019.5083,849.9030,3477.5037,3618.9387
15137.2549,2685.2654,3539.7825,4200.5928,860.1171,3708.7769,3697.2913
15156.8627,2842.8564,3594.1865,4347.7378,875.8929,3962.4839,3870.8325
15176.4706,2940.1021,3609.6265,4265.5679,878.1234,3920.8596,4004.4421
15196.0784,2443.9136,3423.2427,3573.4995,844.8969,3041.3538,3215.6770
15215.6863,2108.0068,3315.6162,3380.4558,827.1514,2809.7629,2996.3901
15235.2941,1980.8832,3197.0891,3253.4441,820.8781,2687.2708,2855.5562
15254.9020,2030.7585,3129.4539,3264.6338,823.1180,2701.7803,2882.4346
15274.5098,2321.0471,3221.1023,3804.3418,850.9076,3092.1963,3224.4910
15294.1176,2542.6106,3319.4700,3988.7236,857.1243,3421.8542,3536.5164
15313.7255,2538.2500,3346.2183,3464.2275,846.8716,2979.0959,3305.4077
15333.3333,2307.5271,3368.5972,3376.5828,835.1599,2880.8984,3079.5676
15352.9412,2203.1985,3324.3557,3336.2930,824.9036,2827.0186,3016.2937
15372.5490,2305.4946,3341.5713,3434.8901,825.1728,2919.0540,3122.7129
15392.1569,2514.4080,3379.3489,3667.0103,840.8472,3183.9302,3327.2229
15411.7647,2616.4797,3401.4063,3980.1052,856.1706,3344.1619,3489.8193
15431.3725,2595.4976,3371.1921,3616.8923,854.8674,3141.7263,3531.0867
15450.9804,2412.3113,3314.4873,3323.9521,839.1385,2816.2229,3048.8525
15470.5882,2094.6509,3245.1711,3161.7813,825.8519,2624.5139,2855.8677
15490.1961,2016.1060,3179.3647,3091.2207,820.1197,2544.3472,2777.9299
15509.8039,2062.5742,3148.2876,3140.4358,820.8568,2601.3452,2805.7534
15529.4118,2135.1221,3135.3367,3249.4177,825.1835,2707.5615,2894.0793
15549.0196,2273.5500,3196.2720,3486.3726,846.8545,3007.1543,3145.6455
15568.6275,2305.9888,3216.4058,3252.6963,849.1369,2753.7915,2964.2271
15588.2353,2136.9011,3161.3508,2974.0337,828.8555,2424.9326,2763.4978
15607.8431,2012.0035,3161.4355,2956.7000,820.1312,2396.9722,2643.3384
15627.4510,2014.9790,3157.4275,2992.9600,817.8394,2437.7839,2653.4207
15647.0588,2137.9531,3179.4104,3262.1851,834.1614,2576.2979,2782.5620
15666.6667,2280.9607,3216.3728,3487.7073,848.8356,2889.5859,3055.3440
15686.2745,2575.9734,3368.5671,3613.4946,857.1536,3216.6111,3393.7585
15705.8824,2582.0703,3478.3892,3445.4583,847.8677,2959.3262,3156.1741
15725.4902,2463.9153,3533.4717,3400.6216,841.1428,2921.7693,3106.8105
15745.0980,2478.0398,3572.2637,3501.2415,837.8751,3015.0830,3182.0464
15764.7059,2566.7939,3600.5928,3622.9980,841.1463,3124.1057,3287.0188
15784.3137,3037.2463,3746.2698,4190.9082,872.8384,3678.8914,3762.9924
15803.9216,3417.8943,3899.4785,4508.4424,892.1887,4150.5068,4225.2803
15823.5294,3378.1362,4018.3193,4278.6270,886.8556,3864.5972,4038.8481
15843.1373,3099.8225,4001.4883,4035.6335,880.2150,3580.7014,3723.3213
15862.7451,2939.3540,4027.3916,4076.2766,867.8291,3613.2705,3743.6653
15882.3529,2914.6887,4001.5447,4101.9707,856.2059,3598.0952,3743.5483
15901.9608,3331.3728,4130.3657,4546.0171,890.8144,4101.0815,4168.6299
15921.5686,3602.7537,4205.6299,4844.3047,906.2287,4484.5498,4489.8159
15941.1765,3921.4915,4345.3467,4733.8003,919.8213,4478.7642,4539.5010
15960.7843,3613.7427,4444.6206,4630.5161,917.1791,4189.7842,4366.8950
15980.3922,3299.4810,4442.4561,4498.4438,898.8088,4082.3643,4153.2920
16000.0000,3170.7029,4384.7842,4425.0781,884.2000,4000.1035,4084.0002
16019.6078,3386.4724,4388.4141,4668.1460,886.8309,4234.1094,4297.2178
16039.2157,3741.6687,4529.7061,5057.4717,915.2021,4653.5430,4663.2358
16058.8235,4244.5098,4705.4263,5130.7261,932.8090,4849.8452,4896.1528
16078.4314,4273.7847,4908.7051,5083.6626,941.2050,4835.8428,4876.3462
16098.0392,4056.6978,4953.4976,5109.4468,943.8166,4791.5186,4835.0317
16117.6471,3898.7529,4927.8169,5116.0396,926.2191,4750.1606,4793.4531
16137.2549,3868.6213,4920.4136,5227.0732,921.7805,4858.2197,4891.9380
16156.8627,4043.6421,4979.7939,5410.5269,934.2306,5064.5420,5055.6235
16176.4706,4392.6846,5096.5044,5462.8960,951.8139,5255.9614,5274.8784
16196.0784,4508.7046,5159.8530,5277.7837,959.2119,5047.8022,5089.6855
16215.6863,4360.8052,5209.4707,5209.4116,954.8163,4953.6069,5055.7490
16235.2941,4043.5928,5100.9492,5261.2271,939.2368,4891.1099,4923.7832
16254.9020,3905.8159,5055.2822,5306.1411,927.7856,4925.3857,4963.7192
16274.5098,4034.8064,5097.0420,5410.7061,937.2588,5059.5229,5089.9702
16294.1176,4192.6963,5161.5327,5579.0215,947.8322,5265.2095,5237.7446
16313.7255,4639.6074,5282.9385,5428.9321,966.2756,5229.8013,5276.0591
16333.3333,4494.7754,5383.5146,5306.4521,966.7822,5083.8696,5102.6313
16352.9412,4294.5811,5289.9502,5273.1709,954.2410,5024.0615,5052.1108
16372.5490,3976.9541,5205.3462,5354.2544,940.7780,4975.7070,5010.6240
16392.1569,4080.6829,5227.0767,5459.5479,942.2702,5121.3921,5139.2349
16411.7647,4250.0776,5290.3857,5585.9131,958.7712,5277.5161,5261.6406
16431.3725,4467.6235,5365.9092,5587.9351,971.2849,5396.6270,5415.2930
16450.9804,4592.8887,5425.4673,5345.5947,970.8054,5121.1733,5159.5210
16470.5882,4289.4790,5346.0664,5164.0332,967.2543,4905.6714,4949.1548
16490.1961,3940.9033,5201.3530,5157.3687,943.7700,4753.8735,4837.4160
16509.8039,3926.4929,5189.9995,5207.4248,939.2713,4804.9365,4872.1963
16529.4118,4062.0195,5231.4048,5315.0898,939.7938,4930.6738,4989.4141
16549.0196,4179.3872,5268.0239,5432.5532,951.2535,5071.1685,5097.2188
16568.6275,4558.1260,5387.4917,5436.8145,966.7495,5211.5166,5268.4653
16588.2353,4509.4111,5473.9492,5227.9341,966.3133,4971.2974,5035.1948
16607.8431,4320.2144,5425.4785,5327.5347,962.7729,5019.3184,5059.4438
16627.4510,4279.2920,5449.0273,5523.2749,966.3142,5163.5327,5170.2275
16647.0588,4337.2109,5508.4141,5646.3867,967.7590,5308.2256,5254.4961
16666.6667,4483.3203,5518.8921,5723.4087,975.2869,5359.7261,5393.2441
16686.2745,4728.2139,5623.4980,5759.1880,975.7565,5548.0981,5576.5659
16705.8824,4833.1411,5728.9521,5484.4937,987.3351,5259.6982,5322.0835
16725.4902,4505.2354,5610.4517,5360.7422,979.7183,5118.8501,5154.4966
16745.0980,4469.1182,5599.8682,5654.6685,977.2845,5223.7886,5265.0020
16764.7059,4382.2676,5598.5894,5657.7725,980.7303,5292.8022,5336.5918
16784.3137,4468.0908,5658.7817,5785.7583,983.3099,5437.9380,5480.9854
16803.9216,4800.3394,5755.6323,5983.5488,993.7258,5694.8223,5683.7505
16823.5294,5121.9604,5866.7456,5762.9995,1004.3232,5605.9551,5652.8687
16843.1373,4833.5078,5872.5693,5508.3887,1000.6981,5314.5972,5372.7192
16862.7451,4761.8530,5838.7568,5641.1099,997.3488,5397.9565,5439.7158
16882.3529,4635.3721,5775.6768,5862.1855,1000.6873,5442.5547,5480.8154
16901.9608,4649.8066,5831.7432,5954.1763,1004.3305,5636.0747,5668.6631
16921.5686,4971.6440,5925.7119,6139.2310,1014.7051,5857.5708,5855.9697
16941.1765,5064.7827,5934.6782,5986.3037,1017.3389,5839.1289,5878.5889
16960.7843,4757.5288,5862.5938,5444.9067,1001.7023,5222.4009,5293.9502
16980.3922,4491.7402,5725.6763,5315.2271,991.3478,5037.9492,5106.3125
17000.0000,4245.5024,5598.6641,5281.8462,969.6733,4893.3018,4982.9673
17019.6078,4115.6680,5532.5151,5278.2964,965.3511,4856.9063,4967.1621
17039.2157,4114.6870,5529.7397,5337.8516,963.6445,4895.3267,4938.0796
17058.8235,4251.4199,5550.6587,5358.3730,965.3585,4903.8770,5009.0352
17078.4314,4528.7920,5636.6826,5322.7222,983.6835,5015.3579,5083.2104
17098.0392,4365.5195,5569.4805,5057.1904,972.3466,4726.7803,4829.8452
17117.6471,4170.7646,5472.6929,4961.7070,967.6673,4572.2891,4692.2563
17137.2549,3994.3313,5410.5581,4898.2246,957.3658,4474.6641,4633.6489
17156.8627,3940.7556,5403.7803,4980.7896,943.6453,4480.3740,4588.4058
17176.4706,3921.0476,5382.3286,4982.2344,943.3431,4460.5474,4624.4551
17196.0784,4388.0342,5497.6743,5215.7788,967.6544,4860.4746,4953.5889
17215.6863,4469.1099,5600.3301,5031.1792,970.3752,4705.4990,4820.3267
17235.2941,4216.8950,5462.7383,4878.5835,975.6516,4504.4805,4640.6616
17254.9020,3983.9309,5375.2300,4792.0806,957.3817,4337.2949,4506.0659
17274.5098,3938.9739,5372.6133,4810.7983,940.6169,4248.5474,4451.7988
17294.1176,3906.7490,5390.3452,4914.0371,941.3737,4357.2104,4457.9053
17313.7255,4175.0884,5455.8179,5107.8169,969.6204,4591.7212,4721.0273
17333.3333,4399.8389,5472.3213,5059.0103,967.3803,4699.1323,4799.7832
17352.9412,4278.3125,5476.8149,4815.9282,967.6327,4459.8521,4586.1934
17372.5490,4047.7793,5367.2007,4719.8149,958.4224,4295.9111,4444.5376
17392.1569,3852.2712,5303.7407,4621.9429,954.6269,4113.9131,4304.3062
17411.7647,3646.6177,5217.1133,4493.6240,929.4144,3908.6599,4122.2520
17431.3725,3716.2703,5206.8452,4596.0825,936.6219,3972.9871,4163.4175
17450.9804,3888.4092,5218.0044,4697.6475,949.3983,4145.5029,4276.0566
17470.5882,3992.3560,5139.7603,4586.9941,945.5823,4178.1367,4309.5825
17490.1961,3739.2466,5060.9507,4264.4775,942.4257,3784.3098,3973.8435
17509.8039,3420.2441,4980.6758,4020.1016,927.5857,3452.1807,3708.6814
17529.4118,3144.1184,4854.9844,3743.2009,909.3857,3153.0500,3421.5642
17549.0196,3299.4377,4897.7368,3887.1213,897.6073,3298.2385,3560.7690
17568.6275,3501.0979,4996.8057,4212.0894,923.4100,3632.9160,3756.4080
17588.2353,3811.5276,5007.7051,4436.3843,938.5877,3854.4465,4035.9646
17607.8431,3869.1414,4924.7964,4317.9312,942.4343,3842.8088,4049.2937
17627.4510,3434.3972,4832.7769,3916.3604,926.6105,3361.5422,3616.0896
17647.0588,3044.9377,4698.8213,3523.7808,902.4171,2934.5435,3232.0276
17666.6667,2906.4253,4630.8047,3375.5620,878.5774,2740.5564,3055.1289
17686.2745,2984.9587,4613.7842,3508.5464,883.3990,2805.3757,3114.8467
17705.8824,3022.5840,4473.7856,3476.6775,894.5798,2798.6267,3091.2261
17725.4902,2787.6787,4250.8374,3231.2654,886.4123,2478.2012,2814.6477
17745.0980,2477.5007,4062.6589,2883.7068,865.5734,2035.7048,2449.3354
17764.7059,2165.5950,3864.6028,2413.0864,856.4506,1603.9734,2057.4187
17784.3137,1826.5292,3669.6877,1917.6829,833.5504,1176.7235,1610.3704
17803.9216,1842.5728,3639.5430,1902.8617,821.4249,1136.7285,1586.1609
17823.5294,1951.5232,3625.6409,2006.7772,822.5276,1145.7700,1631.4570
17843.1373,2069.3884,3625.5371,2094.8489,835.4476,1203.5861,1536.9791
17862.7451,1911.4930,3527.5542,1896.0129,825.5393,1023.8740,1392.5482
17882.3529,1710.2997,3402.5745,1672.4370,813.4205,766.3575,1179.7426
17901.9608,1465.5793,3207.4778,1310.0227,805.5600,402.8672,835.5842
17921.5686,1495.3689,3218.5427,1358.3795,809.4483,438.1782,857.5430
17941.1765,1558.4672,3221.4729,1379.1697,813.5637,469.9863,886.7319
17960.7843,1683.1915,3257.4558,1532.2639,810.4067,590.0881,1036.4310
17980.3922,1641.5554,3215.6826,1486.5078,804.5378,543.1631,1034.9338
18000.0000,1492.4064,3115.6343,1332.0328,790.4338,387.0470,888.3507
18019.6078,1417.6700,3040.5200,1223.6892,793.5256,298.2879,804.0963
18039.2157,1491.4717,3078.6389,1302.0698,808.4316,401.0571,858.3095
18058.8235,1572.6393,3133.6826,1420.6765,810.5587,526.3842,959.2280
18078.4314,1805.3070,3244.5242,1711.9087,821.4244,796.0693,1224.2699
18098.0392,2043.9047,3408.5493,2106.9751,828.5554,1248.5272,1506.3936
18117.6471,2079.3586,3378.7092,2097.9680,834.4247,1247.0745,1625.2130
18137.2549,1615.8698,3155.5547,1633.1006,812.5511,775.5427,1182.4812
18156.8627,1416.3346,3035.6204,1415.7430,812.3947,538.0007,946.0854
18176.4706,1396.8645,3010.6646,1329.0099,803.5909,461.5728,874.5729
18196.0784,1478.4451,3035.6487,1431.6395,807.3944,559.9822,951.9945
18215.6863,1524.7869,3041.6152,1474.1536,806.5386,610.5748,1014.6445
18235.2941,1462.2131,2973.7014,1415.4768,794.3925,531.9268,961.8744
18254.9020,1499.6967,2976.5767,1445.2671,799.5604,557.5403,994.6902
18274.5098,1587.2715,3005.6628,1553.4648,800.4137,658.0352,1089.9059
18294.1176,1636.7335,3052.4727,1590.3981,814.5479,782.5655,1176.7842
18313.7255,1655.2893,3086.7493,1648.4974,814.4310,881.0784,1245.8514
18333.3333,1825.7738,3174.4841,1906.4380,826.5865,1117.5249,1462.8358
18352.9412,1857.3772,3164.8020,1940.3682,821.4022,1129.1034,1488.7897
18372.5490,1714.6853,3071.2244,1826.3855,816.6026,989.3851,1398.7941
18392.1569,1658.5341,3055.8352,1798.3669,817.4308,975.2123,1353.7982
18411.7647,1437.7151,2925.3765,1541.5731,812.5777,727.3400,1109.8495
18431.3725,1247.5182,2829.9514,1325.2980,805.3877,524.2869,883.7500
18450.9804,1023.6225,2701.2463,1049.4598,808.6105,222.1723,609.8029
18470.5882,831.5421,2563.9844,746.2090,783.4144,-61.2106,387.6647
18490.1961,629.3696,2375.0549,559.4089,756.5573,-377.5847,135.6992
18509.8039,709.5444,2349.0305,515.2129,755.3611,-358.1151,179.6210
18529.4118,761.4957,2378.9932,582.6035,761.6290,-264.6014,209.8224
18549.0196,723.6675,2347.0125,550.0970,771.3652,-284.9084,173.6697
18568.6275,754.3099,2357.9766,572.4724,789.6179,-258.7380,199.8074
18588.2353,748.7704,2342.1838,584.2297,789.3478,-250.7593,199.6769
18607.8431,1042.2185,2492.0549,958.5192,777.5831,134.5476,554.7450
18627.4510,1031.7456,2486.1985,985.2536,768.3354,181.9451,599.7321
18647.0588,1074.0342,2511.7729,1049.4277,776.6353,241.4099,656.7283
18666.6667,985.9553,2472.2878,978.2460,786.3221,179.1616,585.8110
18686.2745,881.9063,2417.8315,863.3594,793.6143,53.1820,462.6540
18705.8824,855.9567,2394.3557,833.3010,797.3254,44.4192,440.9051
18725.4902,1016.8630,2462.7258,1058.5109,785.6166,255.9796,673.6226
18745.0980,1111.2419,2521.4021,1203.5275,781.3086,403.7233,805.0399
18764.7059,1192.8334,2565.6169,1328.3547,784.6695,547.8129,941.5883
18784.3137,1130.2677,2545.4832,1303.4895,788.3471,523.0007,910.1925
18803.9216,1126.6888,2554.5959,1313.4568,797.6783,530.5820,900.5184
18823.5294,974.4810,2465.6777,1167.7164,797.2991,376.2794,747.2786
18843.1373,865.4807,2402.3933,1053.1376,787.6969,267.2480,657.3694
18862.7451,845.6586,2383.7583,989.7515,774.2992,252.4945,645.3237
18882.3529,760.4576,2321.4653,942.0844,769.7123,140.9011,563.2130
18901.9608,706.7941,2260.8445,885.8026,767.3110,67.7761,481.4220
18921.5686,676.3336,2243.3499,836.9942,769.7258,34.6243,440.1150
18941.1765,466.7877,2131.8745,607.8063,775.3025,-188.4437,209.5065
18960.7843,239.0251,1973.2656,295.7167,776.7134,-496.2871,-79.6025
18980.3922,303.8265,1979.8304,354.0044,757.2297,-444.2389,-27.9648
19000.0000,416.8914,2011.1342,470.4886,751.6846,-335.6326,99.7491
19019.6078,716.9811,2159.9495,973.1646,763.2397,-0.9411,413.6485
19039.2157,1026.7732,2332.9617,1190.4774,785.6996,439.7160,794.7646
19058.8235,1015.2431,2344.0264,1229.2128,787.2408,497.8845,827.7917
19078.4314,835.5403,2261.8074,1069.2775,797.7458,316.3487,660.5874
19098.0392,790.4388,2245.1091,1057.1901,792.2233,297.1471,654.8807
19117.6471,899.4043,2293.8374,1171.2506,780.7164,412.9600,762.3911
19137.2549,896.3946,2292.2322,1160.4171,776.2047,470.4221,805.9734
19156.8627,834.1570,2262.7397,1161.9561,773.7486,403.6701,753.2637
19176.4706,715.6459,2196.1414,1047.6049,780.2321,284.8029,635.1725
19196.0784,140.0030,1858.4835,350.8187,775.7446,-429.2846,-23.4951
19215.6863,-119.9019,1687.2480,26.4720,773.1776,-753.5322,-329.3274
19235.2941,-160.1041,1625.4170,-78.2198,746.7397,-880.7708,-420.7896
19254.9020,-132.8203,1612.2996,-71.1868,729.1726,-837.3187,-406.2701
19274.5098,33.4142,1671.1787,104.3293,721.7744,-704.1031,-244.9621
19294.1176,-21.6172,1593.4927,-38.0721,727.1786,-792.9795,-368.1136
19313.7255,-343.4415,1420.1985,-377.5976,744.7732,-1163.4802,-679.1577
19333.3333,-529.5460,1298.4409,-598.8228,743.1807,-1390.7552,-903.0383
19352.9412,-580.6320,1239.1038,-698.7393,734.7904,-1483.8837,-976.3939
19372.5490,-487.4083,1262.4124,-610.7225,720.1788,-1371.4797,-893.9086
19392.1569,-360.8092,1310.9805,-388.9950,705.7908,-1225.1493,-753.5276
19411.7647,-286.2994,1352.6537,-412.4583,697.1211,-1012.0403,-684.6492
19431.3725,-371.0003,1298.7869,-563.1338,724.8187,-1267.4150,-785.6611
19450.9804,-458.9917,1218.7985,-561.3708,741.1708,-1327.7914,-854.5061
19470.5882,-530.3134,1163.8265,-651.1262,742.8191,-1403.7429,-932.8523
19490.1961,-450.7679,1190.6777,-559.3892,731.1060,-1337.5557,-851.3918
19509.8039,-325.4676,1256.6714,-414.3842,712.7916,-1199.0243,-721.0103
19529.4118,-327.8452,1258.7545,-376.0486,709.1363,-1115.2415,-680.2067
19549.0196,-555.4876,1106.5596,-604.5509,707.8026,-1324.3156,-899.2006
19568.6275,-665.5561,1026.8369,-723.9547,728.1478,-1478.0204,-1026.0829
19588.2353,-925.7207,866.3168,-1028.7898,725.8045,-1829.6591,-1320.4257
19607.8431,-1037.4968,774.8488,-1175.0472,714.1168,-1991.8938,-1471.0452
19627.4510,-962.0086,789.3502,-1136.8018,702.8224,-1947.9653,-1419.6240
19647.0588,-794.2580,865.9973,-941.7618,693.1060,-1697.5792,-1249.8490
19666.6667,-875.2210,797.1688,-969.9709,680.7980,-1541.1268,-1215.7275
19686.2745,-1109.1661,585.1517,-1431.6686,686.1218,-2123.4172,-1499.7362
19705.8824,-1401.3883,428.1069,-1729.3030,689.8312,-2526.5205,-1959.0066
19725.4902,-1470.0415,399.0934,-1741.7086,686.1161,-2563.3020,-1976.6914
19745.0980,-1379.4635,401.9338,-1704.2499,691.8210,-2477.7500,-1930.1748
19764.7059,-1200.9786,486.0567,-1503.4949,679.0690,-2234.0281,-1751.5021
19784.3137,-872.5038,635.0308,-1054.3838,666.8506,-1577.7681,-1270.1835
19803.9216,-855.7115,640.3673,-1142.3464,683.0999,-1597.6593,-1260.2106
19823.5294,-1078.6196,482.8800,-1391.4329,696.8250,-2143.9929,-1639.3392
19843.1373,-1219.5062,435.4551,-1452.3569,703.0769,-2223.5637,-1689.1179
19862.7451,-1139.9220,461.8482,-1359.5092,705.8574,-2160.1685,-1611.4839
19882.3529,-1087.5171,480.4720,-1283.2104,704.1006,-2035.3992,-1552.9781
19901.9608,-1263.1547,357.6374,-1375.6176,663.8521,-1881.2988,-1606.6520
19921.5686,-1441.2810,159.5155,-1599.1270,643.0707,-2168.2559,-1847.8687
19941.1765,-1830.3041,-76.1618,-2288.8958,637.8533,-2667.5588,-2281.8899
19960.7843,-2158.2571,-264.3913,-2621.3025,639.0959,-3327.3396,-2665.8831
19980.3922,-2122.4429,-241.1616,-2577.9336,645.8577,-3389.8293,-2789.1257
20000.0000,-1984.2631,-200.2625,-2445.0811,660.1006,-3238.1936,-2663.7527
20019.6078,-1524.2959,22.4934,-1822.9868,649.8345,-2289.7095,-2024.0934
20039.2157,-1296.9928,85.6294,-1547.7554,647.0382,-2034.8336,-1758.4075
20058.8235,-1359.5253,54.6279,-1617.8661,643.8800,-2112.6846,-1807.1023
20078.4314,-1557.8956,-33.0884,-1921.8662,669.0673,-2534.7854,-2000.2849
20098.0392,-1651.6127,-48.3861,-1956.0613,670.8358,-2718.8567,-2177.2866
20117.6471,-1728.7581,-105.0283,-2025.9326,677.0739,-2835.8020,-2270.2439
20137.2549,-1233.5426,162.3621,-1452.9220,675.8314,-2117.8752,-1704.3624
20156.8627,-1054.6091,270.7447,-1192.7478,672.0807,-1629.5914,-1421.0197
20176.4706,-908.6682,331.4421,-943.7869,668.8494,-1450.7413,-1181.3254
20196.0784,-978.6078,315.7636,-994.6783,682.0687,-1546.5302,-1249.8826
20215.6863,-1108.6095,236.3820,-1173.8766,703.8745,-1909.7871,-1392.4287
20235.2941,-1328.4662,161.8322,-1312.5560,704.1011,-2078.6099,-1604.8458
20254.9020,-1341.7811,142.2242,-1344.8561,693.8830,-2059.8455,-1602.5692
20274.5098,-1144.5046,223.8310,-1106.5050,673.1137,-1758.6165,-1392.7590
20294.1176,-900.7581,359.2956,-810.7293,673.8375,-1295.6396,-1067.5088
20313.7255,-768.4064,426.0876,-624.4568,678.1122,-1159.5085,-906.5607
20333.3333,-903.7199,407.2621,-793.7599,690.8668,-1314.5405,-1029.5603
20352.9412,-1124.1909,301.0360,-1023.6224,709.1084,-1646.6482,-1245.5421
20372.5490,-1135.8545,282.1298,-890.7829,710.8422,-1610.5568,-1235.6801
20392.1569,-1022.2377,322.0360,-790.5203,701.1122,-1488.6959,-1102.4518
20411.7647,-840.0203,420.2303,-589.7968,685.8627,-1266.4629,-900.7117
20431.3725,-750.0721,475.1242,-444.5916,680.1156,-957.6485,-749.2932
20450.9804,-711.0939,490.0928,-414.7836,700.8383,-959.2951,-709.7261
20470.5882,-713.1447,515.2474,-355.5820,713.1008,-1049.6885,-684.1849
20490.1961,-516.8307,611.2166,-42.6601,747.8374,-789.1343,-448.7059
20509.8039,-309.8623,750.3224,165.2544,752.1084,-481.7055,-192.0424
20529.4118,-279.9669,787.2760,247.2141,731.8190,-429.0762,-117.7871
20549.0196,-280.9070,807.1614,296.1213,723.1089,-420.8250,-89.9879
20568.6275,-242.1394,824.0652,356.3076,719.8314,-377.9294,-21.8095
20588.2353,-383.0118,762.2371,250.1456,724.1434,-488.9212,-141.9289
20607.8431,-662.1235,560.0897,-181.5136,748.8276,-908.9114,-439.9525
20627.4510,-828.9956,478.2870,-345.7258,735.1669,-1080.1865,-686.9980
20647.0588,-847.0878,477.1281,-314.5177,718.7847,-1078.8271,-678.0709
20666.6667,-990.1202,386.2987,-473.8840,693.1711,-1235.3872,-833.9840
20686.2745,-870.1472,429.1291,-358.4192,681.7628,-1035.6272,-713.0726
20705.8824,-778.8500,459.2644,-301.7805,685.1774,-936.4303,-651.8623
20725.4902,-762.0013,499.0321,-268.3031,723.7610,-972.3431,-576.0055
20745.0980,-715.9661,515.4356,-191.8862,746.2156,-922.5681,-535.7888
20764.7059,-762.0043,478.0509,-256.2157,732.7808,-999.1855,-560.0411
20784.3137,-611.8936,561.3402,-45.0633,715.2330,-785.7870,-396.7647
20803.9216,-587.1808,579.1354,-10.0524,701.7148,-744.0045,-351.0691
20823.5294,-686.0485,528.5190,-103.9938,693.2133,-749.9162,-433.7065
20843.1373,-721.9038,504.1281,-139.8808,712.7169,-878.7382,-466.0432
20862.7451,-475.8274,636.3956,134.6916,741.2513,-586.0622,-212.6357
20882.3529,-438.9930,720.0493,317.0339,754.7166,-417.4982,-160.0318
20901.9608,-137.9704,912.4346,707.4493,743.2455,-15.2200,316.9229
20921.5686,-21.0429,946.9189,751.0901,733.7020,24.1999,374.4836
20941.1765,-14.0180,964.3969,813.2940,733.2653,108.0687,454.9270
20960.7843,-223.8244,866.0616,611.3420,730.6791,-106.0798,252.4761
20980.3922,-93.1018,936.4579,749.3599,750.2433,28.8789,370.9455
21000.0000,-154.7830,908.8915,678.3165,762.6883,-46.9064,305.4716
21019.6078,-26.1600,988.3920,856.0662,761.2692,141.6203,450.8689
21039.2157,-102.7347,961.9879,805.5549,757.6810,92.7723,434.4433
21058.8235,-285.2814,871.4789,623.9922,726.2518,-92.1171,258.8440
21078.4314,-489.7186,736.9498,338.4841,707.6584,-398.5938,-12.1253
21098.0392,-576.3593,686.5217,230.8766,722.2912,-541.3958,-139.7248
21117.6471,-562.8198,683.8407,189.6087,734.6737,-562.3630,-170.0912
21137.2549,-521.4164,698.3941,209.5137,751.3102,-519.6405,-134.7520
21156.8627,-377.6141,792.8510,486.8850,746.6386,-251.1253,43.4122
21176.4706,-114.3270,898.4911,696.5378,735.3079,-64.8214,316.7914
21196.0784,143.0505,1068.8655,1046.0405,735.6770,274.6446,655.4867
21215.6863,181.2624,1108.5944,1122.3944,742.2986,392.5562,745.8570
21235.2941,259.2964,1159.0093,1215.2767,762.6268,514.9136,830.5497
21254.9020,305.1811,1193.5947,1297.1475,780.3453,606.3325,908.8249
21274.5098,382.3689,1247.0294,1380.4465,786.6279,683.0773,985.5522
21294.1176,270.1644,1209.4135,1316.0077,767.3525,595.0515,932.7202
21313.7255,98.2595,1128.9055,1163.4882,740.6397,434.2424,801.5271
21333.3333,-113.6915,1019.5698,925.9417,738.3556,214.8263,579.6778
21352.9412,-425.4537,845.8859,558.4806,727.6332,-167.1077,211.4972
21372.5490,-726.9948,650.3390,174.6031,732.3448,-559.0138,-153.9731
21392.1569,-870.3741,534.8962,-52.2392,740.6243,-782.0359,-353.0753
21411.7647,-795.1517,557.3705,26.2715,730.3640,-786.3123,-340.0955
21431.3725,-542.3303,728.8875,364.6281,707.5690,-420.8938,7.4108
21450.9804,-420.9756,755.3568,407.3684,708.3412,-371.4358,49.4219
21470.5882,-531.3452,696.7587,290.8976,711.5998,-450.6379,-54.9995
21490.1961,-648.1859,638.4238,168.2266,722.3734,-599.6349,-204.1252
21509.8039,-757.1899,555.8288,16.0146,733.5594,-770.4910,-342.9984
21529.4118,-882.3253,479.3119,-220.9747,726.3497,-936.9030,-483.2308
21549.0196,-803.1046,487.7997,-50.4921,699.5455,-899.3738,-432.0246
21568.6275,-729.4328,530.3181,21.6837,703.3683,-775.0201,-315.2146
21588.2353,-743.0717,493.8485,-47.5175,683.5306,-751.1752,-376.9711
21607.8431,-799.5143,491.3844,-79.2916,704.3987,-881.2393,-439.3062
21627.4510,-742.9874,514.8031,-46.2192,720.5361,-846.0611,-404.9604
21647.0588,-816.5684,476.2166,-129.3961,736.4206,-917.4506,-474.3938
21666.6667,-565.8749,614.7267,160.6182,740.5724,-619.9301,-204.9379
21686.2745,-415.7152,700.2741,418.4506,725.4084,-422.5048,-16.3645
21705.8824,-431.6401,706.7592,410.8824,703.5565,-430.7050,-1.3224
21725.4902,-591.8729,639.2154,252.2793,711.3879,-542.6851,-126.4377
21745.0980,-765.7227,542.8054,54.9976,711.5589,-767.5936,-316.7928
21764.7059,-986.8515,416.2745,-231.7852,721.3815,-1026.9103,-581.5638
21784.3137,-931.5967,409.8351,-207.6134,729.5501,-1061.4540,-595.7375
21803.9216,-928.0278,409.2830,-185.9296,703.3910,-1101.9935,-618.6022
21823.5294,-917.4612,417.8131,-189.5054,691.5159,-1076.2351,-589.5801
21843.1373,-978.2124,329.1281,-352.0729,683.4142,-1007.1006,-712.6741
21862.7451,-950.2298,327.9247,-316.2913,685.5598,-1023.1008,-672.5181
21882.3529,-966.2780,351.2274,-264.1780,707.4276,-1113.2699,-639.7549
21901.9608,-774.0506,437.9013,-39.2335,733.5211,-902.9664,-452.4188
21921.5686,-577.4038,569.2339,222.3916,732.3992,-640.3412,-230.7861
21941.1765,-579.0262,580.9433,255.7249,730.5126,-581.8420,-185.3475
21960.7843,-494.5045,636.0571,416.2968,708.3857,-461.3949,-64.8075
21980.3922,-485.7946,659.0179,420.9527,714.5706,-420.6877,-34.2239
22000.0000,-545.4047,634.1749,382.2548,717.4118,-490.4884,-67.8706
22019.6078,-1005.7778,407.9616,-98.8118,733.5296,-968.6265,-552.1808
22039.2157,-1207.5856,284.0384,-328.7744,731.3694,-1208.6755,-777.0417
22058.8235,-1366.6765,174.1533,-535.7464,708.5614,-1437.6222,-977.1769
22078.4314,-1393.8977,148.8923,-567.9277,678.4056,-1460.8309,-1019.1993
22098.0392,-1167.6365,154.1598,-559.6107,668.5456,-1190.4663,-930.0508
22117.6471,-1147.9016,160.9600,-533.9050,679.3605,-1193.8552,-879.2499
22137.2549,-1278.5197,137.1889,-548.4034,711.5843,-1390.4034,-966.9534
22156.8627,-1175.0231,199.8170,-443.1389,719.3777,-1278.9475,-867.3371
22176.4706,-1066.2023,261.1738,-289.2316,725.5516,-1111.2710,-708.8064
22196.0784,-1051.1545,270.8269,-228.3159,704.3840,-1071.0389,-668.4421
22215.6863,-1054.2909,277.3225,-208.0413,691.5569,-1016.1402,-635.6650
22235.2941,-943.1802,270.7798,-216.4099,685.3578,-878.0322,-631.4941
22254.9020,-1017.0411,307.4340,-163.8336,716.6063,-1047.0248,-630.5135
22274.5098,-865.1920,382.7715,3.4139,734.3362,-874.0864,-490.5616
22294.1176,-674.7766,494.5762,242.0844,751.5804,-621.8340,-260.2936
22313.7255,-616.3580,542.7314,495.1204,741.3686,-467.1731,-137.6913
22333.3333,-411.6580,666.5626,666.3081,728.6011,-237.7274,83.3537
22352.9412,-488.5956,657.7189,708.0490,724.3225,-238.2233,90.7022
22372.5490,-131.5348,893.7421,1098.5632,747.6306,260.9177,502.5430
22392.1569,-74.6714,957.6719,1213.9569,769.3293,404.3021,599.6501
22411.7647,-86.4104,970.7072,1241.6788,782.6719,448.0678,620.7408
22431.3725,-56.8746,1005.5984,1296.6987,791.3450,503.2415,679.5268
22450.9804,-60.2498,1017.8527,1338.8241,769.6871,526.1448,704.8881
22470.5882,-3.9955,1069.5796,1358.6995,759.3105,588.1363,780.3632
22490.1961,-282.0759,914.0617,1072.9384,745.6906,251.2558,522.0671
22509.8039,-347.1701,896.4225,1025.3987,749.3069,228.0492,433.2048
22529.4118,-341.7361,894.1805,1003.2847,766.7131,193.4777,399.3392
22549.0196,-195.2617,961.3568,1137.3867,776.2518,348.0309,555.1104
22568.6275,42.2409,1102.3005,1409.6254,779.7316,619.6239,800.5588
22588.2353,257.3991,1228.2133,1765.2087,772.2631,907.9792,1086.9856
22607.8431,362.3579,1332.3074,1883.7668,770.7204,1100.7502,1280.7615
22627.4510,396.2661,1374.1787,1905.2343,785.2444,1124.9807,1300.8998
22647.0588,446.5945,1419.5682,1888.0143,783.7388,1178.9576,1343.0358
22666.6667,450.2137,1452.1558,1869.1294,796.2422,1230.9834,1360.8108
22686.2745,298.6821,1392.6790,1764.1005,797.7845,1078.0743,1201.2260
22705.8824,132.0317,1319.0530,1670.9463,780.2166,870.8210,1040.5702
22725.4902,-251.0039,1102.7852,1195.1053,744.7869,341.0946,590.3421
22745.0980,-382.8556,997.9633,948.8470,736.2055,81.6143,407.2984
22764.7059,-411.6509,1014.8688,960.3152,745.8300,120.2448,383.5783
22784.3137,-354.0068,998.8093,920.7096,762.1787,96.5477,337.1333
22803.9216,-169.5636,1086.0535,1080.6002,772.8115,261.4242,500.8350
22823.5294,-191.1001,1075.8058,1068.4368,771.1253,267.4646,499.9563
22843.1373,-48.3294,1211.0364,1298.8351,749.8515,480.5957,693.0816
22862.7451,6.4411,1233.6324,1317.4242,763.0991,552.3862,751.7919
22882.3529,5.6751,1238.2190,1306.1257,780.8700,554.8040,742.3673
22901.9608,-35.4575,1233.5319,1269.2443,785.0969,518.2791,710.6043
22921.5686,154.9351,1333.4052,1499.1855,779.9324,738.0140,926.6497
22941.1765,176.0667,1370.3843,1537.0537,765.0314,782.1798,967.4257
22960.7843,74.0581,1337.4960,1475.3376,753.9629,660.1567,883.8696
22980.3922,140.0108,1402.3888,1577.8148,765.0085,707.9687,925.1525
23000.0000,221.3399,1413.8088,1593.7206,769.9990,796.3048,986.1100
23019.6078,340.7259,1486.1324,1661.7365,790.0157,925.8787,1090.9426
23039.2157,398.3308,1524.8246,1779.6899,794.9958,1027.5186,1183.4027
23058.8235,404.6576,1526.9954,1842.6334,776.9912,1041.7139,1218.7112
23078.4314,198.5797,1441.0944,1631.0294,756.0235,809.6425,1033.6093
23098.0392,218.2709,1459.9705,1516.2329,758.9713,811.4054,1039.3604
23117.6471,-15.2061,1334.9797,1349.0140,761.0466,492.6737,783.7355
23137.2549,-173.6184,1247.6018,1168.0135,768.9292,301.0902,558.0100
23156.8627,-284.9323,1171.1191,999.0494,769.0766,127.8681,407.9498
23176.4706,-327.7535,1124.4673,926.9293,762.8809,29.8385,338.7146
23196.0784,-268.8033,1142.3698,956.3594,742.0811,71.0565,383.1900
23215.6863,-209.0773,1155.3126,999.7225,723.8544,83.6013,428.4502
23235.2941,-106.4918,1201.4761,1113.6277,737.1201,179.2963,515.5003
23254.9020,-117.1461,1178.2584,1054.4259,751.8126,140.4118,483.2142
23274.5098,-98.4434,1185.5460,1077.8741,773.1370,182.5685,482.7938
23294.1176,-17.3208,1222.1606,1176.2490,776.8216,308.2824,589.0079
23313.7255,-186.2187,1142.8022,1001.9663,761.1904,102.7755,427.0448
23333.3333,-576.4650,925.9359,543.0545,714.8031,-412.6166,-5.8878
23352.9412,-805.2383,747.8374,204.9518,698.2069,-679.7485,-320.4055
23372.5490,-1123.7994,568.6977,-169.9743,695.7559,-1090.0009,-679.2959
23392.1569,-1417.0333,358.0370,-584.6094,700.2220,-1569.5857,-1102.2220
23411.7647,-1423.9913,350.5534,-598.1508,710.7125,-1565.2086,-1096.5419
23431.3725,-1261.8722,366.1090,-539.4175,705.2443,-1525.2598,-1039.8883
23450.9804,-1152.0051,399.5987,-427.3375,675.6575,-1331.3905,-954.7462
23470.5882,-993.8300,424.2249,-366.2289,669.2848,-1102.9984,-807.6443
23490.1961,-1100.1089,360.3350,-495.5844,669.6770,-1229.6813,-938.0264
23509.8039,-1243.6993,298.3274,-671.2448,704.3420,-1485.8014,-1062.4424
23529.4118,-1433.2495,169.1983,-851.7881,697.6315,-1823.0209,-1307.3241
23549.0196,-1583.4078,96.5106,-984.9227,690.3406,-2001.5336,-1468.1997
23568.6275,-1634.5093,33.0345,-1095.9072,666.6099,-1971.3154,-1561.6084
23588.2353,-1375.2666,69.6123,-948.9738,649.3867,-1624.2075,-1324.9268
23607.8431,-1225.6056,105.0790,-817.1494,650.5755,-1477.6503,-1192.9210
23627.4510,-1287.2682,105.5753,-846.6804,667.4051,-1562.0094,-1249.7333
23647.0588,-1357.8899,109.8350,-866.3265,684.5510,-1898.0376,-1309.2302
23666.6667,-1292.0436,147.8456,-759.6056,706.4258,-1716.7388,-1232.4728
23686.2745,-1249.9364,178.6664,-669.3704,696.4983,-1617.2584,-1139.4348
23705.8824,-1293.8969,157.9691,-670.4764,676.4186,-1523.4370,-1156.2291
23725.4902,-1237.0845,95.6148,-756.7136,654.4648,-1451.5868,-1147.7391
23745.0980,-1197.7855,94.9322,-756.3340,658.4500,-1423.1761,-1128.0299
23764.7059,-1236.2239,123.4531,-779.9492,680.4390,-1534.9337,-1144.9927
23784.3137,-1443.7527,6.0402,-969.2680,691.5137,-1875.9307,-1322.8187
23803.9216,-1660.4430,-134.5334,-1207.9670,679.4557,-2155.3179,-1561.2861
23823.5294,-1687.7864,-134.5729,-1216.1936,661.4993,-2103.7041,-1639.6720
23843.1373,-1456.4866,-102.4891,-1077.2079,651.4492,-1748.5862,-1426.5198
23862.7451,-1228.6885,-19.6286,-860.9717,639.5584,-1501.3192,-1191.3966
23882.3529,-1154.4888,51.1739,-753.3131,670.3840,-1415.8092,-1100.6669
23901.9608,-1222.4419,74.3494,-709.8743,675.5683,-1546.0114,-1101.1515
23921.5686,-1003.4974,232.1069,-373.3134,718.3921,-1238.0245,-828.7838
23941.1765,-874.3180,295.5445,-220.5574,712.5989,-1107.5406,-646.7908
23960.7843,-899.3986,297.0355,-195.3802,693.4020,-1113.2646,-629.9178
23980.3922,-952.3657,255.5539,-288.5360,675.6067,-1032.2572,-700.6213
24000.0000,-1010.6876,184.9281,-417.5153,675.3286,-1069.5247,-769.1090
24019.6078,-1278.1947,65.5461,-675.3290,673.6418,-1380.0391,-1035.4918
24039.2157,-1669.6345,-141.9591,-1110.6129,677.3613,-1976.9352,-1441.3788
24058.8235,-1629.2954,-142.1597,-1090.3301,685.6283,-1969.7998,-1439.3496
24078.4314,-1592.8015,-144.8048,-1080.7876,676.3176,-1956.1757,-1402.5123
24098.0392,-1484.0996,-133.9321,-1043.1304,656.6376,-1684.4547,-1354.1576
24117.6471,-1245.8370,-71.9546,-841.8673,650.3106,-1436.3760,-1124.6359
24137.2549,-1210.9495,-49.9960,-812.0139,662.6742,-1392.1023,-1089.9303
24156.8627,-1448.6643,-89.9165,-927.8268,691.2841,-1752.6395,-1264.7474
24176.4706,-1366.0740,-16.8270,-768.9879,704.6932,-1599.7844,-1115.7189
24196.0784,-1311.6174,-10.0329,-709.7853,699.2721,-1538.7965,-1090.7957
24215.6863,-1272.9866,3.9513,-671.9325,682.6755,-1530.5319,-1029.5709
24235.2941,-1119.6074,49.7758,-543.8555,669.2971,-1243.0359,-892.9334
24254.9020,-961.8430,109.9843,-409.7964,673.7257,-1041.2286,-730.4100
24274.5098,-753.6841,294.8032,-53.8651,707.2617,-811.2347,-424.9818
24294.1176,-602.7482,402.1705,311.1058,746.7360,-591.8527,-229.1635
24313.7255,-393.5951,623.7296,650.9797,758.2865,-85.2277,17.5793
24333.3333,-67.8557,802.1992,1040.4644,746.7432,318.0710,589.5892
24352.9412,329.4249,984.7711,1423.0940,748.2923,706.1642,962.6549
24372.5490,439.9991,1087.3635,1632.4800,758.7267,942.3347,1179.7584
24392.1569,717.4909,1294.8260,2051.1145,778.2611,1394.0815,1562.6813
24411.7647,1092.0143,1529.3158,2276.5693,793.7625,1785.7219,1951.9944
24431.3725,1239.4634,1654.9761,2436.4563,798.2344,1918.0848,2043.7865
24450.9804,1301.2034,1787.4369,2681.6172,808.7481,2193.0076,2196.1145
24470.5882,1352.7223,1821.9900,2847.3782,804.2468,2369.9932,2443.8037
24490.1961,1421.9266,1889.4517,3070.5359,815.7304,2575.1157,2640.1599
24509.8039,1816.6359,2145.9929,3380.4541,835.2422,2948.8430,3043.7820
24529.4118,2219.9360,2405.4065,3499.4646,841.7293,3070.2629,3158.1804
24549.0196,2332.9453,2620.9753,3734.4429,845.2937,3308.7810,3376.8372
24568.6275,2533.9597,2811.6521,4139.6992,844.7322,3591.4849,3628.2715
24588.2353,2713.9211,3027.0073,4449.6528,860.2778,4077.8162,3897.9236
24607.8431,3092.8428,3157.5815,4768.6123,883.7291,4444.7397,4351.3926
24627.4510,3438.2639,3327.0713,4765.7417,898.2587,4523.7441,4497.0366
24647.0588,3128.8489,3376.5574,4654.5522,895.7704,4381.8145,4366.3516
24666.6667,2928.2922,3375.0847,4572.9868,881.2919,4200.6338,4204.0410
24686.2745,2880.7549,3402.6394,4537.4849,865.7325,4188.9199,4186.3359
24705.8824,2824.3191,3396.0994,4663.1064,862.2755,4303.6851,4191.1646
24725.4902,2932.7275,3427.5588,4813.4023,878.7253,4465.0645,4342.3257
24745.0980,3660.6489,3658.1943,5014.2993,905.3159,4812.7007,4802.3384
24764.7059,3691.6506,3792.5278,4971.2153,913.7510,4756.0200,4739.2173
24784.3137,3488.5544,3921.2068,5033.1958,908.2682,4762.6206,4743.3521
24803.9216,3408.4133,3961.6350,5085.1143,900.7439,4800.0879,4759.1826
24823.5294,3396.9133,4007.4614,5140.5469,894.3146,4820.7212,4788.5317
24843.1373,3384.4832,3999.5918,5277.1816,894.7148,4918.1787,4846.1504
24862.7451,3898.0803,4105.3701,5373.6450,926.3436,5192.8521,5174.7397
24882.3529,4069.2964,4178.7056,5205.8999,927.7556,5005.1084,4986.0605
24901.9608,3904.0742,4296.4399,5212.9155,924.3025,4997.8149,4964.7813
24921.5686,3793.0933,4416.4980,5352.9219,920.7050,5090.0635,5035.9355
24941.1765,3815.3440,4523.6011,5549.1270,922.3239,5264.9600,5191.9712
24960.7843,3887.0081,4587.6587,5691.6240,927.7353,5424.0625,5336.8560
24980.3922,4069.4392,4667.6162,5914.3267,934.3702,5682.1689,5558.1987
25000.0000,4632.9170,4836.6221,5615.5771,952.6984,5461.8960,5448.6968
25019.6078,4459.8037,4911.8081,5511.2896,955.3895,5344.1328,5350.2656
25039.2157,4319.6055,4996.6040,5573.2271,952.6895,5399.7661,5377.4912
25058.8235,4171.9414,4965.9155,5764.6709,952.3911,5556.3311,5483.4956
25078.4314,4193.4790,5001.4375,5986.0850,948.7063,5762.7266,5658.3853
25098.0392,4178.0415,4976.9297,6027.9648,951.3747,5778.5762,5680.7656
25117.6471,4429.2964,4983.4399,5715.9922,961.6913,5570.5620,5674.1890
25137.2549,4436.2964,4929.0005,5474.9756,958.3739,5304.5479,5302.8408
25156.8627,4187.1860,4932.3613,5376.6494,947.6549,5196.2983,5171.8750
25176.4706,3934.5144,4879.9233,5390.2217,944.4288,5142.7051,5115.0400
25196.0784,3877.8018,4933.2090,5599.3970,935.6654,5329.1211,5281.6631
25215.6863,3971.5488,4947.0640,5692.5815,932.3978,5376.9771,5336.2998
25235.2941,4078.7051,4971.0933,5815.0303,942.6250,5528.9092,5459.4189
25254.9020,4381.8301,4961.0825,5528.6431,956.4269,5476.1450,5468.5039
25274.5098,4324.5649,4954.0005,5366.8330,952.6015,5174.5186,5174.0967
25294.1176,4025.8650,4919.2051,5255.9253,939.4761,5018.2729,5013.5996
25313.7255,3722.2358,4824.8838,5212.5957,931.5802,4915.2573,4910.8374
25333.3333,3540.0830,4731.2959,5136.1265,916.4379,4773.5308,4786.8413
25352.9412,3331.1794,4589.8169,4929.3750,902.5513,4551.0596,4581.6333
25372.5490,3274.3213,4328.1489,4919.3042,902.4949,4520.7842,4509.0708
25392.1569,3427.0090,4212.8384,4731.0410,916.5644,4470.7568,4538.3696
25411.7647,3404.3789,4214.2979,4548.6777,902.5167,4205.9463,4266.2446
25431.3725,3123.7278,4214.6235,4402.7153,898.5540,4011.3452,4092.0081
25450.9804,3179.5994,4317.3169,4434.7339,886.5197,4010.1963,4108.4590
25470.5882,3180.5525,4357.5840,4466.2437,877.5254,4060.1028,4136.7632
25490.1961,3263.7407,4398.4341,4592.0439,884.5486,4193.4873,4247.7119
25509.8039,3423.4956,4300.6680,4835.1714,909.4643,4446.8428,4431.5264
25529.4118,3569.9255,4236.6108,4605.5200,912.5557,4370.8271,4408.0098
25549.0196,3273.2581,4211.6162,4367.6875,906.5047,3999.4163,4076.1897
25568.6275,3068.1204,4229.4688,4221.7603,889.5839,3791.0554,3897.2100
25588.2353,3084.0532,4286.5747,4235.5767,880.4846,3800.1533,3896.9497
25607.8431,3093.1152,4302.6943,4267.9883,876.5990,3832.4336,3932.5090
25627.4510,3381.9924,4346.3560,4674.1772,901.4684,4251.8618,4282.7065
25647.0588,3545.3840,4301.8237,4717.3022,919.5883,4407.8164,4424.8364
25666.6667,3577.7415,4271.2549,4462.8457,912.4039,4100.4204,4174.3599
25686.2745,3145.4761,4220.8286,4223.5361,900.6528,3774.0283,3888.9983
25705.8824,3058.4058,4254.1611,4133.5601,883.3752,3662.9802,3799.0024
25725.4902,2967.6670,4235.8291,4066.8350,870.6337,3584.4407,3715.3184
25745.0980,2912.3987,4115.0396,4078.1846,867.3472,3550.6460,3647.7356
25764.7059,2927.7769,4012.0293,4108.0991,878.6563,3574.7659,3649.5686
25784.3137,3062.2634,3974.9631,4238.9214,894.3570,3747.2688,3790.4519
25803.9216,2904.0400,3888.8455,3843.4158,885.6546,3344.9924,3486.7476
25823.5294,2629.9255,3874.0574,3566.6064,865.3333,3050.8708,3206.1211
25843.1373,2429.0537,3782.9312,3336.5579,853.6512,2774.3228,2964.0039
25862.7451,2375.8816,3707.9175,3296.2332,838.3547,2720.5330,2902.8394
25882.3529,2577.2488,3747.1101,3516.9788,851.6829,2946.6682,3087.2620
25901.9608,2829.8135,3784.9482,3854.9412,874.3267,3220.2205,3323.6265
25921.5686,2905.3777,3805.1433,3938.2080,883.7190,3416.9661,3511.4866
25941.1765,2787.6580,3815.8521,3573.6667,873.2848,3039.7878,3212.2866
25960.7843,2490.4573,3744.1467,3311.4167,856.7081,2753.2031,2951.6521
25980.3922,2122.2917,3547.6770,2951.2629,835.2946,2352.4036,2562.9622
26000.0000,2077.5105,3431.1240,2881.7366,831.7483,2259.4592,2472.8359
26019.6078,1916.4446,3273.7058,2676.9321,819.2732,2124.1152,2373.7527
26039.2157,1704.5726,3128.1211,2466.8779,810.7640,1807.6779,2116.0244
26058.8235,1498.1670,2916.6047,2158.6548,798.2595,1361.7520,1853.4963
26078.4314,1264.5713,2809.2734,1929.1121,793.7467,1143.9172,1490.1609
26098.0392,1102.2255,2674.5129,1573.4562,799.2029,842.3781,1194.1891
26117.6471,1024.4628,2604.0820,1497.2562,799.7746,686.1581,1068.3125
26137.2549,898.0374,2503.4734,1316.0201,779.2075,497.9980,921.8981
26156.8627,817.5268,2423.1272,1091.5583,758.8076,321.3845,784.4897
26176.4706,709.8276,2341.3020,917.7847,748.2050,152.6126,643.6246
26196.0784,571.7350,2236.1228,757.6556,742.8124,-41.9158,464.6182
26215.6863,535.9248,2141.3987,665.3644,765.1582,-178.1756,290.4028
26235.2941,651.6508,2180.2542,769.0114,780.7979,-68.6063,395.8440
26254.9020,747.8267,2220.3394,870.2271,773.1522,27.1453,478.2557
26274.5098,716.8127,2194.2773,860.4202,757.8257,-14.3371,465.0738
26294.1176,748.7711,2201.2363,919.9320,747.1457,15.8947,518.0919
26313.7255,792.9395,2214.3647,982.5974,751.8173,117.3910,575.2429
26333.3333,1019.8527,2319.3196,1206.7953,779.1521,385.7339,826.9766
26352.9412,1326.9052,2479.4807,1534.8046,800.8796,763.7582,1153.5389
26372.5490,1346.7133,2522.1824,1601.7303,794.1254,844.6207,1225.8953
26392.1569,1390.0734,2546.3589,1687.1517,797.8844,920.0199,1291.7502
26411.7647,1643.8633,2697.3616,2038.5869,801.1609,1280.4761,1630.8059
26431.3725,1709.0592,2738.5950,2239.3040,806.8601,1395.2495,1749.9348
26450.9804,1765.9219,2852.2786,2296.5071,820.1039,1679.3998,1881.7347
26470.5882,2008.2375,3031.6768,2469.6167,821.9191,1864.5553,2131.1855
26490.1961,2028.0052,3088.2444,2559.4028,823.1055,1979.3490,2215.7200
26509.8039,1987.1565,3072.6865,2586.8662,821.9312,1993.7955,2233.3645
26529.4118,2040.0416,3046.2981,2657.1858,827.1327,2100.1836,2310.6130
26549.0196,1822.0291,2937.5945,2622.0273,827.8954,1908.8315,2162.3704
26568.6275,1945.9343,2981.2886,2693.9441,830.1283,2025.9883,2278.4539
26588.2353,2188.2097,3176.6240,2749.1494,832.8994,2207.0415,2462.5471
26607.8431,2234.0171,3279.2126,2884.7800,837.0979,2343.9270,2561.4128
26627.4510,2360.1484,3386.7371,3064.3855,831.9476,2516.2515,2718.7205
26647.0588,2444.0488,3434.3506,3210.8215,840.1035,2690.9167,2853.4126
26666.6667,2465.2244,3373.7183,3273.6033,852.9622,2752.3499,2902.8037
26686.2745,2322.9724,3273.3972,3320.6528,858.0885,2701.8027,2883.3232
26705.8824,2123.1487,3179.7126,2994.7329,848.9357,2416.4434,2647.8879
26725.4902,1830.8849,3069.3577,2532.4656,821.0686,1980.6808,2237.2097
26745.0980,1638.1886,2955.6396,2331.7932,822.9453,1738.5046,2005.9387
26764.7059,1466.9578,2831.2798,2154.4338,813.0603,1558.5820,1830.1010
26784.3137,1275.1779,2700.8022,2070.7253,806.9479,1338.4452,1670.9287
26803.9216,1200.9363,2577.3604,1907.2562,794.0338,1116.3625,1512.9191
26823.5294,1164.1437,2533.7969,1736.8916,781.9780,1029.4474,1423.9399
26843.1373,1107.8817,2495.1335,1653.1033,783.0714,931.3055,1327.8364
26862.7451,1004.0615,2421.7737,1533.8307,793.0011,778.5347,1153.0127
26882.3529,1112.8707,2481.1538,1589.9479,802.0222,900.3288,1250.8306
26901.9608,1183.1251,2499.8208,1730.1099,794.9963,979.6293,1310.1328
26921.5686,1686.9644,2748.3340,2311.0730,809.0618,1588.2878,1892.7933
26941.1765,1837.0421,2832.7039,2528.1685,820.9982,1808.7240,2094.2444
26960.7843,1898.8896,2886.2336,2561.9995,829.0324,1905.2974,2187.7734
26980.3922,1984.1385,2973.8628,2592.2883,835.0250,2015.8190,2269.3135
27000.0000,2044.0637,3121.2747,2684.8926,832.9957,2169.3655,2357.7808
27019.6078,2137.2373,3184.9443,2839.4309,825.0486,2282.9341,2457.4792
27039.2157,2334.0718,3225.4141,3154.8318,844.0065,2586.3743,2733.7727
27058.8235,2351.3530,3248.7983,3381.5461,850.0280,2715.9761,2864.5593
27078.4314,2321.0347,3253.3667,3293.9512,861.0341,2675.3777,2817.7390
27098.0392,2298.3311,3313.7969,3065.5957,856.0507,2527.9834,2733.5925
27117.6471,2237.0803,3373.3232,3044.8215,842.0103,2545.4419,2674.7180
27137.2549,2226.4556,3369.9546,3071.5693,836.0147,2528.0496,2667.6819
27156.8627,2192.0884,3265.2178,3068.7615,837.0118,2468.3479,2617.6362
27176.4706,2102.3770,3181.9707,3107.5583,844.0219,2464.9338,2660.6428
27196.0784,1955.7659,3089.3308,3023.7168,843.0278,2313.2822,2502.5334
27215.6863,1775.2559,2998.8665,2776.4631,839.0277,2133.8484,2310.5933
27235.2941,1631.8457,2915.2961,2470.5767,827.0128,1884.2797,2084.4500
27254.9020,1533.1305,2810.8596,2170.5437,815.0142,1547.7068,1792.5212
27274.5098,1379.8492,2763.1404,2151.4600,807.9882,1491.2189,1792.3502
27294.1176,1551.2617,2786.8569,2378.4014,809.0640,1625.6097,1911.4928
27313.7255,1515.8436,2759.1741,2323.5764,814.9651,1626.2063,1909.3137
27333.3333,1406.1267,2698.8152,2228.3696,807.0178,1530.5365,1823.4745
27352.9412,1246.6851,2605.1919,2027.6294,801.0009,1301.2196,1631.2739
27372.5490,1013.3147,2468.9355,1607.2281,794.0219,992.5350,1354.5033
27392.1569,873.6290,2340.0522,1455.4036,795.9964,685.1603,1087.1521
27411.7647,828.1541,2299.8184,1399.2527,791.0818,601.4283,1025.4536
27431.3725,722.4918,2228.9124,1265.3752,765.9623,451.0600,911.0703
27450.9804,502.2366,2087.8347,993.1793,756.0601,155.2440,650.3407
27470.5882,226.3447,1928.8536,648.4330,738.9328,-209.5340,313.9362
27490.1961,-154.6012,1684.8525,-23.8638,728.0741,-697.3660,-156.2386
27509.8039,-617.4630,1328.7645,-641.4832,731.9460,-1458.6445,-840.7362
27529.4118,-637.6093,1243.6663,-692.9212,722.0597,-1554.5466,-925.3469
27549.0196,-745.4811,1162.8895,-850.5451,701.9125,-1682.6453,-1078.7982
27568.6275,-766.5553,1111.5903,-906.1204,675.0656,-1614.6874,-1121.4100
27588.2353,-794.6929,1064.8015,-936.4674,670.9149,-1482.6180,-1112.8547
27607.8431,-993.6808,906.5934,-1175.1348,670.0699,-1785.7766,-1359.4659
27627.4510,-1489.6958,582.8101,-1872.4395,676.9239,-2736.7212,-2085.9895
27647.0588,-1636.5756,392.6877,-2186.4199,666.0367,-3103.1062,-2270.6477
27666.6667,-1767.8490,322.5526,-2293.4980,651.9467,-3135.8333,-2466.1726
27686.2745,-1807.7633,242.4209,-2304.5381,638.0569,-2817.1829,-2467.7339
27705.8824,-1710.9989,177.6236,-2115.4504,629.9144,-2671.7991,-2283.2156
27725.4902,-1707.7881,65.6049,-2192.8259,627.0441,-2812.2930,-2387.7725
27745.0980,-2081.1816,-79.3723,-2702.4441,623.8854,-3389.8989,-2834.3521
27764.7059,-2094.7576,-111.2082,-2911.8552,628.0699,-3696.4832,-3056.8838
27784.3137,-2081.2412,-120.3950,-2854.4905,638.9304,-3768.9294,-3039.3892
27803.9216,-1903.6069,-62.2712,-2646.0950,644.0853,-3262.4551,-2826.8611
27823.5294,-1773.3973,-5.3352,-2275.3682,628.8731,-2808.7964,-2449.3252
27843.1373,-1554.3779,-14.2907,-2069.0713,635.0593,-2632.4529,-2240.8269
27862.7451,-1735.4451,-64.3098,-2275.2568,639.8831,-2854.7522,-2415.3123
27882.3529,-1820.5024,-49.2590,-2463.1553,666.0557,-3080.5623,-2606.8982
27901.9608,-1818.5602,-71.3529,-2547.2334,655.8846,-3375.8503,-2673.4075
27921.5686,-2056.4937,-217.2542,-2679.5054,648.0615,-3550.7878,-2888.0291
27941.1765,-2128.6362,-292.4621,-2659.2908,626.8681,-3146.8596,-2822.5186
27960.7843,-1971.5309,-354.4732,-2423.4111,618.0974,-2964.7793,-2588.0164
27980.3922,-1781.6932,-310.4253,-2339.1763,622.8931,-2878.8000,-2468.4722
28000.0000,-1828.2295,-218.4353,-2352.6445,643.0758,-2972.7727,-2491.9893
28019.6078,-1831.8438,-215.6290,-2468.1033,652.8572,-3225.8115,-2648.4854
28039.2157,-1858.1129,-230.3224,-2491.7346,656.0775,-3378.9160,-2622.0403
28058.8235,-1927.9760,-269.4571,-2454.8413,645.8704,-3180.8125,-2704.5237
28078.4314,-1827.1980,-232.4488,-2230.9724,642.0569,-2723.8979,-2380.0859
28098.0392,-1465.9260,-149.5218,-1837.7809,639.8472,-2386.6895,-2009.4126
28117.6471,-1719.0327,-238.5282,-2091.9421,642.0616,-2684.9199,-2262.0947
28137.2549,-2100.0681,-380.6195,-2497.7307,639.8395,-3147.7957,-2639.5063
28156.8627,-2213.0881,-466.6048,-2728.3667,641.1039,-3593.1206,-2914.2498
28176.4706,-2319.2246,-606.6015,-2927.6675,629.8423,-3751.9431,-3023.6033
28196.0784,-2602.1135,-749.6594,-2992.4902,607.1016,-3456.1721,-3119.3657
28215.6863,-2323.2551,-859.8205,-2688.5049,612.8080,-3201.7944,-2879.5256
28235.2941,-2214.9910,-825.6288,-2685.5569,610.1169,-3228.1694,-2819.3545
28254.9020,-2252.3198,-752.6796,-2736.4441,615.8111,-3330.8145,-2858.5020
28274.5098,-2425.1499,-731.5493,-2918.8423,620.1082,-3549.2742,-3026.4485
28294.1176,-2347.4431,-713.7837,-3011.3999,628.8027,-3847.9170,-3069.5361
28313.7255,-2540.0544,-821.7288,-3044.9917,621.0728,-3647.3552,-3216.5566
28333.3333,-2453.6719,-971.6637,-2700.1550,610.8065,-3183.7495,-2949.4578
28352.9412,-2278.9197,-1001.5874,-2673.9722,609.1035,-3187.2751,-2803.5127
28372.5490,-2354.7322,-978.6518,-2781.9883,610.8011,-3299.7651,-2899.4099
28392.1569,-2409.7266,-886.7559,-2820.1113,611.0922,-3396.3372,-2945.5896
28411.7647,-2392.5947,-796.7026,-2877.9663,636.7935,-3536.8057,-3018.3909
28431.3725,-2380.6858,-796.6191,-2797.1516,634.0858,-3704.3828,-2982.6355
28450.9804,-2150.7966,-762.6916,-2344.7146,621.8042,-2792.6978,-2501.2764
28470.5882,-1957.8149,-772.6671,-2165.2566,622.1154,-2642.2395,-2327.6130
28490.1961,-1946.7200,-757.7759,-2164.6719,627.8207,-2664.6580,-2332.1731
28509.8039,-1899.7759,-624.7679,-2087.4351,627.1131,-2649.2405,-2274.6616
28529.4118,-1963.6614,-545.5257,-2126.6396,654.7769,-2754.6558,-2334.0962
28549.0196,-1855.5480,-502.7370,-1946.5104,666.1141,-2769.2622,-2193.7217
28568.6275,-1839.6770,-445.5623,-1806.2841,663.8030,-2527.6389,-2090.9934
28588.2353,-1657.6569,-330.8709,-1420.5499,649.1468,-1879.1451,-1837.7798
28607.8431,-1331.8002,-266.6008,-1202.0925,649.7784,-1704.4202,-1456.7316
28627.4510,-1547.5654,-334.8586,-1400.6207,656.1334,-1949.1111,-1659.7904
28647.0588,-1760.7523,-364.3601,-1585.0466,660.7908,-2161.4189,-1850.6415
28666.6667,-2004.5294,-476.7436,-1767.8121,676.1166,-2548.1545,-2043.8937
28686.2745,-1920.5591,-437.4112,-1673.8435,673.7894,-2468.3743,-1970.4794
28705.8824,-1720.6859,-342.8405,-1320.8176,658.1273,-2150.1553,-1759.9987
28725.4902,-1395.5227,-232.3531,-1132.5739,650.7967,-1623.2460,-1400.3053
28745.0980,-1294.6816,-194.9996,-989.8815,658.1303,-1538.0756,-1266.0398
28764.7059,-1252.5208,-89.2621,-890.3502,680.7628,-1450.1783,-1160.1234
28784.3137,-1343.5671,-87.9241,-854.1384,705.1345,-1589.0912,-1155.1423
28803.9216,-1244.3403,-4.1545,-670.2325,716.8138,-1414.1193,-1013.9326
28823.5294,-1311.7058,-30.0046,-698.1841,698.1547,-1479.1278,-1051.2909
28843.1373,-1411.3560,-63.0318,-763.2131,673.7785,-1526.2206,-1128.8757
28862.7451,-1328.7732,-105.1001,-778.3859,665.1764,-1294.1456,-1072.4962
28882.3529,-1398.2861,-158.9493,-886.0134,670.7665,-1443.1875,-1161.7338
28901.9608,-1774.7889,-336.2786,-1288.5726,672.1570,-1907.2589,-1564.7203
28921.5686,-2088.3030,-486.8630,-1575.1249,671.7891,-2407.3171,-1876.6826
28941.1765,-2044.9985,-478.4692,-1523.7269,675.1649,-2410.3647,-1859.9352
28960.7843,-2018.2994,-474.9095,-1492.8822,655.7799,-2301.3579,-1847.5844
28980.3922,-1754.0945,-428.4931,-1338.8248,652.1738,-1927.3730,-1645.1281
29000.0000,-1611.3617,-446.8890,-1220.7825,640.7946,-1785.2762,-1502.3817
29019.6078,-1823.1343,-523.6345,-1425.1379,642.1193,-2011.3853,-1687.2865
29039.2157,-2510.3176,-774.7813,-2035.8225,641.7591,-2917.3826,-2363.3025
29058.8235,-2611.2686,-869.6483,-2208.2205,644.1675,-3091.5449,-2536.5674
29078.4314,-2618.2688,-894.6293,-2245.4990,626.7773,-3090.3831,-2576.1409
29098.0392,-2288.4175,-820.8161,-2015.5144,625.1472,-2605.4817,-2294.7058
29117.6471,-1977.9700,-754.5286,-1618.3087,623.7686,-2160.2629,-1975.8998
29137.2549,-1855.2913,-748.0012,-1585.3719,629.1141,-2146.3760,-1860.7859
29156.8627,-2395.0625,-844.3336,-2072.3518,638.8237,-2726.2771,-2339.7148
29176.4706,-2519.4099,-916.9761,-2137.6604,642.1104,-3025.4761,-2464.0208
29196.0784,-2554.8132,-945.3084,-2202.1833,628.7762,-3086.3008,-2509.5293
29215.6863,-2573.5774,-962.0525,-2224.7295,625.1348,-2925.5093,-2558.2571
29235.2941,-2184.6438,-903.2742,-1920.9340,618.7907,-2489.2273,-2210.3230
29254.9020,-1946.7585,-844.3113,-1593.8146,630.1227,-2122.4529,-1866.3970
29274.5098,-2028.5664,-762.0001,-1694.6898,640.8260,-2287.1318,-1963.0476
29294.1176,-2241.7827,-796.4304,-1779.9272,650.0959,-2642.5054,-2132.5969
29313.7255,-2414.4387,-882.0517,-1967.6506,646.7902,-2828.1294,-2308.8335
29333.3333,-2598.9714,-988.4768,-2168.1184,624.0908,-3089.5715,-2527.8408
29352.9412,-2508.3433,-1005.8362,-2222.5149,611.8378,-2765.0745,-2473.6387
29372.5490,-2399.1643,-1164.6835,-2095.2227,611.0872,-2654.4741,-2390.9866
29392.1569,-2260.1655,-1139.6490,-2116.3975,610.8210,-2713.0186,-2290.3984
29411.7647,-2364.1438,-1041.7886,-2124.2776,617.0998,-2764.4636,-2379.1248
29431.3725,-2389.9004,-974.5723,-2004.0911,642.8440,-2910.9607,-2355.1355
29450.9804,-2322.2354,-952.6599,-1932.4504,645.0763,-2784.4143,-2258.2483
29470.5882,-2454.7917,-983.2706,-2024.8463,633.8274,-2824.8623,-2362.8743
29490.1961,-2400.4253,-1097.8761,-2101.5874,621.0616,-2638.3384,-2369.4116
29509.8039,-2286.6887,-1231.2347,-2089.6946,607.8409,-2630.8076,-2291.6577
29529.4118,-2476.4563,-1236.1327,-2244.6604,609.0767,-2820.3784,-2478.6267
29549.0196,-2770.6077,-1266.0546,-2536.7429,613.8644,-3179.8833,-2773.5271
29568.6275,-3053.7324,-1390.2367,-2743.7947,600.0324,-3674.5486,-3050.9324
29588.2353,-3329.4292,-1538.0247,-3089.7637,587.8769,-3834.9866,-3356.4331
29607.8431,-3265.7954,-1702.2623,-3127.0476,565.0624,-3642.5405,-3325.1599
29627.4510,-3022.3052,-1946.9603,-3027.4619,564.9047,-3510.9099,-3214.2122
29647.0588,-3063.1147,-2006.3878,-3295.1084,555.0601,-3647.5952,-3308.3860
29666.6667,-3418.3386,-2048.8984,-3518.5833,544.8662,-4091.0452,-3691.1448
29686.2745,-3620.2852,-2025.6322,-3736.3535,535.0005,-4392.7920,-3900.7192
29705.8824,-3802.3254,-2015.9614,-3909.3818,532.9009,-4614.1563,-4165.0703
29725.4902,-3741.5068,-2112.8770,-3788.5583,533.0043,-4303.8120,-3982.9358
29745.0980,-3409.0728,-2361.8171,-3553.2896,533.9374,-4015.1323,-3726.9045
29764.7059,-3348.4875,-2439.8286,-3616.8384,536.0010,-4046.8267,-3714.1130
29784.3137,-3462.9646,-2451.6421,-3809.3630,529.9139,-4195.1880,-3830.7539
29803.9216,-3787.7576,-2444.1567,-4026.9534,511.9737,-4567.9473,-4166.3936
29823.5294,-3924.0442,-2347.6506,-4161.2808,505.9111,-4824.2813,-4309.6714
29843.1373,-4081.8374,-2374.1406,-4225.1230,504.9821,-4714.9805,-4399.5874
29862.7451,-3416.7683,-2394.5864,-3555.9607,530.9631,-3986.1196,-3701.4016
29882.3529,-3211.8196,-2423.1406,-3379.1628,548.9635,-3827.8193,-3534.5808
29901.9608,-3288.7012,-2484.4038,-3541.9258,536.9318,-3941.0908,-3609.2307
29921.5686,-3416.0515,-2479.4036,-3727.3320,522.9519,-4142.9067,-3780.7883
29941.1765,-3705.5984,-2390.4465,-3872.6646,520.9963,-4502.1816,-4072.1724
29960.7843,-3939.2559,-2360.4653,-4077.6250,503.9215,-4699.0098,-4305.0098
29980.3922,-3338.3445,-2253.1509,-3374.5010,534.0087,-3815.0676,-3571.9653
30000.0000,-3045.2185,-2234.5295,-3052.5017,555.9056,-3477.8640,-3249.0024
30019.6078,-2925.1550,-2264.2378,-2943.4568,560.9799,-3394.9822,-3138.7744
30039.2157,-3005.2546,-2271.6284,-3197.6165,550.9006,-3512.8218,-3230.0803
30058.8235,-3520.0461,-2356.1572,-3514.3025,536.9802,-4078.0090,-3723.6748
30078.4314,-3814.5215,-2386.7634,-3817.7278,515.8602,-4470.9512,-4024.2754
30098.0392,-3719.1257,-2411.0525,-3681.1345,515.9879,-4161.0044,-3883.5959
30117.6471,-3423.6563,-2437.8557,-3402.9712,526.8642,-3828.8870,-3609.3325
30137.2549,-3177.0479,-2449.8811,-3080.0703,546.0335,-3614.8943,-3354.4233
30156.8627,-3107.6528,-2458.8765,-3112.0039,549.9088,-3566.8430,-3307.3508
30176.4706,-3260.9302,-2455.8552,-3381.7903,540.0266,-3753.8435,-3443.3179
30196.0784,-3575.7708,-2403.9434,-3547.0208,529.8512,-4097.9106,-3731.4404
30215.6863,-3833.8203,-2367.7515,-3715.8208,526.0742,-4280.9175,-3921.3293
30235.2941,-3462.6577,-2372.7971,-3361.1526,531.8286,-3833.9297,-3552.5117
30254.9020,-3180.8293,-2382.6482,-3082.5950,549.0717,-3507.8633,-3252.2559
30274.5098,-2966.9065,-2388.0020,-2872.2061,552.8222,-3324.9075,-3058.5215
30294.1176,-2895.6287,-2306.6536,-2882.5051,554.0764,-3273.7771,-2979.1431
30313.7255,-3148.9121,-2363.1135,-3211.3784,542.8231,-3747.9763,-3205.5601
30333.3333,-3936.8293,-2578.6917,-3785.4370,497.0898,-4280.8691,-3974.2175
30352.9412,-3690.0144,-2681.1431,-3584.5337,503.8185,-4033.0959,-3760.7183
30372.5490,-3527.6931,-2765.7283,-3453.3687,524.0554,-3889.8354,-3619.1953
30392.1569,-3418.9548,-2800.2268,-3393.7241,527.8253,-3848.1494,-3555.7546
30411.7647,-3536.7393,-2831.6265,-3562.2773,517.0803,-4015.8132,-3683.1855
30431.3725,-3599.9729,-2681.2219,-3658.9294,507.8415,-4224.2212,-3739.7756
30450.9804,-3907.7197,-2612.6125,-3835.0339,501.0768,-4474.7744,-3987.1455
30470.5882,-3585.0242,-2537.2820,-3436.9819,512.8303,-3872.2144,-3605.7605
30490.1961,-3329.6023,-2545.4971,-3161.0002,535.0859,-3580.5837,-3350.0503
30509.8039,-3143.0330,-2599.2744,-3005.0349,540.8088,-3423.2505,-3182.7471
30529.4118,-3085.4812,-2560.6316,-2969.9509,536.1149,-3409.5188,-3131.0376
30549.0196,-3163.1956,-2480.2632,-3078.1484,542.7887,-3588.3687,-3181.7476
30568.6275,-3381.3813,-2441.5767,-3198.7000,530.1000,-3711.4734,-3353.0723
30588.2353,-3470.1550,-2282.2417,-3055.0925,546.8208,-3679.3726,-3327.6809
30607.8431,-2986.4319,-2149.4453,-2622.6077,560.1343,-3099.2878,-2859.0063
30627.4510,-2702.0273,-2139.2314,-2321.2605,569.8097,-2735.3452,-2550.5757
30647.0588,-2479.3176,-2076.5435,-2074.3386,578.1288,-2508.1504,-2308.9834
30666.6667,-2431.1775,-2005.3004,-2052.2366,582.8077,-2423.4146,-2209.5198
30686.2745,-2654.3984,-1991.5142,-2161.3618,583.1238,-2648.0691,-2390.0168
30705.8824,-2836.1255,-1754.1727,-1937.3293,614.8268,-2673.4849,-2269.4502
30725.4902,-2675.2234,-1677.4786,-1830.1400,612.1314,-2627.9109,-2195.9607
30745.0980,-2339.0620,-1611.1334,-1666.3850,612.7790,-2196.5007,-1990.3586
30764.7059,-2077.2119,-1564.4972,-1384.0424,605.1536,-1908.6892,-1719.9293
30784.3137,-1947.1014,-1523.9938,-1248.4954,609.8367,-1760.5193,-1597.2330
30803.9216,-2055.0808,-1493.4443,-1407.9377,624.1072,-1841.5353,-1640.9381
30823.5294,-2596.1611,-1544.0010,-1554.4055,631.8041,-2321.6895,-1969.2061
30843.1373,-2673.1489,-1554.4458,-1559.5995,629.0993,-2352.3567,-1982.9233
30862.7451,-2602.0283,-1557.9431,-1537.5270,622.8450,-2317.7810,-1974.1190
30882.3529,-2262.0107,-1529.2837,-1431.6178,605.1485,-1970.1470,-1787.9240
30901.9608,-2155.0747,-1577.0265,-1347.6001,603.8350,-1855.8777,-1686.0345
30921.5686,-2216.1201,-1624.3574,-1462.4292,603.0927,-1933.0728,-1767.0232
30941.1765,-2779.1050,-1676.9375,-1810.8712,608.8340,-2532.1201,-2187.0527
30960.7843,-2845.2817,-1608.2930,-1697.2439,617.1082,-2473.8706,-2085.0356
30980.3922,-2553.1521,-1513.8326,-1451.8070,623.8295,-2250.1741,-1871.9153
31000.0000,-2368.0869,-1465.2762,-1348.1649,623.1221,-2064.6514,-1786.0259
31019.6078,-2085.0745,-1434.8365,-1201.8344,611.8623,-1751.3265,-1572.8246
31039.2157,-2024.0504,-1456.4454,-1175.0634,610.1148,-1693.4872,-1523.1063
31058.8235,-2279.0962,-1423.8573,-1253.9811,632.8729,-1914.5375,-1633.7882
31078.4314,-2405.1340,-1386.3282,-1233.0575,649.1044,-1957.2523,-1625.1077
31098.0392,-2567.1289,-1465.7457,-1398.9961,634.8712,-2170.6135,-1796.6360
31117.6471,-2702.9792,-1514.4485,-1499.0342,623.0956,-2328.0779,-1903.1727
31137.2549,-2485.1233,-1580.8004,-1627.0515,607.8587,-2147.8660,-1936.6261
31156.8627,-2400.9077,-1680.5587,-1608.9767,596.0627,-2089.9182,-1892.2871
31176.4706,-2560.0886,-1773.8997,-1847.3767,588.9139,-2327.1479,-2090.6548
31196.0784,-2738.0498,-1703.3982,-1879.9026,594.0638,-2533.7488,-2193.3572
31215.6863,-2735.2085,-1609.8939,-1619.2448,616.9077,-2474.3411,-2079.5735
31235.2941,-2463.9817,-1447.4181,-1377.7295,633.0502,-2127.4099,-1738.3047
31254.9020,-2342.0222,-1369.6929,-1199.2271,635.9414,-1948.4525,-1568.4198
31274.5098,-2076.9102,-1360.5370,-1168.5575,620.0396,-1665.1926,-1492.3347
31294.1176,-1855.1056,-1306.7869,-993.3441,623.9160,-1425.6594,-1268.3994
31313.7255,-1984.8204,-1209.3820,-872.5172,640.0023,-1512.9989,-1225.3862
31333.3333,-2126.2842,-1211.7594,-887.4857,655.9445,-1593.9197,-1262.3779
31352.9412,-2072.0037,-1100.4082,-691.3036,675.9743,-1360.6871,-1120.3705
31372.5490,-1951.2096,-1058.7076,-578.6246,674.9792,-1260.0823,-984.3030
31392.1569,-1941.7991,-1036.5978,-526.1700,657.9664,-1209.4772,-947.3849
31411.7647,-1549.2584,-979.7296,-392.7353,641.9517,-944.3591,-794.3058
31431.3725,-1573.7064,-922.4877,-298.2373,648.9825,-940.2879,-720.4691
31450.9804,-1691.2133,-879.5389,-238.7853,676.9951,-892.5629,-648.2354
31470.5882,-1575.8585,-767.6077,-28.9299,697.9532,-692.9256,-459.3912
31490.1961,-1388.1974,-592.5486,323.9306,716.0099,-251.6558,-98.0989
31509.8039,-1257.7799,-540.4963,432.0023,712.9222,-178.6073,-17.3526
31529.4118,-1203.3007,-551.5317,403.8847,682.0267,-262.9845,-22.0884
31549.0196,-1158.5571,-503.4496,466.8715,680.8840,-182.4202,42.0917
31568.6275,-1226.2186,-473.4783,504.8332,695.0420,-118.2033,61.4282
31588.2353,-1238.5447,-423.5688,551.0707,716.9196,-70.0985,83.1257
31607.8431,-1145.4402,-370.5201,696.9395,731.0481,70.1369,216.5075
31627.4510,-1128.4508,-332.4991,758.1502,730.8621,122.7280,250.1612
31647.0588,-1111.3597,-346.5163,717.8011,694.1179,48.8337,253.5114
31666.6667,-1147.5630,-372.5523,611.2222,685.8922,-26.6400,169.0936
31686.2745,-1123.4922,-329.4932,650.5875,693.1100,39.5663,219.4673
31705.8824,-1287.4904,-364.4100,547.3015,700.8559,-52.3609,116.1155
31725.4902,-1302.5891,-364.4618,548.5490,716.1180,-99.1827,78.4433
31745.0980,-1446.2888,-418.4768,415.2911,712.8091,-274.1139,-89.3771
31764.7059,-1238.5709,-242.6376,764.3810,705.1242,128.1242,131.4189
31784.3137,-857.3295,-99.5717,1035.5598,708.8228,442.6094,593.1826
31803.9216,-790.7379,-50.4511,1098.4025,710.1364,540.9054,695.4530
31823.5294,-927.2688,-77.4307,1026.4727,721.7997,467.8581,623.2027
31843.1373,-1051.8655,-127.5756,899.3581,722.1949,293.6520,471.4052
31862.7451,-1174.1918,-176.4347,776.7468,731.7693,138.1119,343.2451
31882.3529,-1144.7612,-122.4499,863.2652,716.1953,243.4435,378.3659
31901.9608,-1018.8774,-69.5038,936.7098,711.7749,336.3522,534.3099
31921.5686,-1097.9569,-153.6600,743.0512,697.1975,139.1332,357.3077
31941.1765,-1258.0413,-258.4176,523.6841,685.7545,-141.0584,104.2093
31960.7843,-1532.2240,-365.6417,297.9473,684.2130,-433.6490,-149.2953
31980.3922,-1836.0422,-494.6319,-19.9287,691.6918,-766.8991,-463.3024
32000.0000,-2057.3391,-632.6020,-380.9709,692.2344,-1079.8896,-765.3937
32019.6078,-1722.7426,-482.5308,-34.9534,676.6915,-726.7077,-435.2690
32039.2157,-1619.3375,-400.6046,144.7366,672.2755,-520.0439,-231.3861
32058.8235,-1164.7397,-274.5033,427.7791,679.6818,-259.5421,23.2828
32078.4314,-1215.4573,-252.6844,471.7364,690.2853,-221.2069,69.0824
32098.0392,-1370.6925,-263.5611,398.8736,700.6653,-289.3561,-8.1739
32117.6471,-1673.5492,-391.5318,60.7999,709.3195,-587.3802,-281.4884
32137.2549,-1570.5146,-346.5128,167.8960,709.6122,-471.2350,-196.1716
32156.8627,-1302.5498,-138.5569,635.7903,700.3105,-11.4436,78.0261
32176.4706,-918.3981,-1.5091,882.1290,699.6076,265.5135,504.4745
32196.0784,-648.4603,176.1542,1227.7133,719.3450,620.9293,840.0518
32215.6863,-564.1567,260.3391,1382.1213,731.6073,823.7595,988.6064
32235.2941,-672.5688,255.1397,1342.6616,756.3746,781.9174,924.0957
32254.9020,-647.0011,292.2739,1374.2345,769.6306,807.9945,958.7281
32274.5098,-547.6503,349.2434,1501.8063,751.3966,919.8301,1087.0828
32294.1176,-431.0415,516.3755,1798.3562,740.6117,1224.1477,1372.8333
32313.7255,19.0037,724.2814,2165.7786,764.4075,1657.7599,1764.0923
32333.3333,112.0185,810.3670,2346.3201,770.5666,1851.3063,1914.9291
32352.9412,-81.7769,771.3369,2042.6184,773.3847,1587.6797,1721.0513
32372.5490,-202.6152,714.4280,1925.4303,777.5341,1457.4972,1587.0533
32392.1569,-244.8733,697.2834,1916.6875,780.4455,1434.6580,1550.0542
32411.7647,-290.6450,694.4211,1995.6615,760.5580,1373.5936,1503.1307
32431.3725,-178.9621,759.2405,2078.6343,759.4532,1520.5320,1637.9744
32450.9804,-157.5074,790.3837,2071.4036,766.5615,1554.5696,1662.1313
32470.5882,-218.1471,767.3902,1923.6453,767.4684,1459.4591,1583.8737
32490.1961,-344.4951,716.5398,1799.5035,771.5416,1326.6365,1452.1890
32509.8039,-378.3233,693.3224,1731.7794,774.4612,1286.4883,1391.8611
32529.4118,-404.2843,697.4421,1784.4656,770.5113,1267.6881,1379.2516
32549.0196,-366.3798,722.2152,1811.6108,754.4950,1275.4518,1421.8373
32568.6275,-198.2395,812.4979,1962.3927,755.5122,1433.6141,1574.2255
32588.2353,-146.4501,851.2865,2012.6863,757.4500,1497.4426,1629.7963
32607.8431,-175.0113,850.4681,1892.4670,773.4946,1447.6537,1576.2919
32627.4510,-206.3815,825.4664,1842.7798,778.4656,1361.5614,1510.8397
32647.0588,-291.9558,801.6070,1785.6888,780.4708,1295.7611,1439.4393
32666.6667,-289.4208,788.4694,1826.8545,763.4935,1244.6526,1430.8732
32686.2745,-326.7425,787.6392,1797.6876,750.4968,1228.6785,1416.4613
32705.8824,-149.5247,917.5708,2005.8633,761.5188,1467.7617,1643.9003
32725.4902,-179.8093,890.6014,1913.5251,758.4940,1368.6709,1538.5072
32745.0980,-306.7515,818.5719,1701.9218,775.5500,1167.8099,1371.8752
32764.7059,-595.7007,673.5046,1446.5562,766.4882,835.5937,1050.4921
32784.3137,-810.7755,544.4069,1166.0265,760.5070,548.7882,800.7797
32803.9216,-1051.6409,408.4113,867.4785,726.4602,236.4253,517.4387
32823.5294,-831.0242,465.4568,986.8706,715.5637,351.8117,654.7400
32843.1373,-659.3945,558.4304,1144.3247,726.4569,509.3400,790.4498
32862.7451,-510.8533,643.4382,1293.0737,743.5524,682.9927,937.7991
32882.3529,-526.3891,647.4190,1293.3771,764.4244,708.3197,932.5241
32901.9608,-514.0706,660.4819,1293.1978,765.5221,725.2161,944.8735
32921.5686,-599.1887,619.4861,1231.4384,753.4705,632.2255,860.5659
32941.1765,-657.0748,607.6490,1185.2197,721.5380,536.3187,794.8839
32960.7843,-491.0861,677.5157,1307.4065,729.4563,698.0758,974.5503
32980.3922,-380.1151,745.5865,1411.4344,745.5597,853.5601,1076.9833
33000.0000,-350.9250,772.5853,1457.3978,759.4247,916.0803,1093.6571
33019.6078,-141.1774,891.6783,1653.6846,779.5658,1143.8628,1290.1198
33039.2157,-97.8448,930.5256,1762.3016,774.4695,1196.0215,1355.7349
33058.8235,82.7631,1070.8750,2040.9711,767.5961,1440.1073,1615.2455
33078.4314,193.9536,1145.8068,2153.3193,771.4593,1603.8987,1780.7531
33098.0392,111.6786,1151.7499,2143.0935,765.5529,1623.3488,1713.3348
33117.6471,122.0791,1160.7053,2031.2289,777.4170,1591.6703,1718.6959
33137.2549,126.6855,1166.9558,2005.3378,784.5757,1548.6797,1708.5027
33156.8627,92.2593,1160.6946,1955.1198,783.4378,1493.5566,1633.7058
