t,AF3,F7,F3,F4,F8,AF7,
0.0000,1493.5696,1822.1658,353.0985,452.7823,1826.5029,1606.4336
19.6078,1823.5250,2186.0625,413.8915,872.1000,2205.8955,1950.8325
39.2157,2082.5798,2376.0547,449.1321,1081.8562,2383.3018,2217.3938
58.8235,2040.5774,2382.6392,534.0096,1073.3562,2369.3135,2185.0808
78.4314,2452.8552,3294.7188,616.1287,636.8201,3317.9446,2801.2012
98.0392,3057.7705,4062.1230,681.0045,503.5251,4130.0083,3444.4280
117.6471,3512.7656,4424.5679,728.1375,792.7001,4485.6289,3860.3350
137.2549,3393.9207,4175.3696,744.0394,1161.6157,4236.4023,3696.5842
156.8627,3133.6150,3706.2358,744.0963,1371.5219,3715.0083,3325.9651
176.4706,2934.8572,3289.4285,731.9557,1362.5966,3298.6499,3072.7593
196.0784,2748.5693,3350.0159,675.0720,609.5466,3326.6877,2948.7329
215.6863,2841.8652,3718.7163,691.0421,399.7535,3702.1680,3206.9160
235.2941,3138.6423,4110.8145,723.0016,340.2827,4089.3921,3516.6162
254.9020,3286.8945,4086.0354,770.0729,773.7813,4076.3101,3618.0737
274.5098,3216.5298,3857.4321,800.9560,1197.2988,3819.9971,3465.3831
294.1176,3142.9407,3609.2124,815.0496,1403.0441,3557.6646,3285.1484
313.7255,3046.3281,3504.2429,824.9902,1132.1115,3454.6663,3236.2446
333.3333,3023.1318,3748.4854,783.1063,572.9860,3686.0466,3328.1787
352.9412,3027.3057,4054.3591,800.9244,308.8788,3962.4006,3539.2407
372.5490,3469.3706,4244.4434,840.1890,525.0535,4144.2983,3783.4329
392.1569,3265.1450,3910.1267,843.9225,930.7572,3808.1641,3528.1201
411.7647,3094.3516,3596.5859,863.2103,1245.4082,3500.4614,3294.4783
431.3725,3291.2422,3662.8667,929.9456,1413.9061,3596.0366,3445.0752
450.9804,3411.4827,4132.8921,973.1671,1102.5306,4022.8655,3716.8479
470.5882,4088.1499,4747.9727,976.9791,742.8164,4642.8198,4338.9507
490.1961,4011.7363,4607.0059,943.1614,422.4742,4483.9624,4107.9409
509.8039,3194.8779,3769.7651,879.8587,449.4912,3616.5608,3421.7751
529.4118,2533.6450,2931.7966,801.1201,778.3553,2785.0266,2697.7661
549.0196,2443.6375,2648.4268,803.9518,980.6340,2554.0928,2534.4246
568.6275,2230.7078,2483.8079,800.2441,779.6801,2372.0808,2351.9561
588.2353,2002.4716,2265.4355,746.8637,408.5500,2140.1589,2124.3120
607.8431,1755.7332,1802.7229,712.2844,-83.3172,1661.0662,1906.8293
627.4510,1511.1445,1894.1998,722.7825,24.3947,1744.8907,1704.1613
647.0588,1829.9078,2058.7544,718.2755,295.5548,1941.3120,1909.8214
666.6667,2117.1628,2257.3916,757.8566,890.3253,2163.7788,2188.1809
686.2745,2090.0793,2265.8289,810.3136,961.7822,2147.2029,2178.0750
705.8824,2246.0530,2448.4834,873.7521,877.3884,2304.7622,2341.2153
725.4902,2508.2031,2778.7322,945.3754,628.8004,2639.4192,2607.0674
745.0980,2905.9832,3945.5383,1044.7477,579.2161,3678.8757,3121.1416
764.7059,3922.5237,4419.9595,1106.4202,880.7972,4189.6572,4090.3154
784.3137,3316.7808,3639.5256,1094.7548,1414.2783,3441.8203,3446.1960
803.9216,2975.4199,3178.5840,1054.3074,1387.7974,3104.3672,3048.3191
823.5294,2746.5820,2944.6382,1021.6832,1099.3096,2814.8811,2830.0737
843.1373,2524.5603,2753.4460,964.4128,725.9199,2615.3591,2623.1973
862.7451,2357.5039,2352.7476,925.6149,170.1105,2432.8674,2459.9202
882.3529,2095.5972,2400.1985,931.4207,99.9149,2145.9929,2208.1179
901.9608,2325.3674,2484.7461,926.6317,819.0365,2342.9744,2359.8472
921.5686,2316.8796,2461.1614,928.4585,936.0607,2342.9175,2364.1260
941.1765,2220.1050,2149.9302,894.6457,856.0178,1993.1865,2092.9272
960.7843,1699.1240,1806.8920,828.4083,513.9069,1685.8279,1763.1917
980.3922,1380.9565,1481.2321,790.6735,94.1989,1293.3293,1412.0887
1000.0000,1034.0688,980.5729,754.4959,-263.9519,783.5370,1074.0354
1019.6078,1319.8406,1721.3602,842.6364,460.0357,1590.5043,1683.9221
1039.2157,2014.3385,2130.6174,906.4440,866.0288,2000.5216,2044.2292
1058.8235,2146.7585,2223.5898,951.5184,1009.1373,2060.6848,2163.1230
1078.4314,2005.5305,2086.4197,956.5158,955.9319,1942.3099,2045.2458
1098.0392,1754.7141,1841.9301,930.5953,580.1771,1706.2161,1801.2517
1117.6471,1535.6696,1644.3099,898.5764,145.9736,1426.9951,1562.0895
1137.2549,1374.3206,1612.9927,883.5172,200.0561,1466.1958,1403.0739
1156.8627,1542.6689,1625.9299,845.5601,446.8578,1507.6116,1573.8145
1176.4706,1638.3208,1681.2563,791.4762,654.1191,1550.5952,1647.2656
1196.0784,1325.8860,1337.6907,715.6199,571.7319,1197.3579,1344.7067
1215.6863,915.1703,896.5926,639.5513,299.4103,762.8217,919.1746
1235.2941,385.0791,349.2708,563.5743,-176.9909,166.9368,393.5232
1254.9020,-343.8830,-520.1010,333.4608,-786.4906,-673.7805,-370.6448
1274.5098,-349.7789,-380.9537,240.4839,-564.3175,-526.3181,-369.3448
1294.1176,-252.1593,-363.7355,139.4028,-264.3362,-577.3839,-312.4149
1313.7255,-484.6230,-610.3575,19.5719,-196.2913,-807.8673,-533.6136
1333.3333,-876.2278,-1084.5623,-69.4389,-278.3926,-1409.9983,-950.3746
1352.9412,-2049.7017,-2302.7249,-205.3879,-874.5088,-2610.4714,-2135.8577
1372.5490,-3129.7532,-3428.5239,-438.5744,-1754.3774,-3952.9937,-3241.5891
1392.1569,-3458.8208,-3890.5747,-491.4557,-1766.6488,-4464.1899,-3638.1628
1411.7647,-3971.2095,-4763.5947,-522.5457,-1621.3651,-5277.8984,-4210.8252
1431.3725,-4628.9609,-5245.0493,-531.3460,-1236.8074,-5775.7178,-4871.5156
1450.9804,-4561.2969,-5258.3457,-504.6331,-820.1006,-5884.4805,-4820.6113
1470.5882,-4410.6841,-5041.2163,-478.4533,-719.8496,-5648.0645,-4680.4282
1490.1961,-2979.1917,-3314.4829,-400.6583,-1157.8810,-3702.7498,-3143.2063
1509.8039,-2512.3608,-2719.2949,-340.4212,-1044.0083,-2928.3101,-2612.3442
1529.4118,-2194.1687,-2333.1987,-275.6249,-650.7990,-2578.0999,-2290.0237
1549.0196,-1940.1394,-2137.4583,-250.3374,-185.0534,-2361.4932,-2065.4927
1568.6275,-1708.1893,-1916.6326,-228.5465,-64.5408,-2212.7358,-1834.6697
1588.2353,-1751.9572,-2073.8865,-264.3748,-40.1827,-2671.1045,-1933.5815
1607.8431,-2638.3262,-2883.3779,-393.5972,-1043.4672,-3225.2644,-2763.8040
1627.4510,-2792.1846,-2995.3416,-432.4309,-1200.4996,-3197.6047,-2881.8943
1647.0588,-2723.3950,-2891.9583,-424.5164,-1183.1693,-3075.8018,-2823.5845
1666.6667,-2393.9509,-2423.5386,-349.3929,-624.7344,-2648.0208,-2487.9243
1686.2745,-2088.4006,-2272.6045,-325.4764,-164.9238,-2505.1716,-2188.3113
1705.8824,-1643.9067,-1828.8422,-291.4526,26.0480,-2260.4800,-1791.9967
1725.4902,-2035.3647,-2160.3586,-293.4947,-347.8318,-2378.7876,-2111.0637
1745.0980,-1978.8883,-2091.1931,-301.3308,-702.0248,-2259.0056,-2042.2623
1764.7059,-2048.3433,-2128.8076,-303.4806,-745.5498,-2268.0449,-2110.8564
1784.3137,-1779.7842,-1828.6045,-274.4671,-635.4390,-1948.3761,-1841.4252
1803.9216,-1441.3429,-1436.4977,-218.4553,-58.1836,-1601.5869,-1501.8322
1823.5294,-962.6120,-1005.7792,-193.3745,227.3997,-1131.8654,-1030.5955
1843.1373,-1237.2764,-1336.0927,-217.3694,35.6953,-1500.0233,-1285.3667
1862.7451,-1664.8079,-1714.1702,-268.5282,-414.7078,-1828.3209,-1691.6440
1882.3529,-1720.4563,-1764.7032,-259.4533,-647.7903,-1887.4762,-1760.3191
1901.9608,-1561.8037,-1569.5656,-230.4734,-535.0185,-1660.8229,-1588.8514
1921.5686,-1095.4042,-934.3986,-134.4038,-43.4465,-1183.0278,-1136.9672
1941.1765,-707.6798,-386.8041,-74.5613,460.4765,-475.1446,-440.0759
1960.7843,47.5612,67.0425,48.6257,726.6429,-15.2945,38.0293
1980.3922,-215.6103,-195.0901,84.3397,468.3169,-265.6032,-195.0595
2000.0000,-657.1834,-599.6075,70.6265,-39.8179,-664.9294,-661.5253
2019.6078,-776.6891,-713.5307,49.3390,-374.0012,-762.1563,-765.3143
2039.2157,-649.4066,-563.2856,51.6833,-254.6497,-618.4841,-645.3669
2058.8235,-222.7126,287.8311,140.2417,381.6345,261.0543,-208.6557
2078.4314,772.7462,852.9881,354.6597,1067.7172,821.8256,798.7155
2098.0392,958.1478,1082.7405,434.1636,973.3020,1045.6451,1008.0344
2117.6471,732.8127,882.3209,468.8435,626.0731,852.3661,796.9993
2137.2549,615.2079,815.5107,549.1389,286.0325,781.3427,695.8618
2156.8627,754.8308,975.6056,585.8619,213.2055,981.7906,830.0865
2176.4706,1020.9634,1298.0814,636.1633,320.6252,1273.9202,1100.7191
2196.0784,1847.0912,2327.0723,782.9614,1211.8195,2322.6106,1934.4514
2215.6863,2119.1316,2303.0710,813.1243,1170.3887,2278.5176,2140.6382
2235.2941,1810.2498,2058.5295,787.9619,839.0034,2046.1196,1915.6599
2254.9020,1598.1233,1929.7147,758.9924,445.8784,1914.9818,1730.6818
2274.5098,1282.1757,1592.6864,727.0823,30.4128,1577.3457,1431.7189
2294.1176,1080.6769,1391.2013,673.9237,-24.3157,1362.5508,1178.1956
2313.7255,1541.3223,1735.9464,672.1723,543.8158,1742.8586,1607.9233
2333.3333,1598.7499,1719.9592,610.8121,742.1116,1692.0574,1685.1340
2352.9412,1121.4268,1267.1787,542.1356,499.1668,1201.2087,1179.0120
2372.5490,669.5536,820.6277,461.8136,66.8241,754.4719,743.7829
2392.1569,21.2697,160.3047,387.3101,-477.3548,94.4727,91.1374
2411.7647,-148.3914,-13.4662,318.6398,-591.6630,-66.8619,-93.1532
2431.3725,193.3367,313.6528,283.2707,-147.8958,257.9716,236.3389
2450.9804,604.2410,667.1492,308.5526,464.9684,587.7699,636.4398
2470.5882,654.6717,718.9492,322.3388,574.2482,652.4985,687.4443
2490.1961,421.3373,483.9078,325.5171,394.6283,417.2462,457.3504
2509.8039,-0.4005,68.0867,324.5280,1.8688,-73.0383,25.7690
2529.4118,-332.6676,-242.2416,282.4226,-465.6436,-309.8801,-310.6818
2549.0196,-76.0508,14.3460,276.5141,-239.7822,-50.5018,-56.0937
2568.6275,415.0724,516.3118,320.4309,223.8318,463.5248,459.0204
2588.2353,661.9383,715.7104,330.6619,633.4153,643.6483,675.9802
2607.8431,627.0831,620.3115,322.2917,559.5259,522.2463,660.0347
2627.4510,163.1940,201.8787,302.6721,239.8266,99.0160,188.1087
2647.0588,-336.0064,-259.9549,285.1646,-272.7985,-337.0228,-315.9808
2666.6667,-293.5880,-219.8024,272.8738,-364.7932,-306.5040,-292.7244
2686.2745,71.8091,173.7380,287.1670,-61.1367,105.4600,99.6169
2705.8824,521.2632,744.2859,351.9752,656.5522,503.4402,552.2382
2725.4902,779.7853,848.5333,381.0468,759.4865,758.2778,794.6233
2745.0980,769.4734,716.6182,415.9990,640.8427,640.9125,811.4846
2764.7059,201.5494,257.2918,387.9888,151.0599,143.9113,220.5542
2784.3137,-155.2422,-65.0546,363.0549,-330.6427,-125.5511,-119.2909
2803.9216,-54.4230,46.0384,337.8631,-267.1402,-4.2001,-19.2574
2823.5294,366.4201,487.7535,342.2162,145.4557,401.4190,389.5693
2843.1373,688.5112,749.0242,372.8831,585.3137,657.3923,708.4482
2862.7451,679.6152,630.0367,334.2419,576.9188,670.7930,715.5806
2882.3529,357.4247,182.8335,271.6801,195.1607,86.0208,374.4362
2901.9608,-897.1564,-853.8361,70.2220,-759.7610,-956.8423,-880.3710
2921.5686,-1152.5399,-1124.1678,-37.3099,-906.0309,-1207.9899,-1140.6000
2941.1765,-1087.2471,-1080.6296,-135.5407,-675.5329,-1205.6464,-1089.3881
2960.7843,-838.6426,-854.3873,-171.3745,2.5276,-1042.4060,-886.5823
2980.3922,-1000.1235,-1059.4551,-181.4738,-53.1856,-1249.5391,-1021.2542
3000.0000,-1784.6858,-1857.4181,-256.4345,-835.4737,-1998.5107,-1818.5636
3019.6078,-1953.3225,-1995.5653,-280.4341,-908.8785,-2136.3008,-1985.5076
3039.2157,-1757.8678,-1779.5945,-284.4413,-793.8430,-1899.7097,-1776.7269
3058.8235,-1437.2312,-1482.3771,-239.2878,-360.8279,-1622.3123,-1484.3550
3078.4314,-992.6990,-1025.6282,-173.5294,125.7416,-1166.8647,-1029.6804
3098.0392,-623.1608,-661.4142,-113.1555,356.2120,-815.9390,-651.4036
3117.6471,-1022.7555,-1148.6169,-99.6506,-207.2101,-1264.0333,-1062.5376
3137.2549,-1273.0457,-1265.2321,-90.0932,-520.3511,-1391.7743,-1313.2952
3156.8627,-1255.7211,-1227.6475,-86.7283,-514.5037,-1308.1182,-1261.6271
3176.4706,-910.2606,-869.0997,-82.1226,-281.1814,-954.6495,-919.3970
3196.0784,-548.6596,-525.8790,-64.6846,135.2721,-638.4227,-581.4286
3215.6863,-137.1935,-126.0887,-6.0373,524.6769,-211.4668,-141.4405
3235.2941,-438.6310,-434.8548,-13.7946,279.1716,-520.4829,-419.3999
3254.9020,-973.2578,-928.1019,-23.0149,-369.7735,-990.4600,-962.5695
3274.5098,-939.6293,-882.9340,13.0391,-420.8758,-980.5180,-949.2321
3294.1176,-726.2415,-652.9509,40.9646,-292.7623,-687.2324,-706.5957
3313.7255,-286.7089,-205.8625,80.9537,43.8174,-266.6261,-278.1618
3333.3333,133.6103,221.8808,93.8867,508.1198,148.5653,134.2237
3352.9412,209.2269,268.8308,132.8862,580.7438,178.0406,207.4342
3372.5490,-274.1627,-225.8925,71.9642,-42.6084,-298.1030,-249.6569
3392.1569,-755.7339,-678.9726,40.8199,-486.0909,-748.9366,-755.2037
3411.7647,-704.4594,-624.0851,61.9753,-381.4103,-662.2653,-677.9545
3431.3725,-303.6277,-211.0562,144.8815,-131.0254,-277.0442,-306.0841
3450.9804,317.3679,449.5706,244.9780,423.2888,410.7027,345.7652
3470.5882,834.1456,951.7170,327.8142,834.5019,899.7760,873.6185
3490.1961,549.3781,654.7723,309.0862,400.2836,605.7002,597.8436
3509.8039,138.2469,267.7051,298.8122,149.5206,177.7127,167.7814
3529.4118,-123.4455,22.6870,289.1066,-269.3627,-14.8506,-94.0222
3549.0196,30.1842,176.6287,328.8177,-156.2987,130.5699,88.8537
3568.6275,409.1938,598.8143,360.0763,129.2944,561.8473,448.6167
3588.2353,978.2706,1095.6698,392.7119,740.4243,1044.4744,998.8335
3607.8431,976.1746,1125.8195,405.1902,760.2933,1068.9076,1041.6116
3627.4510,621.3210,728.5604,397.7654,446.6231,665.5219,661.9295
3647.0588,208.1084,369.7246,353.2076,-307.5233,302.9328,255.5801
3666.6667,-65.3531,158.5172,344.7352,-309.9507,100.4408,55.0665
3686.2745,91.0730,251.5847,324.0734,-219.6855,199.6720,136.3233
3705.8824,825.3127,915.5304,351.7434,582.7368,858.5533,857.0954
3725.4902,868.0878,990.6399,362.1648,676.0104,936.9479,917.3016
3745.0980,712.4548,797.6270,352.6409,544.8856,724.5238,737.1423
3764.7059,322.9642,453.7340,381.1298,45.7869,359.9321,370.2238
3784.3137,83.4731,148.6903,381.7801,-282.6766,106.5801,54.2807
3803.9216,120.7442,277.5351,391.1370,-194.0534,201.8678,158.1826
3823.5294,868.5958,991.8285,424.6622,441.1136,942.5212,921.2086
3843.1373,1079.8108,1203.6517,462.0791,788.5677,1139.8628,1118.2408
3862.7451,1104.6899,1219.8550,477.7142,782.3897,1177.7751,1165.5239
3882.3529,846.8647,960.7226,488.0522,572.3692,872.8414,895.1302
3901.9608,549.8093,699.8872,515.8269,-110.2781,601.8525,591.3871
3921.5686,341.9012,503.8178,512.0944,-160.4739,473.9279,385.3053
3941.1765,1028.0353,1235.1113,572.7800,333.7346,1190.8799,1063.6920
3960.7843,1374.9833,1526.8046,623.0579,807.1350,1481.0476,1428.2616
3980.3922,1567.0627,1704.2292,664.8307,939.0729,1666.9526,1607.7303
4000.0000,1483.7583,1624.7439,676.0548,861.9340,1563.9116,1550.3097
4019.6078,1062.1580,1249.0776,653.9532,185.2542,1172.9753,1133.5936
4039.2157,738.6544,841.6663,645.0919,-151.1690,737.8917,813.1395
4058.8235,1104.9701,1574.1521,757.9410,310.4145,1526.0869,1171.6836
4078.4314,1750.8124,1974.5580,813.9854,755.4423,1938.7018,1815.1520
4098.0392,2030.0782,2223.3257,878.9714,1060.7523,2182.0884,2093.6956
4117.6471,2139.8860,2307.6692,915.9794,1117.0875,2262.8684,2194.3853
4137.2549,2029.2703,2271.4851,926.0823,939.0810,2213.2349,2127.7197
4156.8627,1838.0596,2097.6980,891.8992,353.7864,2026.8633,1936.4911
4176.4706,1318.3137,1693.4125,849.0683,149.3895,1642.4932,1415.6221
4196.0784,1841.9910,2122.6567,882.9014,428.7316,2031.6426,1919.4271
4215.6863,1992.3329,2185.5083,910.2113,875.7708,2137.6323,2049.7305
4235.2941,2024.8390,2210.6750,907.8007,921.3504,2140.5378,2091.5378
4254.9020,1866.3618,2007.4094,870.2225,782.9341,1915.5383,1907.5408
4274.5098,1404.8402,1602.5852,816.7888,384.0203,1500.6344,1482.5105
4294.1176,493.2553,635.4515,689.2515,-416.6679,530.5760,554.6110
4313.7255,484.7488,765.5784,653.7781,-229.0042,668.4893,513.6394
4333.3333,853.3011,1152.6165,629.2621,171.6660,1071.8568,1067.6417
4352.9412,992.8997,1061.2909,568.7174,468.2749,962.0989,1019.4687
4372.5490,887.2066,931.6533,502.3341,430.7769,844.8465,912.4999
4392.1569,512.6937,535.2349,445.5677,229.8881,416.9351,524.5180
4411.7647,-367.6706,-343.1173,363.3153,-553.5742,-455.7675,-360.5191
4431.3725,-402.9915,-373.5354,382.4800,-440.2054,-481.8235,-411.1587
4450.9804,-162.7791,114.6549,407.4397,-149.1239,24.0614,-153.5680
4470.5882,614.8172,628.0845,462.4847,436.1576,518.8041,620.7033
4490.1961,813.1011,824.7796,500.5605,699.0323,714.3290,803.3892
4509.8039,731.7627,752.9540,510.3891,643.9692,633.5280,739.6349
4529.4118,-82.5578,-59.6940,446.5711,-219.3685,-164.2426,-78.5331
4549.0196,-282.1017,-253.8106,428.3440,-387.2070,-355.4874,-283.9461
4568.6275,-273.5669,-45.4914,438.5750,-254.0491,-136.0118,-274.4431
4588.2353,361.9379,416.9890,468.3571,156.2421,313.4410,355.8555
4607.8431,727.3940,729.2554,490.7821,617.1868,625.0434,715.2714
4627.4510,719.0851,740.1229,473.4027,634.9500,616.5167,705.1784
4647.0588,159.2293,150.4590,477.8654,157.4031,20.2184,147.1984
4666.6667,52.0713,85.9111,548.3433,-53.1215,-36.4460,43.1397
4686.2745,171.3268,236.4972,656.8828,-90.0764,143.3996,178.1586
4705.8824,712.3243,1074.0961,802.2521,410.1946,978.2695,724.5483
4725.4902,1666.6359,1758.9814,898.9401,980.3052,1700.7711,1689.3905
4745.0980,1967.6991,2093.3115,992.3678,1225.1720,2014.5164,1985.9628
4764.7059,1964.8097,2132.3579,1044.0608,957.7167,2049.1406,2022.5743
4784.3137,1607.6870,1780.2516,978.2719,427.5569,1693.1755,1674.0494
4803.9216,1052.6440,1199.1104,899.0569,-24.8111,1106.1661,1094.2877
4823.5294,822.2840,981.6769,850.1790,-28.6324,893.7057,850.7339
4843.1373,1116.4011,1397.2557,816.1960,203.3006,1316.1770,1142.1139
4862.7451,1209.4564,1279.7043,736.1512,487.7235,1161.5309,1214.8333
4882.3529,811.5099,822.2073,586.2183,335.7492,695.5538,797.9100
4901.9608,190.2299,186.2752,522.9421,-33.5904,77.0768,214.7456
4921.5686,-136.4842,-126.5429,496.1962,-409.8928,-287.2811,-155.0687
4941.1765,-315.3543,-300.4229,490.0376,-512.9738,-375.7195,-304.8732
4960.7843,-114.5614,-89.4150,546.2800,-169.2828,-202.0783,-138.1503
4980.3922,429.2446,665.3380,572.8887,307.5691,569.7819,424.9355
5000.0000,966.3033,935.5063,642.3669,721.8459,830.9562,918.6861
5019.6078,755.4783,754.0422,663.9618,581.2299,620.5344,748.1367
5039.2157,384.1406,391.5034,674.3741,125.1199,278.0374,384.4391
5058.8235,192.4011,217.0482,680.8033,-109.0400,119.3882,203.9342
5078.4314,85.1735,128.5863,666.3516,-302.3856,47.2636,81.4868
5098.0392,389.4154,465.7898,680.7620,-84.4540,393.0005,388.1940
5117.6471,1021.3353,981.8637,638.4674,661.0408,868.6802,1012.5794
5137.2549,692.3184,696.7521,589.7563,480.1795,593.9786,704.2385
5156.8627,125.0191,94.7557,502.4298,65.2962,-48.0762,97.2767
5176.4706,-409.3349,-415.2227,415.7032,-469.2125,-539.2468,-413.7256
5196.0784,-703.6249,-722.7801,353.5411,-689.1071,-825.7720,-712.4712
5215.6863,-579.5209,-595.4674,372.6534,-548.4781,-683.3495,-608.5574
5235.2941,353.2982,322.3290,470.5524,451.1161,194.5017,333.3754
5254.9020,451.4662,447.1645,471.6484,603.9373,311.1151,425.2676
5274.5098,175.1880,128.4097,441.5959,387.5346,0.7320,143.2982
5294.1176,-358.6305,-394.7779,406.6207,-68.2759,-510.1072,-367.7142
5313.7255,-581.4668,-589.4423,406.6595,-385.9983,-705.0469,-605.5512
5333.3333,-549.6833,-557.9800,422.5682,-435.7918,-641.3149,-570.7511
5352.9412,466.1765,470.5019,551.5634,420.3385,394.9311,450.1992
5372.5490,834.2593,1009.7819,690.5301,975.7622,916.3615,801.4059
5392.1569,1127.4922,1153.6945,753.6916,976.6832,1045.2626,1114.3285
5411.7647,757.0077,761.6760,753.5203,600.3391,671.2299,762.1712
5431.3725,351.3610,400.6624,704.7070,47.8833,292.3632,339.2134
5450.9804,35.9264,-26.5074,634.4346,-340.0133,-99.9102,40.0614
5470.5882,393.2381,453.9167,633.6013,24.1970,367.3736,380.9919
5490.1961,834.9156,881.3655,662.4988,550.6346,771.7190,820.0883
5509.8039,889.3057,763.1415,578.6548,587.7013,674.6957,876.0383
5529.4118,588.9138,353.1154,501.4393,329.0355,234.3648,341.1053
5549.0196,-244.5158,-253.5441,443.6370,-118.7157,-353.9453,-235.7861
5568.6275,-618.1319,-615.8855,395.3733,-554.1981,-734.7483,-652.8756
5588.2353,-503.3278,-505.5278,392.7148,-433.3377,-619.7958,-543.8079
5607.8431,91.7665,117.8286,436.4435,129.4917,28.8946,84.0698
5627.4510,421.5776,394.5540,492.6711,567.0430,287.4620,380.2028
5647.0588,571.6335,495.6724,526.3597,670.1385,381.4997,552.9804
5666.6667,412.5860,176.7355,531.6769,416.2606,64.7786,192.2749
5686.2745,-196.1757,-194.4849,516.3466,-64.1883,-307.3781,-206.7390
5705.8824,-428.1864,-413.0509,483.7213,-423.2747,-496.9983,-450.6226
5725.4902,-202.2449,-159.5035,459.4238,-228.3701,-254.6676,-208.0193
5745.0980,307.6839,307.8039,454.7474,355.8847,206.0324,281.1409
5764.7059,382.5480,378.1951,472.4011,547.1404,258.9438,359.9593
5784.3137,393.5771,208.9237,448.7586,485.2255,73.0111,203.1280
5803.9216,-424.4557,-448.8421,352.2787,-99.0107,-580.2101,-444.1664
5823.5294,-1080.5286,-1076.9146,219.5802,-739.5743,-1209.7550,-1097.7709
5843.1373,-1078.6141,-1102.1624,179.2832,-673.3986,-1199.3320,-1102.1709
5862.7451,-831.3693,-841.7607,144.5883,-299.1306,-993.5476,-891.7176
5882.3529,-514.6259,-564.1767,156.2701,174.2133,-708.5916,-565.1266
5901.9608,-267.3927,-350.8797,212.6953,450.0516,-491.6121,-304.6465
5921.5686,-352.5639,-727.3552,207.2070,148.7290,-881.6542,-695.1725
5941.1765,-1308.7777,-1326.0636,132.6091,-613.6345,-1450.8595,-1349.0422
5960.7843,-1248.5782,-1276.3405,125.1951,-643.3371,-1405.7545,-1302.2877
5980.3922,-973.7357,-1001.8646,165.6090,-312.3800,-1092.5002,-1027.8491
6000.0000,-457.5899,-458.4014,207.2091,219.2984,-613.6855,-499.2100
6019.6078,-207.6453,-257.8881,220.5782,525.6844,-372.5709,-259.0225
6039.2157,-222.3135,-482.5519,186.2997,344.1971,-599.6835,-240.2184
6058.8235,-1238.0138,-1262.0199,132.5720,-438.0995,-1387.7050,-1278.2090
6078.4314,-1296.2896,-1307.5872,104.2983,-636.8596,-1420.7216,-1335.1226
6098.0392,-1215.0911,-1223.8177,89.5418,-572.8780,-1329.5486,-1263.2900
6117.6471,-920.0682,-911.3326,105.3627,-205.8892,-1038.6786,-958.0732
6137.2549,-389.9923,-388.8112,159.5922,405.1887,-531.6033,-441.2347
6156.8627,-255.8890,-292.2978,175.2910,499.8356,-428.4991,-286.9371
6176.4706,-841.1280,-1121.8950,96.5511,-257.6516,-1268.5698,-884.2795
6196.0784,-1414.8446,-1391.2516,59.3943,-614.1304,-1522.7272,-1447.9785
6215.6863,-1264.3618,-1257.0468,70.5411,-588.4767,-1355.6764,-1285.3234
6235.2941,-1124.6056,-1092.1589,74.3681,-425.0449,-1222.3019,-1167.6246
6254.9020,-822.5314,-788.0190,71.5807,-11.4006,-930.6835,-866.4554
6274.5098,-613.3380,-612.7508,49.4611,228.6197,-757.0480,-654.3563
6294.1176,-765.7834,-787.1855,56.4823,198.2450,-960.8359,-809.6357
6313.7255,-1314.2483,-1499.9304,-13.4156,-502.2188,-1613.2107,-1506.3518
6333.3333,-1529.2184,-1489.4551,-34.3610,-673.3642,-1639.1932,-1568.7827
6352.9412,-1443.8223,-1428.7408,-26.3945,-616.1237,-1537.8912,-1461.0541
6372.5490,-1148.4385,-1094.5110,-4.3627,-274.5001,-1228.2313,-1187.1724
6392.1569,-725.5306,-676.4316,33.3726,290.5529,-831.6855,-764.7841
6411.7647,-370.5862,-340.6728,101.3757,511.4048,-474.4715,-395.2981
6431.3725,-756.1912,-759.0876,74.4708,-101.9239,-911.4055,-776.6545
6450.9804,-1102.9841,-1054.7875,119.4337,-289.5077,-1140.6160,-1099.4365
6470.5882,-891.7076,-844.9247,191.4556,-361.8680,-922.0829,-908.3439
6490.1961,-598.3564,-502.0419,246.3856,-92.7942,-593.8751,-607.6594
6509.8039,-72.1403,59.1208,277.5248,296.0934,-13.8633,-80.0152
6529.4118,253.0749,324.5410,314.4798,685.8480,258.6447,262.9490
6549.0196,24.8506,88.3825,255.5840,444.2389,11.3681,33.2211
6568.6275,-353.0325,-267.5488,272.3347,-109.0898,-406.4778,-363.3293
6588.2353,-635.4684,-538.9424,288.6200,-344.3188,-615.9587,-634.2504
6607.8431,-528.6160,-402.0323,312.3363,-321.4907,-477.8758,-518.7484
6627.4510,-117.9656,19.0481,341.6721,8.8152,-24.6941,-83.9387
6647.0588,351.6434,470.4731,360.4121,502.0972,388.4391,359.9388
6666.6667,477.6249,564.4707,351.7051,684.0965,500.5464,511.2565
6686.2745,130.2457,231.1349,351.2744,407.7677,149.0495,155.5269
6705.8824,-308.7398,-229.7597,348.6052,4.3918,-300.7900,-296.0179
6725.4902,-401.2397,-280.9046,385.3204,-326.3108,-325.2416,-383.7042
6745.0980,1.8517,172.4478,459.7694,-49.9268,116.4482,39.1818
6764.7059,619.0383,769.4363,519.2961,407.0444,739.2765,649.7006
6784.3137,1301.3903,1469.0709,672.7922,1052.2814,1395.0682,1339.6642
6803.9216,1159.5240,1333.0769,684.3305,764.7256,1289.9095,1220.2513
6823.5294,914.0174,1086.3434,682.8253,548.7257,1043.7308,965.2899
6843.1373,415.9064,635.4068,639.3458,-121.5474,556.3145,485.8158
6862.7451,262.5950,461.8373,617.8715,-255.8552,443.1006,322.6773
6882.3529,523.1187,753.9012,599.2941,-40.9938,728.6519,588.2977
6901.9608,1380.4446,1542.5338,716.7803,862.6166,1489.8625,1417.1919
6921.5686,1490.5455,1635.7076,762.2527,1018.2642,1589.2397,1547.8680
6941.1765,1382.0889,1577.9586,849.8996,628.0269,1525.3347,1446.7107
6960.7843,1294.9720,1567.2341,896.2314,365.8515,1496.8013,1373.3422
6980.3922,1200.7787,1433.4753,905.9356,107.6594,1377.8699,1298.3986
7000.0000,1476.2426,1857.6425,955.2221,292.2644,1842.2451,1592.9220
7019.6078,2061.6697,2344.2573,993.9402,933.2899,2308.6138,2138.9055
7039.2157,2098.5886,2318.2751,981.2057,1061.6753,2291.5833,2175.2756
7058.8235,1796.3658,2020.7013,975.8666,849.8610,1962.1962,1879.4589
7078.4314,1632.9513,1872.6427,912.1760,206.1559,1836.8961,1717.6311
7098.0392,1135.8032,1399.2233,846.9564,-169.6038,1318.7037,1236.8905
7117.6471,584.8807,831.9243,781.1589,-363.3944,770.2715,665.1144
7137.2549,1364.5470,1549.6406,820.9639,528.9199,1514.3505,1434.4900
7156.8627,1648.2815,1841.5273,868.2326,816.9439,1786.5739,1705.5464
7176.4706,1662.3417,1827.2932,896.9966,906.4196,1736.8832,1723.0316
7196.0784,1450.5834,1629.0123,896.1650,737.3362,1568.0073,1528.0134
7215.6863,1155.9860,1379.7699,889.9753,300.1331,1280.4692,1237.4806
7235.2941,788.7777,830.2440,840.1333,-238.9922,751.3414,877.4178
7254.9020,762.5455,1104.1544,759.8645,46.4587,1051.0410,817.9708
7274.5098,1098.9985,1241.6155,729.1433,447.1095,1184.8118,1150.9803
7294.1176,1149.4293,1227.6274,686.9653,568.1887,1142.5737,1178.5133
7313.7255,894.4035,990.3026,661.1819,551.6585,900.2082,932.3935
7333.3333,587.9160,647.1984,640.9536,239.6442,552.2179,607.9724
7352.9412,147.8142,229.8343,638.2141,-295.7523,90.5801,177.9870
7372.5490,298.6491,409.6741,658.8769,-144.5453,334.7392,325.3827
7392.1569,704.2514,801.3231,664.2045,249.5117,711.1391,717.5851
7411.7647,870.1818,937.0853,621.8141,515.7623,827.1038,881.6857
7431.3725,693.7335,747.7365,568.1657,509.7999,644.6086,697.1388
7450.9804,398.6414,422.3831,494.8222,320.4040,309.5690,399.2144
7470.5882,-275.8514,-270.5611,444.1903,-182.3668,-421.6001,-284.1339
7490.1961,-701.8738,-686.2560,356.7643,-648.9529,-809.9495,-724.4639
7509.8039,-616.2822,-430.7408,327.2534,-356.0363,-551.0366,-611.6121
7529.4118,-252.2481,-31.7988,309.6812,185.4380,-160.6612,-32.0717
7549.0196,-38.7830,-49.9877,308.1628,174.4287,-179.4397,-57.6903
7568.6275,80.0714,59.3725,336.6966,480.8578,-53.1885,70.0639
7588.2353,-334.1668,-379.3023,316.2632,176.9567,-525.7911,-364.0012
7607.8431,-1063.3221,-1091.3241,219.7039,-656.5667,-1222.0039,-1103.6665
7627.4510,-1121.5022,-1121.7406,184.2681,-570.4150,-1216.9171,-1123.4001
7647.0588,-824.0579,-725.2169,164.6955,-177.1445,-849.6357,-753.3527
7666.6667,-405.9417,-460.8901,166.3844,267.9501,-578.2416,-440.4433
7686.2745,-296.7148,-349.8813,179.6011,364.0282,-493.2958,-340.0792
7705.8824,-392.0375,-445.8925,201.3928,350.6890,-584.2208,-411.5472
7725.4902,-1003.5494,-1028.6116,220.4922,-444.2872,-1144.2336,-1037.9817
7745.0980,-1055.3245,-1057.0370,218.4831,-505.3103,-1142.5067,-1067.5286
7764.7059,-858.2143,-854.6448,228.5089,-223.1460,-934.1996,-893.1021
7784.3137,-115.4864,-91.0168,283.5081,385.0723,-206.4277,-152.6289
7803.9216,18.7250,-4.5184,297.4612,544.8941,-100.1179,-2.9188
7823.5294,36.3172,45.8198,278.6202,558.0023,-53.5218,17.2808
7843.1373,-1152.0909,-1144.6168,153.3991,-569.6729,-1230.2312,-1184.1329
7862.7451,-944.7284,-919.0375,95.5422,-278.0620,-1009.4607,-959.4931
7882.3529,-755.0082,-607.7990,74.3200,196.3681,-733.2756,-796.2239
7901.9608,-605.5844,-622.8783,46.5982,189.4435,-765.5971,-650.4144
7921.5686,-856.2945,-909.8170,14.2004,82.6070,-1062.4208,-893.4984
7941.1765,-1447.6417,-1503.0229,-48.2063,-273.5633,-1643.3914,-1474.3578
7960.7843,-1782.2814,-1828.1075,-88.6314,-739.1450,-1934.6483,-1819.7690
7980.3922,-1547.4905,-1543.5837,-66.0647,-601.5342,-1641.1803,-1574.1344
8000.0000,-1063.4924,-1100.2084,9.1404,-141.9950,-1217.9009,-1117.7349
8019.6078,-563.3519,-587.4162,75.7460,375.2973,-695.0333,-608.9624
8039.2157,-546.7083,-565.6615,44.0124,350.7530,-677.1076,-589.1298
8058.8235,-1019.2715,-1067.0675,-22.9168,38.0504,-1227.8051,-1041.5215
8078.4314,-1885.9828,-1927.0264,-165.9499,-858.1262,-2058.5103,-1929.6273
8098.0392,-1943.0933,-1952.9825,-187.9202,-821.5366,-2065.4243,-1991.3452
8117.6471,-1534.3297,-1556.5083,-128.0735,-501.0598,-1656.9703,-1575.8713
8137.2549,-1002.4521,-986.4277,-32.7863,237.2814,-1077.8103,-1029.8987
8156.8627,-700.6660,-725.8550,-31.0455,298.7092,-838.2250,-749.1959
8176.4706,-980.0731,-992.9259,-79.7629,176.4004,-1122.4767,-992.5707
8196.0784,-1839.9869,-1871.2749,-188.0982,-776.2924,-1992.8799,-1876.8009
8215.6863,-2020.7910,-2036.4292,-217.6868,-813.3268,-2142.9692,-2044.9136
8235.2941,-1797.5140,-1789.7861,-204.1353,-722.5073,-1888.2025,-1843.0308
8254.9020,-1454.1489,-1451.9709,-121.5507,-23.0347,-1537.3242,-1474.3152
8274.5098,-957.7759,-723.0152,-48.2526,349.2005,-811.6204,-767.6498
8294.1176,-562.6581,-541.1180,-11.5316,462.0870,-639.4623,-585.7791
8313.7255,-1178.4794,-1158.8390,-29.3460,-89.9233,-1236.3685,-1183.1992
8333.3333,-1306.9513,-1272.5638,-42.3771,-491.5793,-1314.0653,-1286.2137
8352.9412,-1389.0525,-1342.5271,-51.3728,-553.0527,-1396.9824,-1390.7946
8372.5490,-1191.4191,-1112.7578,-85.3224,-431.2255,-1172.1084,-1196.6219
8392.1569,-958.5550,-921.1015,-89.3876,165.4149,-998.7071,-982.3525
8411.7647,-682.7256,-651.1091,-86.2894,247.0140,-716.2665,-672.6884
8431.3725,-1159.2765,-1396.8322,-177.5883,-157.7104,-1523.5342,-1387.1443
8450.9804,-1860.1671,-1845.4336,-261.2769,-828.5705,-1926.8607,-1879.2399
8470.5882,-2175.9448,-2188.5005,-330.6050,-971.1229,-2268.3357,-2185.8989
8490.1961,-2198.3459,-2160.8083,-363.2216,-1015.2529,-2213.9973,-2194.4229
8509.8039,-1988.6212,-1998.2054,-336.6353,-720.4425,-2087.1721,-2017.4404
8529.4118,-2054.5430,-2038.1106,-385.1219,-408.7750,-2147.1245,-2077.8447
8549.0196,-3171.7246,-3168.3389,-521.7882,-585.9637,-3460.1260,-3227.4272
8568.6275,-3325.0317,-3287.5730,-557.1516,-1148.5432,-3542.5127,-3369.2910
8588.2353,-3115.5186,-3172.1118,-550.8230,-1277.5203,-3326.1348,-3162.0581
8607.8431,-2991.2051,-3011.5669,-547.9700,-1364.0321,-3090.6455,-3016.3347
8627.4510,-2672.1826,-2708.7378,-500.8313,-1068.7886,-2791.6780,-2699.7183
8647.0588,-2293.1609,-2283.5383,-436.9244,-567.6135,-2370.5107,-2325.6177
8666.6667,-1263.8682,-1231.5503,-282.9391,198.6285,-1307.6627,-1275.4181
8686.2745,-1757.2629,-1721.5601,-329.9281,-125.1177,-1810.6149,-1739.6863
8705.8824,-2077.6541,-2057.3374,-392.9420,-782.7711,-2136.6050,-2079.2961
8725.4902,-2358.7139,-2338.0251,-447.8949,-968.5233,-2419.6516,-2370.9031
8745.0980,-2224.5718,-2164.3020,-444.9698,-913.2946,-2241.6443,-2244.2324
8764.7059,-1945.6714,-1884.8511,-404.8306,-623.9028,-1951.6481,-1947.1180
8784.3137,-1249.2008,-1143.0485,-322.9612,222.0923,-1195.3353,-1234.6511
8803.9216,-1283.7655,-1415.1609,-365.8003,-3.5684,-1501.7416,-1479.3086
8823.5294,-1900.3267,-2079.9768,-455.0514,-599.4067,-2149.4487,-1864.7588
8843.1373,-2373.0166,-2315.3525,-503.7752,-1039.9419,-2410.9175,-2368.5083
8862.7451,-2588.1428,-2545.9351,-550.0729,-1159.0127,-2618.3540,-2591.5278
8882.3529,-2570.0625,-2486.4131,-572.7584,-1155.5060,-2550.8901,-2548.9600
8901.9608,-2353.0317,-2225.6313,-550.0981,-516.3994,-2374.4417,-2354.3044
8921.5686,-2325.2249,-2111.5337,-552.7209,-220.9371,-2378.8032,-2297.1521
8941.1765,-2613.0557,-2515.7705,-577.1594,-462.8560,-2685.4170,-2584.2129
8960.7843,-2583.4888,-2445.7114,-594.6855,-997.5480,-2584.9277,-2565.3276
8980.3922,-2564.8550,-2498.5852,-592.1263,-1022.4935,-2605.4392,-2561.9861
9000.0000,-2338.6523,-2218.0273,-553.6025,-939.9717,-2296.9766,-2329.5974
9019.6078,-1288.4547,-1150.2606,-377.1886,21.8064,-1227.2684,-1272.5724
9039.2157,-592.7416,-376.0000,-278.5970,560.3561,-440.9530,-559.6167
9058.8235,-328.1758,-222.0762,-204.2150,620.3369,-264.9343,-291.2436
9078.4314,-326.8987,-183.2278,-74.5422,490.7544,-238.1329,-279.1635
9098.0392,-449.9705,-264.6049,25.6802,205.0241,-283.8079,-393.8429
9117.6471,-163.1459,80.2657,154.2892,135.3794,65.6116,-115.3318
9137.2549,948.3182,1290.6649,408.8405,705.6852,1340.2867,1050.7003
9156.8627,1606.5750,1968.2725,524.2938,1223.9829,1963.7987,1719.2289
9176.4706,1879.7710,2233.8230,600.8034,1354.2307,2259.5676,2009.1312
9196.0784,1955.2314,2291.0449,677.3907,1083.2888,2308.4304,2078.8364
9215.6863,1874.8998,2348.2192,682.8234,817.6898,2370.7312,2033.5446
9235.2941,1826.9698,2485.6746,694.2343,390.6387,2469.1892,2050.4612
9254.9020,2678.3777,3964.9521,819.8255,735.2825,3956.1455,3105.9995
9274.5098,2944.8645,3738.4670,900.3558,1245.0750,3844.1697,3132.1526
9294.1176,3184.7832,3987.3154,965.9394,1553.1093,4082.4277,3416.4556
9313.7255,3215.3857,3722.9070,979.3361,1448.3967,3816.7761,3396.5593
9333.3333,3046.1460,3580.7261,924.8952,1038.6716,3702.7449,3235.8989
9352.9412,2868.0193,3875.6499,893.2515,722.8522,3991.6089,3208.1553
9372.5490,3687.6589,4753.2222,964.0682,563.2618,4870.2676,4043.7048
9392.1569,3287.4709,4206.2158,955.2009,795.2134,4272.2285,3637.5276
9411.7647,3114.0295,3913.7148,973.9675,1197.0149,3982.3945,3364.0120
9431.3725,2928.9939,3356.4807,951.1155,1206.3878,3382.6011,3089.8313
9450.9804,2757.4243,3163.1013,938.0142,1106.5913,3150.6899,2918.6396
9470.5882,2544.3794,2986.7778,888.0259,672.5103,2982.2429,2701.1736
9490.1961,1757.9573,2315.6099,787.0480,-17.5000,2200.3169,1944.1855
9509.8039,1905.7654,2445.1162,792.0730,129.8275,2417.7483,2088.3806
9529.4118,2382.7236,2801.3943,875.2332,658.2475,2723.6311,2521.1167
9549.0196,2577.0308,2944.3442,935.9926,1116.9030,2935.0901,2685.5525
9568.6275,2664.3191,3006.8826,969.2328,1120.1725,2960.1780,2794.6826
9588.2353,2406.1289,2600.5566,916.7834,736.1595,2552.2227,2537.8096
9607.8431,1961.9227,2570.6050,905.2047,133.7968,2468.7800,2123.3562
9627.4510,2481.2761,3410.5962,969.7309,355.1874,3233.5046,2829.7263
9647.0588,3264.7637,3881.4644,1065.4023,778.8511,3765.6079,3476.5508
9666.6667,3194.6650,3931.8560,1112.7625,1258.2244,3806.9590,3455.8340
9686.2745,3257.6514,3681.4724,1157.4885,1453.9753,3584.4316,3372.4824
9705.8824,3232.8787,3572.0027,1146.6036,1419.4219,3538.2395,3362.1086
9725.4902,2989.2427,3617.1987,1070.4701,452.7326,3497.0439,3249.2419
9745.0980,2513.9917,3228.7698,1026.5670,110.1528,3042.2639,2797.9543
9764.7059,2147.8777,2573.0884,971.5059,195.6434,2450.6721,2258.1863
9784.3137,2290.9478,2616.9646,961.4984,397.1264,2518.3569,2386.9402
9803.9216,2052.8313,2300.2046,923.6147,691.8205,2191.5591,2120.0117
9823.5294,2033.1364,2218.8735,885.3821,750.1985,2132.4407,2084.8430
9843.1373,1566.6936,1762.0542,852.7379,272.8341,1633.4170,1636.8678
9862.7451,1210.9260,1307.5280,839.2977,-231.7170,1154.2777,1270.5259
9882.3529,1013.4884,1284.1165,822.7950,-136.9763,1157.0699,1072.0950
9901.9608,1350.1975,1553.6927,836.2346,45.9859,1451.4470,1413.6608
9921.5686,1645.7511,1780.4833,848.8666,482.0168,1703.5126,1679.2937
9941.1765,1699.2834,1839.7670,828.1096,725.9851,1762.5760,1766.8317
9960.7843,1334.7866,1409.5012,781.8746,466.2168,1286.5006,1379.2684
9980.3922,970.1064,1083.4639,766.0501,-26.0488,945.5278,1010.4214
10000.0000,602.7344,620.5559,738.0474,-335.4091,532.3281,631.3742
10019.6078,454.2983,693.1667,706.9846,-302.1711,573.4312,600.3171
10039.2157,824.8828,935.0252,655.0659,-22.2290,830.4722,839.8427
10058.8235,994.1331,1034.0577,602.9449,330.4447,931.5043,1005.2014
10078.4314,572.7923,562.1624,464.0749,253.6898,442.5908,590.8998
10098.0392,138.8885,106.4062,439.7476,-19.7748,-42.7558,110.7484
10117.6471,-313.0540,-343.3972,389.1281,-600.8914,-489.1352,-330.8759
10137.2549,-472.9089,-420.5983,384.7054,-569.9639,-536.9887,-481.2539
10156.8627,-366.8571,-157.2677,404.1256,-324.6529,-274.8125,-171.6600
10176.4706,219.6929,216.8742,382.7081,67.7904,79.7614,175.4349
10196.0784,281.1595,233.0346,335.1761,381.4230,75.1656,244.3766
10215.6863,-28.2002,-112.2958,288.5509,195.6291,-253.3737,-50.6502
10235.2941,-717.6327,-800.6026,204.2193,-408.2444,-960.6030,-760.3069
10254.9020,-1007.4754,-1068.5980,142.5629,-724.4352,-1200.7639,-1054.9664
10274.5098,-1135.3385,-1208.1232,116.2963,-668.9754,-1325.0770,-1180.9420
10294.1176,-690.6656,-759.0455,134.4556,-313.7768,-889.9375,-735.0889
10313.7255,-199.3214,-314.5612,129.3335,336.1252,-455.8547,-246.6372
10333.3333,-442.8917,-556.6354,96.4619,231.8351,-724.4852,-520.4601
10352.9412,-911.2169,-1048.2842,33.3103,-120.4679,-1217.6936,-972.4748
10372.5490,-1236.9825,-1358.1273,97.4674,-511.2085,-1500.7616,-1303.6904
10392.1569,-1093.8904,-1109.9041,157.4730,-439.2417,-1244.1276,-1143.2416
10411.7647,-868.1307,-742.3007,182.4175,-263.5784,-821.9772,-760.9707
10431.3725,80.1716,-0.6326,220.3838,540.8547,-110.8066,33.9383
10450.9804,233.6050,161.1032,267.3842,687.1371,61.4990,182.5007
10470.5882,-1.9667,-73.0444,284.4732,504.9882,-184.4533,-33.7565
10490.1961,-433.4254,-491.2903,277.3643,45.7071,-590.7578,-475.4841
10509.8039,-705.4249,-752.7194,248.4880,-415.5643,-844.2118,-750.3441
10529.4118,-717.5994,-732.6115,252.2709,-458.2559,-805.1628,-745.8135
10549.0196,72.5052,245.5211,333.4949,422.5266,168.9546,52.7354
10568.6275,483.2612,462.0103,352.3574,685.5059,389.4896,451.9500
10588.2353,333.6065,291.9471,336.4942,599.7974,209.2985,309.0498
10607.8431,-110.8226,-154.2268,276.3301,224.0517,-272.7554,-150.2999
10627.4510,-594.0020,-635.3916,244.4794,-272.7918,-746.9933,-629.6794
10647.0588,-767.9827,-780.7545,203.3002,-546.8456,-856.1387,-789.3097
10666.6667,-821.9293,-744.0776,41.4606,-284.5820,-857.8171,-866.4296
10686.2745,-577.1085,-618.1558,-19.5593,14.7712,-746.3091,-629.5735
10705.8824,-551.8862,-659.5990,-28.4683,177.2467,-805.3124,-602.3141
10725.4902,-926.4185,-1025.5665,-71.5164,-24.4216,-1218.8300,-1001.9778
10745.0980,-1282.7393,-1401.1879,-88.3867,-337.3607,-1577.0366,-1360.1014
10764.7059,-1526.3376,-1614.9293,-106.4336,-637.5232,-1739.2600,-1591.1517
10784.3137,-1161.5225,-1223.8860,-21.4898,-415.0479,-1324.7332,-1202.9082
10803.9216,-601.3613,-387.0764,91.3833,354.2365,-719.4261,-666.1210
10823.5294,52.3111,6.3526,131.4410,612.9903,-101.1338,4.1736
10843.1373,-63.3825,-114.5729,119.5092,571.0011,-219.6273,-118.0535
10862.7451,-488.2825,-560.1573,82.4012,226.8647,-666.8511,-515.5056
10882.3529,-995.5775,-1062.8945,26.5045,-300.9012,-1172.9088,-1049.1663
10901.9608,-1065.4426,-1078.9032,48.2887,-549.6443,-1138.6722,-1076.4980
10921.5686,-748.5461,-754.1500,81.6832,-34.7854,-837.1258,-810.2834
10941.1765,-295.2401,-147.3449,80.1976,428.1605,-212.3821,-320.3392
10960.7843,84.1927,50.3281,119.6728,607.6887,-40.5319,49.3001
10980.3922,-70.2439,-89.2455,128.2192,527.3766,-185.0762,-101.2116
11000.0000,-461.6280,-495.7714,125.7117,155.7491,-565.9274,-472.5650
11019.6078,-854.2118,-840.1198,112.0174,-473.4419,-898.8185,-866.2938
11039.2157,-711.6585,-700.8312,122.7972,-409.3257,-755.1769,-738.5339
11058.8235,-472.1190,-425.6790,101.0330,-118.1996,-465.3874,-473.2154
11078.4314,-41.5825,24.5980,92.8535,474.4828,-25.3121,21.1399
11098.0392,-1.4125,-9.5637,92.8916,525.4247,-92.2407,-19.0472
11117.6471,-260.5957,-276.1963,95.0482,312.5663,-360.6277,-280.7262
11137.2549,-772.1375,-732.2034,137.7812,-324.3161,-807.8867,-787.0756
11156.8627,-639.5943,-613.5880,187.1678,-380.2950,-639.8546,-644.7183
11176.4706,-376.0290,-16.8128,239.7403,82.6480,-73.3954,-385.7323
11196.0784,258.2901,310.9704,267.1878,369.2467,256.5184,242.2235
11215.6863,580.8255,627.0661,308.6551,778.7955,584.7654,591.0701
11235.2941,602.3370,646.0306,348.2303,763.3010,590.3591,597.0343
11254.9020,51.7820,149.2755,409.6825,66.6295,71.9683,66.8878
11274.5098,-90.2722,-14.8232,411.3727,-209.3397,-39.6850,-92.4565
11294.1176,-101.0286,7.4264,388.5267,-297.0326,-18.4883,-66.8149
11313.7255,192.4074,314.7844,351.5700,178.3614,292.9022,215.3081
11333.3333,587.6470,695.4706,341.3579,566.5651,631.2847,603.8455
11352.9412,528.3345,599.6309,300.5813,526.6021,520.6360,519.1104
11372.5490,-471.1872,-424.1831,155.2904,-218.3945,-537.3372,-482.9933
11392.1569,-650.2640,-582.1963,193.7501,-460.1927,-671.2180,-660.3911
11411.7647,-604.2139,-529.1186,228.2523,-461.2761,-607.9691,-595.8173
11431.3725,-312.1723,-227.2276,253.7622,-89.0752,-318.5408,-336.4355
11450.9804,127.5637,262.8246,267.1230,323.4484,185.9463,148.6523
11470.5882,344.3644,482.3938,278.9501,561.5975,404.9254,339.2441
11490.1961,65.4619,128.7693,281.9537,326.2765,13.2317,72.8037
11509.8039,-379.3244,-298.4077,256.0619,-223.8992,-408.9867,-393.3443
11529.4118,-638.0233,-543.7123,216.8882,-522.4866,-649.2300,-635.0248
11549.0196,-724.2440,-638.5845,144.1552,-624.9045,-735.1859,-737.1830
11568.6275,-612.1346,-515.7478,75.7814,-419.7712,-623.2117,-625.1999
11588.2353,-312.1942,-198.5711,34.1740,161.9334,-344.3148,-323.2020
11607.8431,-334.1213,-662.7696,-53.2419,10.8167,-813.0711,-339.0864
11627.4510,-1260.3872,-1258.7491,-143.4882,-468.8188,-1435.5870,-1290.3722
11647.0588,-1779.2714,-1775.7469,-229.3203,-910.0826,-1921.9003,-1805.2227
11666.6667,-1872.6008,-1866.9275,-282.4684,-1011.5664,-2013.0565,-1910.3932
11686.2745,-1913.3381,-1917.7659,-312.4863,-924.1967,-2068.7781,-1960.2985
11705.8824,-1815.6063,-1844.1232,-309.4132,-460.4855,-2018.3297,-1856.5498
11725.4902,-1842.2590,-1887.8324,-346.4918,-204.4080,-2185.3987,-1932.3802
11745.0980,-2276.9172,-2350.1279,-375.3339,-533.3144,-2639.7212,-2366.6814
11764.7059,-2512.1582,-2576.6948,-419.6212,-917.3950,-2777.1162,-2577.2957
11784.3137,-2649.8296,-2728.0889,-466.1969,-1265.0430,-2875.9243,-2698.3630
11803.9216,-2502.0903,-2551.6274,-462.7257,-1101.6782,-2701.9575,-2574.2866
11823.5294,-2433.0042,-2499.0769,-454.1461,-947.0383,-2642.1152,-2494.6218
11843.1373,-1716.9216,-1741.6256,-342.8651,-30.7044,-1937.4707,-1807.2012
11862.7451,-1397.8517,-1485.1899,-280.0229,82.9260,-1640.2704,-1448.3906
11882.3529,-1524.6735,-1788.3752,-305.8754,-285.7470,-1945.9854,-1789.1465
11901.9608,-2012.8040,-2046.0072,-344.9079,-729.6334,-2168.4116,-2060.4177
11921.5686,-2081.6472,-2075.3276,-386.0183,-911.0903,-2186.9204,-2127.1287
11941.1765,-2006.9323,-2007.2291,-409.7959,-832.3407,-2109.6995,-2046.3661
11960.7843,-1995.4510,-2010.2826,-428.0682,-308.1189,-2132.5703,-2036.0266
11980.3922,-1958.2964,-1960.3458,-485.7551,-264.3525,-2160.0469,-2042.5283
12000.0000,-2603.4490,-2833.4978,-545.1176,-623.5775,-3179.5984,-2946.3711
12019.6078,-3134.3535,-3118.3901,-605.6259,-1036.0800,-3407.3450,-3211.5405
12039.2157,-2915.2705,-2987.5015,-616.1255,-1372.5066,-3106.3179,-2978.1140
12058.8235,-2933.5732,-2970.2710,-626.6351,-1298.9739,-3110.6267,-2982.8291
12078.4314,-2697.0457,-2758.4197,-577.2087,-731.7749,-2886.8665,-2748.0576
12098.0392,-2796.8174,-2777.4731,-573.5635,-418.0002,-3052.0315,-2908.0129
12117.6471,-2987.0908,-2965.5703,-598.3404,-323.7892,-3276.8970,-3082.1399
12137.2549,-2877.1372,-2846.5195,-597.5539,-668.8494,-3101.3101,-2957.1162
12156.8627,-2791.6982,-2825.2527,-616.2952,-1080.0414,-2942.2588,-2848.8218
12176.4706,-2792.3052,-2815.6206,-636.4804,-1227.4905,-2916.7209,-2824.9211
12196.0784,-2356.3420,-2356.0278,-576.4430,-747.0577,-2457.8093,-2403.6514
12215.6863,-2192.4756,-2172.7583,-537.3996,-328.3748,-2270.8596,-2237.2771
12235.2941,-1849.0338,-1777.0221,-513.4385,-93.1372,-1867.5715,-1900.3444
12254.9020,-1898.7053,-1988.8036,-536.3107,-236.2233,-2118.2883,-1931.3934
12274.5098,-2157.4697,-2104.5142,-534.3621,-501.1453,-2205.0154,-2160.0212
12294.1176,-1956.0901,-1930.7178,-474.2722,-682.1995,-1983.4888,-1962.4196
12313.7255,-1539.1498,-1460.3490,-419.3642,-449.3015,-1504.4780,-1546.6752
12333.3333,-1125.2677,-1016.0141,-369.2515,-41.0130,-1063.8230,-1137.6326
12352.9412,-635.9607,-532.3151,-307.5248,383.3915,-569.2502,-620.4799
12372.5490,-447.8188,-337.1892,-282.3208,429.6268,-381.2885,-428.8278
12392.1569,-539.5530,-780.0825,-310.5359,123.2475,-808.8563,-515.2773
12411.7647,-1144.1167,-1226.4930,-352.2293,-364.9243,-1276.8767,-1296.2008
12431.3725,-1068.1957,-955.0256,-263.4961,-422.6531,-957.4201,-1030.0181
12450.9804,-624.5636,-436.5599,-182.2644,-37.9584,-460.1889,-602.4865
12470.5882,27.8872,163.0226,-110.5785,502.2131,154.5943,80.9222
12490.1961,190.8207,341.9203,-76.2339,692.7280,330.1045,230.8061
12509.8039,312.3736,443.0402,-53.5146,658.2119,435.2085,368.2023
12529.4118,137.4761,23.6272,-20.2256,308.8264,-5.0602,173.6292
12549.0196,-397.9717,-214.3195,24.3303,-321.5710,-209.3640,-340.3698
12568.6275,-175.7878,21.3592,33.5254,-209.8677,32.2469,-141.4744
12588.2353,302.0004,539.2734,46.4311,172.0999,553.8820,366.7389
12607.8431,672.4868,853.3652,97.5615,642.7300,874.8118,736.9246
12627.4510,761.4961,948.6449,110.3725,719.1747,936.1285,829.0599
12647.0588,684.9910,610.8643,73.4449,430.6642,586.3213,744.4357
12666.6667,-167.0473,47.8205,101.4479,-258.6865,46.4264,-110.5757
12686.2745,-37.1761,167.6625,162.4385,-255.1401,194.6399,25.9252
12705.8824,466.1205,752.8729,211.4186,58.3294,769.8550,559.5392
12725.4902,975.1672,1224.3953,271.4424,597.5246,1228.5247,1050.7570
12745.0980,1333.7583,1566.4713,320.5058,868.2886,1589.5388,1413.0695
12764.7059,1291.6893,1498.3005,327.2650,865.5994,1498.1094,1380.4678
12784.3137,732.2590,741.6852,279.6284,-56.3738,722.8251,587.4274
12803.9216,189.3185,435.8575,265.2285,-329.3816,430.4737,272.9279
12823.5294,428.8432,733.1942,323.6140,-183.2583,737.5457,523.0847
12843.1373,1169.8585,1430.6184,396.1745,350.3394,1452.0579,1260.5143
12862.7451,1739.3311,2053.4253,522.7800,935.8096,2054.1479,1842.5714
12882.3529,2213.3721,2477.3279,658.2609,1272.2170,2507.7905,2320.3989
12901.9608,2665.9741,3112.9287,839.8153,1162.0193,3144.7129,2822.1160
12921.5686,2895.0520,3669.3435,937.2390,880.9828,3758.4729,3091.1091
12941.1765,4074.7615,5235.5913,1032.8784,876.2206,5357.3511,4645.9033
12960.7843,4824.8760,6031.2017,1116.1145,1236.8743,6158.3750,5003.7432
12980.3922,5028.1528,5688.8770,1151.9880,1616.4697,5795.7085,5203.1685
13000.0000,4605.3765,5262.6333,1145.0150,1813.6243,5352.6665,4830.2109
13019.6078,3996.6230,4754.2720,1094.9930,1483.6552,4857.2510,4261.6455
13039.2157,4303.6812,5075.2646,1086.9836,1001.2942,5162.2749,4567.7798
13058.8235,4684.1021,5671.5234,1117.1877,690.7371,5759.7603,4926.2412
13078.4314,5264.4321,5945.1367,1151.8916,800.0516,6023.0513,5431.3784
13098.0392,5339.6343,6020.0688,1216.1613,1356.1315,6089.2324,5499.7690
13117.6471,5182.0078,5739.6855,1257.8710,1701.0656,5790.7236,5340.0449
13137.2549,4623.0107,5223.2808,1260.3130,1803.2921,5263.6636,4816.0430
13156.8627,4490.6626,5157.4429,1219.7042,1375.5691,5192.1304,4711.6348
13176.4706,4569.5435,5232.8335,1187.3545,980.7072,5252.8872,4786.5698
13196.0784,4850.3545,5619.0996,1202.7439,556.4003,5630.0786,5039.1245
13215.6863,4617.9014,5306.1548,1187.4402,664.7748,5286.4082,4798.1606
13235.2941,3766.7576,4374.7329,1136.6337,911.2291,4340.3291,3940.6780
13254.9020,2588.9995,2769.2107,1000.5032,938.0616,2739.4456,2657.0437
13274.5098,2297.0046,2516.0718,943.5573,652.7799,2459.9675,2402.9841
13294.1176,1974.4379,2223.2996,887.6661,293.2821,2144.5356,2063.4385
13313.7255,1519.6438,1373.7372,779.3094,-372.3908,1651.5088,1632.5192
13333.3333,1015.5530,1051.6741,707.6072,-452.1403,957.9593,1070.8915
13352.9412,1197.2539,1373.4200,703.3453,-167.4523,1266.1373,1237.1749
13372.5490,1646.0856,1743.9612,693.8077,588.0115,1649.0967,1695.2561
13392.1569,1415.0277,1478.0105,667.2678,576.9744,1367.7931,1435.6276
13411.7647,1240.3232,1318.2744,682.8585,450.1940,1212.4022,1274.7086
13431.3725,1016.7742,1096.7683,709.1618,91.5385,976.6849,1059.4423
13450.9804,802.5908,889.6057,747.0322,-269.2120,744.7087,827.9017
13470.5882,854.4462,1122.4796,770.0247,-105.4379,1019.3881,1003.1613
13490.1961,1685.0140,1786.9667,774.0002,688.9129,1725.0159,1721.3838
13509.8039,1669.1456,1732.2828,770.9909,753.1000,1640.2805,1697.8813
13529.4118,1423.1345,1457.1748,740.1802,649.2603,1363.0559,1444.5918
13549.0196,1003.0474,1060.0981,682.9337,217.6797,955.1037,1038.4313
13568.6275,392.3852,397.3508,597.1696,-421.3376,252.2369,397.0267
13588.2353,-19.1424,-139.0768,444.7570,-719.3776,-257.0734,-17.6999
13607.8431,161.5131,346.6393,347.1953,-87.9496,233.3790,354.2348
13627.4510,541.4141,493.5172,365.6569,350.0305,358.7558,528.7325
13647.0588,587.6476,542.7499,382.3757,461.1208,415.6140,559.4590
13666.6667,465.3475,421.3382,440.5735,444.7545,289.6650,429.7188
13686.2745,172.9329,97.9297,475.3708,97.3029,-73.1820,122.6986
13705.8824,-76.5482,-55.8339,504.5745,-311.3020,-184.2310,-118.4641
13725.4902,505.9922,526.3635,664.5441,59.6455,421.6805,470.8129
13745.0980,1194.2491,1444.0011,766.5078,815.1992,1345.4629,1391.3093
13764.7059,1822.0464,1852.5800,854.6142,1147.9855,1742.9446,1798.1862
13784.3137,1802.1693,1836.6989,923.4288,1111.9452,1730.4694,1788.0460
13803.9216,1660.3094,1731.5454,939.6725,788.2996,1640.8308,1676.3153
13823.5294,1390.2487,1476.6125,919.4821,265.5342,1341.5248,1391.9824
13843.1373,965.3133,1048.8689,820.6858,-71.2157,967.7878,976.4686
13862.7451,1121.1515,1359.4403,808.2847,360.2655,1282.4998,1127.8619
13882.3529,1472.0850,1667.8965,789.8123,740.8401,1576.8387,1605.4694
13901.9608,1496.1649,1517.3781,802.2495,747.8712,1402.4709,1485.7462
13921.5686,1362.1066,1383.0006,804.8082,687.2706,1295.6333,1365.6205
13941.1765,1025.2181,1064.5028,804.3277,258.9638,928.6774,1005.7413
13960.7843,596.1261,648.9912,782.8805,-197.3687,564.6606,586.6573
13980.3922,836.2084,887.1572,830.2550,185.4493,788.6467,815.6240
14000.0000,1416.1755,1604.0187,868.9716,687.7053,1507.5748,1393.7012
14019.6078,1692.1725,1730.2255,860.0241,824.4579,1609.8262,1675.4921
14039.2157,1461.0735,1473.2113,830.0212,762.9104,1364.3306,1440.8253
14058.8235,1186.2816,1200.1642,819.0480,504.0382,1099.7097,1181.4144
14078.4314,555.0046,601.1757,820.0563,-215.7408,512.1693,558.8232
14098.0392,707.3612,733.0721,830.0712,-111.8389,640.9267,684.2281
14117.6471,984.9012,1052.2390,839.0562,87.2482,959.2961,967.9109
14137.2549,1430.3040,1593.0029,863.9332,724.7207,1479.2360,1515.5002
14156.8627,1665.7205,1660.1360,894.0591,913.5654,1543.1738,1640.8979
14176.4706,1421.5787,1431.8969,896.9187,733.2778,1314.2560,1397.3738
14196.0784,742.6702,725.1735,848.0876,-146.0049,557.7781,710.7633
14215.6863,527.5551,567.0082,830.8763,-251.6568,490.4464,514.4548
14235.2941,710.4477,732.1652,832.1296,-118.7711,623.7598,683.8014
14254.9020,1160.7008,1546.0284,917.9343,715.0372,1436.6061,1121.4386
14274.5098,1756.4141,2053.2969,1054.1245,1104.2346,1960.6912,1730.6907
14294.1176,2179.9971,2222.1714,1160.9379,1214.9119,2089.8210,2155.7610
14313.7255,2051.4072,2152.1382,1190.2148,688.1913,2052.3447,2062.5984
14333.3333,1874.9709,1965.1672,1163.9076,199.6069,1797.1483,1848.7942
14352.9412,1568.1534,1674.1997,1146.1699,154.5905,1578.1588,1578.5103
14372.5490,1952.2496,2083.2617,1151.9495,534.5289,1953.2231,1943.7616
14392.1569,2011.2271,2147.2446,1139.1738,783.7133,2062.0720,1998.6791
14411.7647,1984.3263,2028.3663,1085.9299,830.4160,1924.6356,1970.8286
14431.3725,1075.8312,1084.0101,894.2191,200.9161,961.7120,1076.3685
14450.9804,313.2044,259.1925,784.7878,-513.8516,100.4562,272.7248
14470.5882,112.7930,26.8296,698.2366,-599.7082,-95.3651,-4.5608
14490.1961,-8.4661,-62.5994,643.7679,-591.8310,-188.0499,-59.6904
14509.8039,209.7121,467.8971,626.2410,74.1838,345.3418,166.2266
14529.4118,632.5366,541.4045,664.8331,480.7584,430.1298,584.2197
14549.0196,859.4743,792.8920,804.3102,677.2046,670.1761,819.0553
14568.6275,674.7742,589.4426,855.8896,343.6790,405.2029,601.1553
14588.2353,317.3723,294.8452,875.2612,-110.2605,195.9478,270.9907
14607.8431,361.8994,345.3622,866.7962,-159.2003,223.5238,299.2265
14627.4510,616.4406,601.8478,877.1974,9.6587,474.7643,550.9624
14647.0588,1030.9330,1044.6055,886.8152,594.5029,942.6385,982.5495
14666.6667,1087.0869,1042.4642,862.2250,699.5425,926.5005,1032.5176
14686.2745,723.0261,670.5163,812.8772,341.3372,538.6647,682.4905
14705.8824,150.9820,50.4042,764.2461,-192.9573,-98.5411,75.4315
14725.4902,-24.7220,-44.1368,742.8224,-399.5509,-161.7444,-65.1555
14745.0980,27.0017,-22.4134,732.1141,-312.8728,-129.7059,-18.5592
14764.7059,269.1818,257.7524,733.8668,190.0804,148.1353,206.8327
14784.3137,814.8834,746.4823,747.2020,604.9380,615.8759,753.1904
14803.9216,628.2791,566.7303,735.8195,531.0492,445.2351,583.7461
14823.5294,307.7662,210.3250,732.1121,217.0807,49.7417,232.0921
14843.1373,-235.4589,-272.0661,689.8430,-404.9762,-392.4319,-285.7238
14862.7451,-444.8785,-510.3337,596.1837,-584.5800,-661.1801,-516.6855
14882.3529,-496.4943,-553.9645,494.9429,-577.8773,-689.2323,-569.5487
14901.9608,-58.0035,-158.3129,398.1108,131.3743,-328.1777,-162.6697
14921.5686,-130.4843,-269.9807,355.8925,256.7991,-458.0047,-236.4801
14941.1765,-321.1512,-601.4960,389.1343,171.2895,-804.3557,-513.0027
14960.7843,-695.3338,-801.8392,458.9829,-96.1499,-940.9647,-766.4645
14980.3922,-506.1082,-607.3808,576.1418,-190.2973,-770.4756,-606.8826
15000.0000,-318.2892,-374.7128,652.0018,-123.1014,-473.7948,-393.1180
15019.6078,727.8356,694.5322,752.0958,632.7238,590.5391,673.8199
15039.2157,723.6222,674.0801,734.0266,714.6265,564.1902,664.8015
15058.8235,741.9047,556.3851,696.0673,641.5002,460.4345,687.8033
15078.4314,215.6081,126.0945,694.0159,284.4718,-40.5292,129.7570
15098.0392,-168.9095,-184.5897,697.1035,-125.1801,-285.6081,-221.0181
15117.6471,-214.3655,-246.6315,695.9993,-327.2773,-364.4743,-276.9281
15137.2549,238.1053,229.4028,670.0635,61.8187,112.1906,183.6375
15156.8627,532.5192,474.3168,633.1285,551.3646,362.2832,471.9279
15176.4706,513.1842,451.2772,602.0756,578.8165,344.2755,471.7787
15196.0784,209.2969,-34.7643,526.0228,270.2177,-166.5622,130.8303
15215.6863,-546.7617,-627.4319,492.1146,-183.0129,-771.6926,-626.2270
15235.2941,-787.7669,-851.7144,455.0899,-561.7590,-978.6338,-863.0876
15254.9020,-744.5866,-811.4128,370.0654,-484.8138,-924.5242,-810.2066
15274.5098,-553.6917,-647.8411,312.0150,-123.6502,-802.5474,-645.8199
15294.1176,-413.3491,-512.2239,252.0479,168.1668,-683.5147,-514.2767
15313.7255,-573.7870,-732.8216,211.0653,166.8914,-921.6599,-682.0292
15333.3333,-919.3113,-1377.2806,186.0135,-139.5993,-1580.5487,-1020.0707
15352.9412,-1418.0952,-1550.0985,168.0680,-554.9230,-1702.8665,-1506.1604
15372.5490,-1100.2153,-1177.2640,291.0262,-384.5367,-1315.3599,-1194.1072
15392.1569,-578.0917,-655.8828,364.2283,26.9401,-765.6138,-658.9191
15411.7647,-141.9480,-197.9491,420.9553,482.4953,-331.0322,-242.9715
15431.3725,209.6088,125.7674,451.1646,720.8026,20.9386,135.8551
15450.9804,14.0422,-138.9798,433.0428,504.5892,-188.9797,-51.0163
15470.5882,-660.5392,-738.1240,397.2525,24.4009,-875.0135,-749.0458
15490.1961,-1003.6323,-1055.7729,331.0136,-471.1852,-1170.9232,-1069.9401
15509.8039,-897.5466,-924.2375,307.2016,-443.4606,-1010.2003,-961.2856
15529.4118,-584.3218,-641.6918,288.8816,-30.9033,-760.7930,-662.9894
15549.0196,-350.8254,-403.3248,249.2627,318.2861,-521.4064,-433.1610
15568.6275,-482.2770,-601.5195,170.8613,216.0590,-757.7382,-575.7697
15588.2353,-1088.0321,-1536.5917,72.2678,-254.7440,-1757.7426,-1165.2421
15607.8431,-2033.0767,-2247.5979,-63.9649,-926.7722,-2409.4387,-2194.7949
15627.4510,-2043.3740,-2130.7786,-67.6902,-885.0159,-2283.9797,-2149.6848
15647.0588,-1755.9712,-1892.4778,-36.9463,-540.6108,-2067.4287,-1860.6798
15666.6667,-1523.6688,-1642.1544,-14.6594,-162.9752,-1820.2227,-1645.7634
15686.2745,-1211.7058,-1365.4187,16.8067,237.3226,-1574.1998,-1345.5833
15705.8824,-1079.8671,-1218.3108,46.1374,184.5542,-1414.4518,-1198.9880
15725.4902,-1797.5283,-1924.1382,-41.0133,-714.2418,-2079.9875,-1893.4725
15745.0980,-1975.2388,-2045.6021,-63.6444,-729.5947,-2182.6533,-2066.0413
15764.7059,-1606.2400,-1661.9514,-16.0889,-523.9491,-1782.7147,-1692.5005
15784.3137,-1190.3778,-1248.6959,65.2524,-76.6085,-1375.0382,-1281.2760
15803.9216,-754.0322,-809.7764,87.8526,407.0782,-936.5724,-852.2596
15823.5294,-739.6533,-816.9853,69.1343,312.0403,-956.1666,-827.3663
15843.1373,-1579.9790,-1690.6726,-44.0572,-276.8023,-1842.3402,-1661.1396
15862.7451,-1888.1520,-1944.1456,-75.6084,-703.0684,-2091.6592,-1957.7456
15882.3529,-1794.5192,-1790.6354,-49.1505,-612.5175,-1892.9993,-1829.0225
15901.9608,-1243.2115,-1259.1539,29.2769,-264.2870,-1340.6989,-1300.8538
15921.5686,-767.1646,-802.2732,98.7375,271.5888,-894.8085,-845.7772
15941.1765,-204.3765,-195.3132,172.2280,675.3698,-278.9923,-251.9213
15960.7843,-251.0680,113.8453,409.8808,228.9100,69.4991,8.4576
15980.3922,341.1046,408.1686,437.2353,540.1652,371.6259,333.7540
16000.0000,365.1602,426.1053,454.8279,761.1732,386.8781,352.6895
16019.6078,340.8959,407.9789,455.3047,734.9111,371.3523,333.5832
16039.2157,365.3492,426.2676,454.8140,761.4294,387.1176,352.8365
16058.8235,340.5858,407.6773,455.3042,734.6182,370.9704,333.3082
16078.4314,365.5114,426.4301,454.7987,761.6022,387.3564,352.9709
16098.0392,340.3000,407.3858,455.3059,734.2999,370.6061,333.0420
16117.6471,365.7637,426.7282,454.7937,761.9360,387.7373,353.2424
16137.2549,340.1810,407.2244,455.3179,734.1165,370.3614,332.9001
16156.8627,366.0245,426.9898,454.7824,762.2554,388.0778,353.4915
16176.4706,339.8863,406.9235,455.3193,733.8293,369.9709,332.6103
16196.0784,366.1547,427.1306,454.7600,762.4180,388.3033,353.6227
16215.6863,339.5814,406.5897,455.3087,733.4891,369.5543,332.2954
16235.2941,366.2604,427.2431,454.7269,762.6143,388.5011,353.7380
16254.9020,339.3984,406.3240,455.3195,733.3041,369.2040,332.0830
16274.5098,366.4292,427.4076,454.7242,762.9418,388.7456,353.8835
16294.1176,339.1794,406.0513,455.3347,733.1127,368.8481,331.8851
16313.7255,366.6293,427.7358,454.7208,763.1545,389.1554,354.1279
16333.3333,339.0362,405.8528,455.3419,732.8130,368.5751,331.6898
16352.9412,366.8551,428.0259,454.7101,763.3746,389.5183,354.4019
16372.5490,338.7740,405.4756,455.3426,732.5393,368.1425,331.3680
16392.1569,366.9355,428.1767,454.6937,763.6584,389.7393,354.5526
16411.7647,338.5844,405.2462,455.3542,732.3625,367.8237,331.1115
16431.3725,367.0519,428.3957,454.6785,763.8650,390.0328,354.7487
16450.9804,338.5058,405.0554,455.3591,732.0876,367.5563,330.9472
16470.5882,367.1750,428.6099,454.6537,763.9968,390.3235,354.9285
16490.1961,338.2583,404.7113,455.3568,731.8173,367.1359,330.6250
16509.8039,367.2205,428.7735,454.6391,764.2466,390.5660,355.0802
16529.4118,338.1753,404.4936,455.3671,731.7080,366.8462,330.4332
16549.0196,367.3635,429.0549,454.6289,764.4810,390.9192,355.3398
16568.6275,338.2617,404.4527,455.3889,731.5320,366.7386,330.3977
16588.2353,367.5536,429.4185,454.6206,764.6359,391.3445,355.6457
16607.8431,338.1339,404.2009,455.4119,731.2861,366.4221,330.1516
16627.4510,367.5992,429.6113,454.6074,764.8369,391.6082,355.8373
16647.0588,338.1751,404.1400,455.4367,731.2191,366.2483,330.0403
16666.6667,367.7391,429.8876,454.6014,765.0480,392.0028,356.1400
16686.2745,338.2147,403.9912,455.4617,731.1307,366.0350,329.9233
16705.8824,367.6516,429.9822,454.5738,765.0762,392.1556,356.2172
16725.4902,338.1466,403.6875,455.4567,730.8654,365.6717,329.6247
16745.0980,367.5389,430.1055,454.5428,765.1658,392.3391,356.3386
16764.7059,338.2182,403.5718,455.4731,730.8153,365.5006,329.5125
16784.3137,367.5287,430.2932,454.5108,765.3340,392.5812,356.5189
16803.9216,338.3113,403.4300,455.4861,730.7488,365.3035,329.3931
16823.5294,367.3704,430.3591,454.4825,765.3542,392.6902,356.5731
16843.1373,338.3465,403.1946,455.4948,730.6243,365.0165,329.2240
16862.7451,367.1722,430.4392,454.4504,765.3436,392.8232,356.5842
16882.3529,338.4684,403.0943,455.5145,730.6081,364.8668,329.1284
16901.9608,367.1451,430.6502,454.4342,765.4768,393.0901,356.7817
16921.5686,338.6966,403.1002,455.5619,730.6799,364.8246,329.1285
16941.1765,367.0142,430.7058,454.4252,765.4619,393.1850,356.8494
16960.7843,338.8363,403.0277,455.5880,730.6672,364.7184,329.0657
16980.3922,366.7789,430.6664,454.3813,765.3254,393.1757,356.8540
17000.0000,338.9091,402.9047,455.5926,730.6412,364.5648,328.8966
17019.6078,366.6000,430.7461,454.3364,765.3022,393.2945,356.9261
17039.2157,339.1497,402.8737,455.6084,730.7787,364.4989,328.8797
17058.8235,366.3319,430.7209,454.2899,765.2306,393.2924,356.9112
17078.4314,339.3619,402.7712,455.6362,730.8710,364.3763,328.7880
17098.0392,365.9954,430.6892,454.2460,765.0372,393.2841,356.8805
17117.6471,339.5479,402.6943,455.6490,730.9189,364.2750,328.6945
17137.2549,365.7132,430.7006,454.2071,764.9189,393.3124,356.8850
17156.8627,339.8549,402.7298,455.6756,731.1331,364.3007,328.7272
17176.4706,365.5245,430.7776,454.1919,764.8425,393.4012,356.9701
17196.0784,340.1672,402.7267,455.7154,731.3653,364.2813,328.7512
17215.6863,365.2229,430.7518,454.1675,764.5936,393.3994,356.9366
17235.2941,573.5577,537.7882,454.6881,692.5468,481.2978,576.5900
17254.9020,-693.9834,-753.1829,229.0155,-474.6810,-814.5601,-701.0004
17274.5098,-35.0594,-87.1149,406.7601,370.7443,-162.4611,-131.0731
17294.1176,781.6190,821.8787,550.1439,746.2869,747.4695,790.0036
17313.7255,1160.2922,1300.9476,693.7489,908.1560,1242.3197,1182.9060
17333.3333,1536.5389,1511.7911,1176.1514,246.8676,1345.3341,1553.8480
17352.9412,1335.6913,1483.1548,1240.9570,49.2649,1364.6107,1343.9353
17372.5490,1866.1161,2132.7183,1310.1127,710.5972,2026.3822,1873.9464
17392.1569,2095.0569,2169.3477,1313.8846,948.6508,2067.8118,2107.2092
17411.7647,1820.9220,1885.7963,1270.0485,718.2039,1755.1918,1828.8982
17431.3725,1487.4142,1575.4138,1245.9380,235.8508,1416.7853,1493.1880
17450.9804,1035.3199,1104.5148,1208.0198,-54.8301,958.0208,1039.5558
17470.5882,807.7502,870.3783,1179.0488,-315.6458,740.8782,801.1352
17490.1961,1051.7299,1145.1279,1154.0552,-37.3842,1038.7593,1057.4492
17509.8039,1631.2828,1540.5087,1146.0540,706.6878,1410.9414,1611.4871
17529.4118,1502.4297,1512.2128,1128.9283,748.2164,1370.8236,1488.4894
17549.0196,1081.6125,1067.6887,1116.0636,410.1086,923.1938,1055.5266
17568.6275,802.0518,791.8100,1108.8875,-5.0259,625.3567,768.2444
17588.2353,544.8839,529.7134,1122.0710,-213.2858,362.2211,502.7435
17607.8431,691.5528,737.6216,1159.9259,-103.5230,616.0463,675.8958
17627.4510,1545.4781,1584.0634,1229.0328,854.9449,1460.5385,1501.7236
17647.0588,1797.1412,1777.4999,1234.8702,980.6835,1642.9539,1733.7926
17666.6667,1451.9717,1426.2844,1211.1444,693.6432,1278.9664,1408.1077
17686.2745,1006.7794,1009.3680,1157.7744,262.1692,849.6816,988.6040
17705.8824,532.3241,523.5139,1094.2261,-198.7414,388.1867,494.1115
17725.4902,174.1879,180.0587,992.8445,-434.1859,45.3602,130.4050
17745.0980,539.7335,513.8981,896.1925,-59.3590,374.6048,468.3221
17764.7059,668.8230,547.7531,832.7114,452.1237,412.1474,550.2269
17784.3137,584.2679,447.2315,835.1309,443.0209,280.8887,517.6543
17803.9216,191.3969,98.4271,811.7788,207.6627,-89.0730,127.0845
17823.5294,-338.1026,-430.2151,754.2044,-282.9970,-612.4962,-417.8244
17843.1373,-677.1592,-762.7124,691.6507,-626.8864,-892.5549,-743.1005
17862.7451,-680.6046,-789.8975,569.1399,-481.6083,-942.3791,-785.8614
17882.3529,-468.7064,-615.2587,506.6577,-118.3925,-836.0105,-599.3915
17901.9608,-395.1329,-593.6270,452.1818,214.7323,-807.9047,-513.4881
17921.5686,-570.1213,-758.6048,455.5416,220.7647,-1008.3251,-693.7469
17941.1765,-818.4973,-1006.3427,490.3122,-16.2482,-1229.5409,-957.0965
17960.7843,-1021.6716,-1160.0576,544.5516,-291.6767,-1350.9017,-1142.0122
17980.3922,-46.9017,-117.6643,754.2986,261.1016,-245.7581,-151.6902
18000.0000,480.7438,478.3833,824.6226,810.7520,365.5097,397.6429
18019.6078,559.3322,482.5214,824.3981,800.7389,343.4369,487.5327
18039.2157,523.3339,264.9553,834.6015,611.0156,128.2748,266.0952
18058.8235,517.0597,247.0066,837.4216,597.4286,110.1118,245.7737
18078.4314,354.7668,144.5181,842.4979,438.4815,-23.1550,265.7580
18098.0392,-286.2947,-349.2323,739.4600,-270.8630,-465.3647,-371.6348
18117.6471,233.0621,188.9652,740.4482,253.5847,64.0308,151.3774
18137.2549,268.9501,171.0393,665.3948,484.5536,38.9573,177.6911
18156.8627,135.5537,-281.3500,566.4136,281.0909,-431.2863,80.9328
18176.4706,-721.1898,-859.2786,475.4269,-126.4719,-1033.1670,-837.7861
18196.0784,-1295.7975,-1461.9702,396.4202,-615.3891,-1616.9796,-1386.3474
18215.6863,-1481.8721,-1596.6528,354.4813,-824.7028,-1772.6440,-1610.3422
18235.2941,-1116.1975,-1242.3514,370.4349,-345.2362,-1402.4796,-1243.6710
18254.9020,-491.0334,-650.9341,442.5104,362.7498,-831.8882,-625.5609
18274.5098,-229.7020,-342.8512,503.5044,547.9697,-495.8701,-318.9961
18294.1176,-113.5447,-455.3579,556.4979,467.4878,-611.3013,-233.1060
18313.7255,-632.1660,-754.6461,558.4469,140.3044,-902.5167,-716.6409
18333.3333,-937.0465,-1025.7018,550.5396,-261.6424,-1141.5245,-1027.6792
18352.9412,-887.8916,-955.2846,549.4612,-429.3110,-1042.2670,-958.1649
18372.5490,-350.4568,-416.8719,549.6887,101.7267,-531.8789,-466.0208
18392.1569,-37.2355,-121.8528,546.4698,545.0165,-263.9304,-128.5892
18411.7647,-83.8201,-170.1912,533.5809,484.4138,-259.9052,-154.3936
18431.3725,-259.6902,-891.3337,413.3636,22.3066,-1004.3357,-827.0520
18450.9804,-1392.3925,-1525.5350,305.6567,-518.8112,-1693.3992,-1508.0629
18470.5882,-1397.3188,-1520.2889,302.3684,-519.0449,-1688.2075,-1497.7367
18490.1961,-1642.0175,-1764.8824,221.5800,-781.3121,-1889.8120,-1732.6805
18509.8039,-1004.8673,-1147.8707,294.2898,127.1661,-1300.8785,-1120.1312
18529.4118,-639.3818,-762.0927,342.7515,484.2889,-923.0748,-757.9359
18549.0196,-571.0869,-842.4316,350.2951,372.7877,-1031.5063,-826.6198
18568.6275,-747.9380,-1185.4264,337.6933,-14.9517,-1351.3340,-859.3892
18588.2353,-1534.7716,-1618.2941,278.2927,-497.7093,-1766.2616,-1622.3002
18607.8431,-1604.4510,-1690.7015,255.7084,-651.4689,-1840.6060,-1694.8639
18627.4510,-1282.1637,-1345.8823,219.2833,-237.2141,-1509.9244,-1389.8448
18647.0588,-1004.0814,-1074.8866,240.7907,244.9613,-1268.0422,-1129.2262
18666.6667,-773.3737,-825.4850,244.3689,317.0352,-1024.5198,-867.0891
18686.2745,-1043.6395,-1137.2295,146.6989,-96.3720,-1396.3455,-1186.8015
18705.8824,-1920.9017,-2170.4651,54.1827,-644.2686,-2390.4680,-2200.9114
18725.4902,-1979.4302,-2084.6721,107.7128,-693.0474,-2239.7871,-2083.2393
18745.0980,-1435.3597,-1492.3494,204.2869,-346.7407,-1595.9387,-1517.3223
18764.7059,-1092.9692,-1163.8595,221.6935,82.2700,-1309.0236,-1213.8180
18784.3137,-839.7294,-885.8801,220.2625,335.6667,-1011.5308,-938.8884
18803.9216,-868.3596,-962.8941,187.7998,299.7527,-1110.2296,-982.1360
18823.5294,-1309.1570,-1430.6182,129.2924,38.2518,-1652.3225,-1424.4891
18843.1373,-1809.2345,-2074.3247,43.8129,-660.6465,-2209.7080,-1901.5493
18862.7451,-2194.5112,-2224.3350,-52.6539,-909.0131,-2399.9978,-2280.1296
18882.3529,-2160.8699,-2250.7991,-63.1275,-713.4807,-2423.2168,-2278.1855
18901.9608,-2249.0076,-2336.1003,-82.6745,-404.3369,-2542.7827,-2371.7676
18921.5686,-2525.6033,-2649.0474,-111.0569,-205.8717,-3161.3809,-2839.6917
18941.1765,-2771.0842,-2946.8145,-157.6480,-388.6352,-3442.4756,-3048.1675
18960.7843,-2782.3096,-2804.2495,-148.9926,-686.5864,-3094.9382,-3016.2344
18980.3922,-2510.4702,-2591.4976,-149.5909,-896.9119,-2757.8254,-2621.5613
19000.0000,-2252.9844,-2288.7449,-116.1288,-720.4193,-2438.1138,-2359.5454
19019.6078,-2105.8179,-2194.1086,-84.6199,-344.2049,-2343.6152,-2225.1538
19039.2157,-1739.6434,-1772.9965,-36.0644,145.5798,-1958.5953,-1860.1055
19058.8235,-1334.8627,-1377.5686,-7.7042,253.4072,-1552.1064,-1439.4648
19078.4314,-1453.4523,-1483.6693,-0.1248,8.7402,-1695.4578,-1564.7305
19098.0392,-1614.1626,-1573.4868,77.1349,-432.5456,-1677.5999,-1671.0516
19117.6471,-1340.3594,-1283.9669,128.7388,-361.8873,-1395.7784,-1397.4757
19137.2549,-1102.5828,-1011.1721,155.2348,-123.7245,-1081.3081,-1125.6392
19156.8627,-761.0777,-641.3348,157.7217,298.0529,-773.1548,-822.0430
19176.4706,-501.5742,-442.5819,148.2334,488.9696,-537.5902,-520.0167
19196.0784,-430.9203,-329.7414,159.6632,536.2565,-450.7437,-454.3588
19215.6863,-1520.7242,-1430.2893,35.1568,-421.8913,-1563.0216,-1547.3086
19235.2941,-1787.8563,-1694.4657,-59.1997,-774.6680,-1803.5923,-1813.2039
19254.9020,-1672.1617,-1579.8480,-49.6980,-639.0295,-1693.7705,-1703.8011
19274.5098,-1485.9456,-1394.0125,-49.2165,-369.6516,-1530.2122,-1534.8990
19294.1176,-1347.2505,-1217.4794,-60.7835,90.7679,-1378.2050,-1395.2220
19313.7255,-992.9861,-908.4205,-25.1827,227.1476,-1056.7828,-1032.6730
19333.3333,-1397.3433,-1333.7053,-5.6545,-7.2026,-1472.4310,-1412.6266
19352.9412,-1507.7921,-1411.1675,-2.1940,-434.5295,-1525.5970,-1520.3673
19372.5490,-1539.3066,-1424.1383,-12.6613,-615.9711,-1521.7356,-1554.0364
19392.1569,-1367.6925,-1247.7698,-1.3139,-398.6098,-1336.3336,-1381.9409
19411.7647,-968.4023,-804.5258,27.2421,118.7957,-926.0247,-975.1452
19431.3725,-567.7016,-473.2671,60.6604,418.0265,-587.8772,-594.7375
19450.9804,-760.2628,-689.8145,42.1999,264.8595,-804.3297,-769.3625
19470.5882,-1281.6698,-1158.9272,10.6092,-392.8958,-1263.5674,-1268.4534
19490.1961,-1463.3789,-1404.0511,-17.6671,-643.7964,-1472.4076,-1471.5217
19509.8039,-1482.6488,-1364.7512,-42.2861,-641.1425,-1432.3837,-1480.2075
19529.4118,-1243.4082,-1096.2970,-46.6219,-325.5279,-1186.5383,-1245.8870
19549.0196,-1057.6494,-879.4067,-55.3071,131.5501,-994.3052,-1064.1042
19568.6275,-1333.2050,-1199.6865,-166.5503,-1.6093,-1351.7751,-1328.0037
19588.2353,-2397.8418,-2284.4895,-307.3312,-582.5313,-2459.3423,-2403.1072
19607.8431,-2871.4636,-2804.0547,-430.6288,-1294.2175,-2971.8816,-2884.1724
19627.4510,-3279.1443,-3156.4578,-512.4503,-1491.8397,-3307.4526,-3300.1382
19647.0588,-3009.4060,-2936.0793,-484.5306,-1252.1390,-3113.1621,-3055.3982
19666.6667,-2884.2878,-2880.3027,-435.3989,-827.9116,-3018.4939,-2924.9729
19686.2745,-2388.1238,-2119.2451,-353.5060,-47.7480,-2410.1309,-2437.4224
19705.8824,-2350.2234,-2217.1594,-349.5360,-119.1308,-2450.2612,-2400.9500
19725.4902,-2518.0681,-2419.0940,-380.5110,-561.5063,-2562.9539,-2538.4094
19745.0980,-2562.4043,-2517.2114,-425.4467,-1017.3968,-2631.2168,-2574.9875
19764.7059,-2638.9751,-2395.0649,-411.5467,-959.2238,-2491.9065,-2652.2551
19784.3137,-2232.4338,-1915.0714,-335.5572,-503.6296,-2004.3345,-2033.0232
19803.9216,-1013.6865,-877.9363,-181.4734,363.7562,-953.7597,-1003.0682
19823.5294,-816.5206,-675.1356,-146.4870,432.8088,-768.2891,-819.9977
19843.1373,-1035.4739,-925.8029,-129.4580,243.0950,-1019.4241,-1019.0410
19862.7451,-1358.7167,-1230.1810,-150.5604,-165.2662,-1289.5822,-1336.1331
19882.3529,-1499.2413,-1346.7096,-141.3689,-473.3852,-1422.3208,-1473.7594
19901.9608,-1345.9358,-998.2858,-63.6603,-348.5472,-1020.7988,-1128.2499
19921.5686,-393.9515,-230.4842,-46.3257,464.9069,-255.9581,-320.7197
19941.1765,-218.1789,-63.6146,-23.6853,564.7789,-90.0141,-175.4051
19960.7843,-153.6223,14.6830,39.6008,605.0763,-36.7171,-83.3098
19980.3922,-596.2389,-423.8132,22.1322,250.5332,-489.2070,-550.4709
20000.0000,-1008.4155,-836.8307,-13.2285,-391.3100,-868.4716,-951.2125
20019.6078,-966.6484,-777.0917,49.1430,-432.5562,-805.4963,-929.7564
20039.2157,-78.9851,539.3527,253.7596,572.0071,529.7258,413.9679
20058.8235,635.0922,887.6321,311.1187,874.8363,857.1122,711.9503
20078.4314,689.0914,908.6256,318.7916,852.2817,884.1982,762.1891
20098.0392,569.8188,775.2375,352.1629,695.4996,779.7512,647.5729
20117.6471,349.3157,607.2672,393.8329,416.7492,583.4796,432.7547
20137.2549,77.5847,374.8207,429.0670,-4.4759,370.4538,180.2869
20156.8627,456.5979,1206.7224,532.9550,350.9598,1242.1261,566.1051
20176.4706,1397.5068,1751.4177,623.0655,899.0457,1760.0674,1517.0581
20196.0784,1738.1833,2064.1965,711.0610,1154.3105,2099.4841,1862.5171
20215.6863,1691.3435,1992.9749,739.0930,1068.7047,1995.7794,1811.9177
20235.2941,1431.2990,1790.8915,733.0789,744.7261,1796.1489,1578.9647
20254.9020,1171.1211,1579.6434,718.0054,264.1657,1599.3893,1346.5829
20274.5098,885.6760,1319.4196,697.1520,-48.8733,1315.5145,1039.3619
20294.1176,1328.8097,2107.2544,802.9672,656.8839,2153.2202,1496.0659
20313.7255,2169.3269,2580.1499,900.2023,1085.3514,2590.3259,2330.0962
20333.3333,2418.7073,2806.9631,989.9473,1274.6842,2823.9543,2572.8945
20352.9412,2354.6780,2770.7896,1043.2053,1134.6982,2762.8018,2540.5830
20372.5490,2215.3684,2729.4331,1015.9039,769.4261,2747.3577,2412.4824
20392.1569,1554.7412,2227.3052,915.2397,-34.6301,2182.1299,1833.0564
20411.7647,1690.2255,2278.8450,934.9125,278.1145,2265.0151,1882.8911
20431.3725,2063.4023,2641.2092,977.4379,777.3337,2625.8398,2344.7537
20450.9804,2455.0117,2806.2449,1029.8823,1035.8102,2811.5266,2581.7627
20470.5882,2374.6790,2729.6721,1069.5022,1048.7811,2706.3438,2530.2285
20490.1961,2249.7922,2642.5530,1066.8918,837.6409,2610.0510,2406.1885
20509.8039,1853.9962,2395.3220,1011.4350,-25.8191,2359.8357,2087.7195
20529.4118,1602.3070,2167.8411,987.8303,34.0471,2078.3677,1797.4904
20549.0196,2058.2454,2652.0305,1060.4645,561.2222,2611.5381,2260.0535
20568.6275,2583.0349,2977.1997,1133.7281,997.8862,2952.8479,2731.0039
20588.2353,2733.6902,3095.0383,1196.6152,1215.7843,3043.1934,2868.9473
20607.8431,2666.7051,3043.4707,1220.7506,1125.5439,3013.1824,2808.6577
20627.4510,2247.6123,2731.1689,1138.5070,293.9458,2682.4709,2432.0471
20647.0588,1890.0742,2451.4753,1088.6392,-78.7526,2333.4673,2125.7039
20666.6667,1589.7993,2062.8091,1026.5813,-45.7092,1960.8693,1747.3363
20686.2745,1907.8918,2319.7124,1041.5446,573.9117,2259.8276,2109.1499
20705.8824,2178.2078,2456.6028,1052.5990,815.2948,2406.4265,2304.0125
20725.4902,2107.6531,2354.1646,1047.6427,860.7214,2261.5081,2206.6667
20745.0980,1919.4082,2254.1750,1121.6517,471.7681,2150.8840,2046.5272
20764.7059,1980.2584,2431.4031,1152.6382,146.4588,2253.9089,2125.1631
20784.3137,1690.6910,2154.9189,1129.5894,66.8802,1955.3375,1861.0920
20803.9216,2047.1654,2542.8242,1155.6038,224.1227,2388.5298,2193.7610
20823.5294,2408.9260,2932.6721,1251.6500,949.1404,2802.0242,2530.6506
20843.1373,2556.9038,3031.2202,1299.5820,1220.1094,2942.0532,2839.2212
20862.7451,2447.1177,2769.2456,1297.6781,793.3599,2654.4187,2557.1208
20882.3529,2187.5544,2550.3198,1248.4774,302.8425,2402.3396,2317.6819
20901.9608,1672.4108,2067.7534,1155.6364,-165.4734,1849.6302,1814.5067
20921.5686,1553.1178,1854.6870,1138.5133,-56.1790,1715.8643,1632.0068
20941.1765,1997.7025,2403.3152,1192.6866,230.4208,2209.2251,2112.8508
20960.7843,2357.7979,2634.0166,1245.4451,911.3783,2497.3940,2432.4529
20980.3922,2288.9749,2276.0320,1230.6414,791.6972,2111.6252,2367.3765
21000.0000,1670.6462,1899.3934,1156.4126,313.2735,1739.8132,1741.9106
21019.6078,1085.9065,1295.4197,1057.6735,-374.8534,1058.7748,1134.6790
21039.2157,644.2531,855.7205,985.3732,-417.6619,695.3987,694.5130
21058.8235,819.1462,1016.9108,969.6919,-297.8719,814.3094,849.1017
21078.4314,1122.9755,1340.8917,961.4782,72.8957,1167.9530,1153.0194
21098.0392,1553.4799,1662.7072,1044.6770,828.0289,1490.6786,1583.6906
21117.6471,1416.9106,1529.4265,1065.4312,636.8829,1339.5880,1425.5598
21137.2549,1118.6693,1285.2555,1073.6509,228.1932,1096.0103,1174.0795
21156.8627,893.7182,1042.0394,1095.4639,-164.9901,764.2448,908.1808
21176.4706,1117.6924,1301.5945,1163.7196,64.4643,1128.2703,1154.3898
21196.0784,1740.6691,1994.4995,1281.4565,403.7208,1753.0023,1761.8062
21215.6863,2407.0486,2607.3950,1396.7463,1163.4261,2480.8184,2458.9517
21235.2941,2410.6243,2573.2720,1392.4614,1071.5066,2431.7102,2443.7217
21254.9020,1846.2705,2058.6768,1313.6819,527.5504,1869.0570,1904.1823
21274.5098,1494.2942,1674.7534,1247.5756,-1.4723,1453.5488,1521.2843
21294.1176,824.1897,983.1303,1155.6196,-349.1101,805.0635,857.2924
21313.7255,804.8785,949.9358,1069.5079,-358.5120,756.8171,812.5747
21333.3333,1217.3724,1293.4169,1003.6744,396.5526,1125.3789,1226.6635
21352.9412,1446.7882,1517.6442,1080.4398,761.4379,1352.9084,1448.4451
21372.5490,1376.7078,1295.9019,1083.5750,626.9286,1096.6913,1226.0858
21392.1569,899.5731,968.3132,1064.4908,197.1767,761.6097,896.2943
21411.7647,417.6047,491.2164,1027.5403,-280.8671,290.6874,408.1795
21431.3725,422.5154,518.9327,1024.6420,-267.4128,325.3914,399.8691
21450.9804,1023.7628,1149.5183,1022.5786,253.6736,965.9962,1037.2211
21470.5882,1102.3964,1131.7026,939.5402,529.1666,955.1492,1090.7638
21490.1961,903.9762,780.7831,866.4637,458.7509,610.2103,734.6254
21509.8039,351.3731,337.3463,822.6182,136.1838,121.0890,310.7478
21529.4118,-342.9422,-334.7125,732.4431,-443.8996,-527.5067,-385.1742
21549.0196,-660.5722,-670.8889,633.6871,-765.5676,-859.9056,-702.1940
21568.6275,-650.9084,-659.6919,501.4659,-532.9116,-880.6467,-718.2202
21588.2353,-283.9002,-313.0351,495.6792,-19.7655,-588.9920,-374.6341
21607.8431,-37.7375,-191.4051,480.3580,306.8677,-414.5447,-103.0588
21627.4510,-293.8742,-517.2758,417.5832,166.2072,-781.1703,-390.5054
21647.0588,-804.6661,-1228.3176,363.3565,-275.9456,-1482.5796,-1206.0791
21666.6667,-1459.0183,-1607.5092,288.7024,-772.6851,-1825.2167,-1568.7240
21686.2745,-1803.7772,-1927.1862,122.2131,-937.9786,-2137.6621,-1888.0796
21705.8824,-1871.1866,-2108.8589,55.7053,-677.8075,-2410.4973,-2040.9183
21725.4902,-2010.7722,-2360.3125,12.2390,-259.1886,-2817.8296,-2242.2263
21745.0980,-2258.3320,-3059.2283,-36.1122,-334.5898,-3756.6318,-2622.0608
21764.7059,-2762.8723,-3469.1907,-82.7766,-458.9366,-4123.8281,-3265.2375
21784.3137,-2986.3684,-3285.0566,-119.1030,-1036.5741,-3824.5188,-3112.9270
21803.9216,-2981.8518,-3266.9607,-120.7519,-1027.1722,-3813.6052,-3093.1575
21823.5294,-2986.4868,-3285.2002,-119.0559,-1036.5928,-3824.5933,-3112.9592
21843.1373,-2981.9395,-3267.0234,-120.8062,-1027.4116,-3813.7341,-3093.3376
21862.7451,-2986.5735,-3285.2915,-119.0229,-1036.5756,-3824.6162,-3112.9397
21882.3529,-2981.8887,-3266.9109,-120.8482,-1027.4156,-3813.6790,-3093.3396
21901.9608,-2986.4873,-3285.2319,-118.9780,-1036.3868,-3824.5039,-3112.7964
21921.5686,-2981.7351,-3266.8037,-120.8816,-1027.3966,-3813.6289,-3093.3123
21941.1765,-2986.6292,-3285.3811,-118.9560,-1036.3842,-3824.6023,-3112.8105
21960.7843,-2825.7766,-3224.8545,-122.8699,-1136.5925,-3513.8237,-2957.6052
21980.3922,-2919.5806,-3036.5669,-120.8750,-1123.3522,-3230.5581,-3090.7205
22000.0000,-2914.7078,-3018.0542,-122.9179,-1114.6268,-3219.7874,-3071.6907
22019.6078,-2919.5288,-3036.4751,-120.8222,-1123.1295,-3230.4255,-3090.4817
22039.2157,-2914.4949,-3017.8689,-122.9385,-1114.5844,-3219.6370,-3071.6504
22058.8235,-2919.5046,-3036.4421,-120.7803,-1122.9993,-3230.3833,-3090.3096
22078.4314,-2914.6357,-3018.0417,-122.9864,-1114.8027,-3219.8333,-3071.9705
22098.0392,-2919.5535,-3036.4470,-120.7385,-1122.9830,-3230.3650,-3090.1643
22117.6471,-2914.6619,-3018.1021,-123.0139,-1114.9508,-3219.9087,-3072.1907
22137.2549,-2919.4829,-3036.2751,-120.6822,-1122.7980,-3230.1711,-3089.8906
22156.8627,-2914.5278,-3018.0620,-123.0316,-1114.9622,-3219.8645,-3072.2634
22176.4706,-2919.3396,-3036.0576,-120.6380,-1122.5690,-3229.9709,-3089.5339
22196.0784,-2914.5652,-3018.1907,-123.0543,-1115.1005,-3219.9836,-3072.5195
22215.6863,-2919.3796,-3036.0339,-120.6127,-1122.5511,-3229.9502,-3089.3481
22235.2941,-2914.6311,-3018.3052,-123.0882,-1115.3165,-3220.0881,-3072.8118
22254.9020,-2919.3098,-3035.8975,-120.5905,-1122.4468,-3229.7908,-3089.0198
22274.5098,-2914.6067,-3018.3154,-123.1131,-1115.3680,-3220.0713,-3073.0000
22294.1176,-2919.2000,-3035.7878,-120.5725,-1122.2050,-3229.7322,-3088.7063
22313.7255,-2914.7505,-3018.5107,-123.1498,-1115.4965,-3220.2659,-3073.4041
22333.3333,-2919.2688,-3035.8079,-120.5620,-1122.1633,-3229.7773,-3088.5303
22352.9412,-2914.8511,-3018.6516,-123.1698,-1115.7242,-3220.3818,-3073.7510
22372.5490,-1769.2004,-2154.4753,42.2696,-200.0159,-2352.7871,-2075.2385
22392.1569,71.2805,-7.2246,493.7357,747.2095,-76.1862,29.9382
22411.7647,156.0065,220.6616,498.3378,684.1583,191.4861,250.1842
22431.3725,538.3163,337.3601,743.7700,197.0765,312.7446,554.8799
22450.9804,1218.0773,1319.9415,908.3865,489.3124,1296.6998,1258.7667
22470.5882,1188.1173,1288.4960,877.7508,451.7882,1275.6681,1206.4824
22490.1961,1304.2178,1387.0306,883.4581,773.2204,1338.6543,1316.9884
22509.8039,1333.2213,1413.3536,884.7700,829.7692,1382.6790,1368.0872
22529.4118,1058.2515,1107.1420,887.5029,431.5405,1030.7933,1058.4032
22549.0196,558.1245,724.4006,945.7258,-100.1228,672.6555,573.0437
22568.6275,830.2808,963.2503,991.4850,69.7437,924.7606,858.6888
22588.2353,1262.0697,1478.3253,1033.6987,340.4885,1445.5905,1315.4775
22607.8431,1769.4241,1908.3923,1086.4860,963.7081,1858.0370,1793.0222
22627.4510,1835.9445,1995.2932,1092.7034,1009.3621,1945.7086,1880.1758
22647.0588,1759.5682,1888.4561,1095.4423,940.8654,1810.0433,1787.4481
22666.6667,1289.9944,1463.1561,1111.6765,228.0669,1370.5146,1346.0422
22686.2745,1018.5303,1173.2877,1112.4666,-52.7613,1140.8948,1053.8867
22705.8824,1278.7380,1482.0665,1120.7920,118.9200,1407.4985,1317.3922
22725.4902,1555.7115,1708.4293,1094.5261,405.2633,1663.9307,1589.0378
22745.0980,1687.6707,1806.9888,1093.7550,805.8796,1739.5392,1704.2092
22764.7059,1692.8800,1807.4700,1079.4293,845.2523,1735.8853,1722.6265
22784.3137,964.5391,1083.8134,1015.7976,178.5978,1006.5413,1011.7956
22803.9216,442.8130,393.4777,925.4268,-407.1407,319.8656,466.9381
22823.5294,318.4433,410.8065,888.6993,-344.1578,293.4702,315.3649
22843.1373,482.0360,572.6232,874.4790,-159.1867,501.0193,484.1240
22862.7451,995.2551,1044.5265,887.8214,411.3727,952.3323,996.8539
22882.3529,1067.2511,1100.6469,911.3629,653.7274,1017.0372,1053.7889
22901.9608,784.2785,797.6451,914.7466,464.1966,652.4770,750.6592
22921.5686,508.4518,556.8797,962.4569,-84.8737,411.0034,489.3374
22941.1765,272.0353,390.6706,946.9034,-208.5846,293.5812,260.2814
22960.7843,523.7045,599.0421,981.4185,-33.5242,506.1479,523.7153
22980.3922,888.8135,1017.4308,967.8302,238.8503,919.4819,882.7827
23000.0000,1315.8755,1375.1617,1027.3765,816.3107,1268.1691,1314.2089
23019.6078,1196.7676,1261.4690,1013.8423,734.7975,1146.4490,1207.1970
23039.2157,837.9290,905.1705,1009.2710,368.3072,761.1850,827.5539
23058.8235,465.4778,548.2120,973.8442,-276.1810,416.3741,453.8371
23078.4314,183.0869,418.1023,963.2481,-213.1209,338.0873,188.8531
23098.0392,538.2085,647.2999,971.9297,-55.2114,544.3446,543.5360
23117.6471,1087.3295,1163.2522,982.3362,464.5275,1052.0265,1080.0901
23137.2549,1285.9661,1360.1503,1016.9008,864.4153,1245.3430,1283.8798
23156.8627,1104.4565,1140.3334,1046.2440,675.8066,975.9719,1077.5709
23176.4706,847.8183,945.0616,1066.9801,272.1936,789.4349,852.7151
23196.0784,521.7177,606.3065,1058.1759,-207.8411,452.2009,518.1855
23215.6863,382.6839,696.0906,1046.9891,-75.6920,540.4357,385.0322
23235.2941,912.8615,1043.4031,1045.1366,180.0856,934.9157,916.3780
23254.9020,1630.3271,1735.0336,1170.0979,1010.9617,1602.3698,1626.8207
23274.5098,1672.0536,1769.6108,1211.2073,1015.0964,1645.0619,1694.8318
23294.1176,1332.1289,1477.9170,1209.0970,604.7963,1304.3702,1345.3510
23313.7255,921.2879,1044.6350,1153.2225,81.2716,856.9913,926.2587
23333.3333,436.7986,519.6526,1040.0342,-313.1543,391.3365,432.7056
23352.9412,416.4175,525.5220,975.1266,-254.4720,373.0430,414.4824
23372.5490,792.5114,835.5504,889.0099,456.5387,679.1116,764.1190
23392.1569,627.5025,653.4739,821.9814,429.3975,482.0379,608.0295
23411.7647,271.2974,271.3732,755.0436,215.4452,90.8763,234.7629
23431.3725,-399.9493,-416.1427,684.9780,-297.0369,-604.7633,-447.3133
23450.9804,-846.7774,-837.5703,548.0374,-817.5967,-1017.9957,-892.5582
23470.5882,-1105.6195,-1114.9561,491.9651,-826.1533,-1289.7333,-1162.9788
23490.1961,-694.3578,-631.7647,472.0161,-43.6625,-848.2456,-660.1051
23509.8039,-322.3828,-417.9398,441.8973,308.7924,-624.6984,-406.3997
23529.4118,-732.6470,-849.1380,395.1039,143.0605,-1107.3226,-825.5030
23549.0196,-1355.1416,-1486.7880,291.9065,-316.7836,-1766.8224,-1471.1504
23568.6275,-2120.9468,-2260.1948,157.0220,-884.8263,-2526.4224,-2222.2371
23588.2353,-2594.0254,-2777.8811,-40.0264,-1422.8708,-3034.8694,-2698.6567
23607.8431,-3055.3108,-3917.5427,-119.7600,-1152.1782,-4528.7324,-3290.7249
23627.4510,-4094.0205,-4623.1260,-140.1385,-867.6978,-5225.1943,-4437.6802
23647.0588,-4708.0586,-5225.1396,-174.7359,-617.2375,-5728.0498,-5024.4771
23666.6667,-5082.8892,-5597.0547,-213.0658,-936.6790,-6141.1055,-5386.4116
23686.2745,-5224.4292,-5600.3457,-274.8252,-1395.3762,-6034.1714,-5466.9009
23705.8824,-5080.4839,-5492.9824,-323.1822,-1801.4951,-5900.0718,-5318.8525
23725.4902,-5503.7129,-5941.4927,-417.7715,-2117.4180,-6294.5254,-5743.4224
23745.0980,-6400.5142,-6686.8872,-524.2551,-2268.5417,-6868.2007,-6544.7778
23764.7059,-6862.3774,-6987.8320,-580.8948,-2235.6675,-6982.7026,-6932.0806
23784.3137,-6987.1914,-6965.7773,-630.1689,-2461.4507,-6950.0122,-6966.3105
23803.9216,-6933.4937,-6937.9966,-662.9006,-2554.8469,-6934.7344,-6941.6245
23823.5294,-6881.8340,-6938.4644,-666.1531,-2745.2849,-6939.7305,-6905.8013
23843.1373,-6692.7319,-6872.1230,-651.8386,-2765.9531,-6939.9790,-6798.8940
23862.7451,-6450.3574,-6679.1885,-620.1332,-2426.3560,-6833.4702,-6575.2603
23882.3529,-6496.1509,-6742.5879,-580.8973,-1681.9719,-6873.2065,-6648.4014
23901.9608,-6660.0977,-6886.0703,-583.2324,-1396.9507,-6972.3481,-6761.8442
23921.5686,-6680.5503,-6827.9229,-554.9147,-1109.0028,-6882.3774,-6798.8799
23941.1765,-5013.5591,-5273.2583,-456.0893,-1406.7373,-5581.9238,-5216.0488
23960.7843,-3879.6184,-4051.6467,-389.8555,-1229.0032,-4368.1782,-4099.8555
23980.3922,-3897.8594,-4027.0110,-349.1230,-753.6912,-4352.5903,-4123.5718
24000.0000,-3970.9741,-4354.0493,-349.8342,-417.0540,-4693.5078,-4398.4331
24019.6078,-4556.8364,-4763.8462,-388.0967,-317.5330,-5110.4165,-4749.2749
24039.2157,-4703.2925,-4849.4688,-412.9031,-671.1927,-5194.6943,-4877.8247
24058.8235,-4572.3911,-4660.5400,-457.0972,-1080.5077,-4945.2451,-4714.8530
24078.4314,-4217.5830,-4266.5962,-507.9455,-1535.4796,-4507.9116,-4357.1899
24098.0392,-3817.0229,-3909.1323,-437.0672,-1022.3231,-4190.9912,-3971.3486
24117.6471,-3778.9219,-3831.9639,-421.0463,-793.5632,-4093.0869,-3945.5491
24137.2549,-3709.8611,-3731.8267,-379.0889,-162.1364,-4012.8865,-3842.0842
24156.8627,-3664.2695,-3643.3428,-371.9467,-184.7225,-3920.5100,-3784.0718
24176.4706,-3269.2710,-3203.4143,-359.0242,-385.0864,-3472.3574,-3382.5286
24196.0784,-2737.3982,-2722.4277,-348.0722,-944.6594,-2818.3301,-2779.2012
24215.6863,-2568.9302,-2526.8389,-332.9825,-856.8141,-2593.8503,-2609.0029
24235.2941,-2361.6360,-2316.7061,-289.0941,-394.6502,-2382.4761,-2403.3584
24254.9020,-2231.5122,-1938.4069,-267.9637,-25.8071,-2008.5620,-2269.6606
24274.5098,-2004.1080,-1867.1304,-267.0307,105.9932,-1972.9052,-2061.8660
24294.1176,-2162.1877,-2064.2085,-292.8582,-98.7383,-2141.4260,-2168.2598
24313.7255,-2305.3059,-2258.2336,-301.1161,-771.0671,-2333.9373,-2324.0774
24333.3333,-2079.7556,-1992.7224,-270.8282,-677.4365,-2042.9952,-2102.8860
24352.9412,-1815.3197,-1717.3801,-223.1646,-474.9888,-1737.0786,-1814.1722
24372.5490,-1371.3480,-1243.1420,-105.7019,255.5486,-1265.4585,-1358.3945
24392.1569,-866.5873,-398.5865,-58.1581,599.6606,-409.2645,-581.6024
24411.7647,-295.0076,-196.8794,20.2548,764.4874,-221.3360,-260.0297
24431.3725,-779.8793,-594.2061,121.6157,158.3389,-620.5330,-733.7559
24450.9804,-796.6544,-590.5992,159.2130,-112.0870,-581.9553,-723.7430
24470.5882,-680.3456,-498.5726,193.5453,-244.5910,-488.8635,-642.1507
24490.1961,-268.4612,-21.9187,249.3276,83.7818,-24.6661,-188.3460
24509.8039,283.1932,486.8923,295.4919,711.0825,500.6147,338.3349
24529.4118,472.7291,724.1331,297.3308,779.0511,744.5297,579.5400
24549.0196,65.8934,274.4164,302.4508,377.7515,243.2098,127.0260
24568.6275,-305.9419,-50.4138,288.4467,-104.7248,-47.0665,-203.9840
24588.2353,-428.1853,-190.5484,286.4241,-333.1136,-204.7587,-352.0622
24607.8431,-353.5536,-136.8035,276.5775,-354.5394,-106.9416,-264.6038
24627.4510,-15.2001,261.0299,263.3778,-6.2460,298.9865,82.7213
24647.0588,355.6133,637.4056,263.6878,580.8508,633.4180,453.6532
24666.6667,363.3266,319.5144,215.2302,372.3525,293.5580,438.5742
24686.2745,-459.9233,-302.9356,163.6648,-152.0704,-283.0746,-387.1448
24705.8824,-867.7985,-659.6168,83.2613,-605.7996,-688.5293,-808.4062
24725.4902,-1029.7377,-873.8513,33.7720,-777.8879,-883.9539,-972.1164
24745.0980,-742.0177,-519.8917,74.0825,-410.7380,-544.6089,-662.6684
24764.7059,-228.2920,-4.2464,111.8200,35.2814,7.2438,-155.6954
24784.3137,9.7590,74.4652,83.1307,413.8654,61.8175,73.0650
24803.9216,-108.1647,-227.8081,90.8458,195.3789,-289.3088,-304.6417
24823.5294,-751.4769,-555.7319,116.0921,-243.1979,-603.1536,-689.9377
24843.1373,-635.9949,-477.4845,182.0488,-317.2411,-502.0757,-590.4186
24862.7451,-434.2453,-241.8990,240.9300,-258.5159,-241.2599,-378.8173
24882.3529,-27.5591,218.0592,275.0629,47.0816,220.2437,70.8122
24901.9608,670.5019,872.8773,333.9517,750.3141,888.6235,741.1279
24921.5686,698.4089,792.3030,345.1888,674.2123,756.4297,780.7628
24941.1765,139.1693,393.3264,350.9180,251.8824,365.2961,243.0605
24960.7843,-34.1814,219.7052,365.2815,-89.4679,195.8380,85.8224
24980.3922,-73.6104,188.3489,419.8782,-217.0661,184.0787,16.1322
25000.0000,352.9965,652.0629,498.3056,2.9160,677.0498,478.9387
25019.6078,1176.1013,1481.0256,559.8039,751.6572,1491.0040,1288.1379
25039.2157,1221.0927,1404.4076,516.4517,777.0292,1457.3149,1335.1866
25058.8235,949.0604,1000.7737,464.7424,464.3488,952.8715,1052.1360
25078.4314,172.1621,458.7082,385.5211,-111.5567,446.5645,328.1806
25098.0392,-171.7814,42.6793,340.7120,-448.6682,32.7189,-90.4800
25117.6471,-297.4074,-70.9257,293.5746,-561.4355,-105.1005,-200.6922
25137.2549,504.8489,709.3742,329.5972,246.9554,682.6451,590.1922
25156.8627,739.3914,937.1324,352.6298,588.6365,897.9477,834.9703
25176.4706,753.5624,866.8749,357.6144,567.8228,828.4514,829.0737
25196.0784,526.3337,407.0342,359.6925,218.7293,357.7815,333.8560
25215.6863,-67.3705,150.5926,342.4635,-200.4998,121.0392,23.0513
25235.2941,-230.6066,-58.4899,351.6655,-399.0585,-87.0195,-159.0792
25254.9020,728.3058,1008.3513,501.4766,304.2809,974.8939,839.2233
25274.5098,1206.3976,1444.4932,584.7377,777.2509,1443.1443,1327.5994
25294.1176,1561.5856,1827.3743,678.4305,1079.0485,1783.9448,1679.2677
25313.7255,1501.3676,1733.7910,738.7772,906.4821,1694.0667,1612.4766
25333.3333,1386.4738,1563.1819,735.4376,416.8434,1530.9248,1366.3293
25352.9412,769.3521,1080.6346,707.8842,-15.5249,1049.9312,914.1703
25372.5490,685.3288,1035.0457,622.3089,-174.0811,1052.6129,848.3907
25392.1569,1081.1711,1338.7213,604.8128,281.4597,1321.8090,1203.1926
25411.7647,1151.4620,1401.8717,545.3311,490.5095,1382.7959,1267.5398
25431.3725,993.1382,1154.7123,493.8492,505.7358,1128.8986,1090.8353
25450.9804,634.2168,454.6671,371.2700,34.3480,363.6105,720.6833
25470.5882,8.2364,171.4353,319.8454,-434.1594,82.5606,111.4225
25490.1961,-353.5143,-210.1878,322.0940,-523.7277,-244.3531,-297.8825
25509.8039,124.8226,310.4714,357.8054,-138.9584,252.4672,197.3454
25529.4118,563.5101,731.7173,403.1768,391.2278,662.6727,627.9966
25549.0196,902.7340,1037.6422,455.8163,736.0419,982.5875,987.0698
25568.6275,918.6383,997.7563,525.2065,683.1063,1011.7774,984.3892
25588.2353,749.7447,747.5935,558.8985,337.1197,659.5656,640.8327
25607.8431,256.7717,475.7677,603.1744,-158.7378,417.8152,329.6680
25627.4510,703.5187,972.4355,690.9625,33.1690,928.4529,802.5024
25647.0588,1234.9805,1478.8849,745.2320,494.1835,1431.2589,1311.0768
25666.6667,1471.4244,1694.5824,702.9046,780.2260,1655.3458,1566.4290
25686.2745,1484.3223,1671.2345,717.1421,852.2882,1622.3616,1572.3962
25705.8824,1266.1387,1309.3553,697.9463,561.1113,1246.0745,1348.7924
25725.4902,640.9280,669.7068,660.1685,-248.9686,578.8496,533.3115
25745.0980,312.6170,512.9946,629.8195,-356.9268,458.6257,391.3257
25764.7059,563.0596,795.7662,606.0699,-169.7506,759.2377,660.6270
25784.3137,879.3206,1047.8405,562.8568,291.7209,988.4628,951.9954
25803.9216,940.6032,1085.2800,514.0922,484.4397,1008.5500,1000.0988
25823.5294,732.0914,816.6268,468.8861,428.7140,758.3411,792.7147
25843.1373,-1.3169,84.1547,431.0546,-125.2975,-45.2910,33.1916
25862.7451,-196.9605,-175.5231,438.8238,-462.4438,-244.0152,-166.5306
25882.3529,-78.7994,39.3702,456.1574,-356.3304,-40.8865,-65.1969
25901.9608,479.4615,625.0410,492.7031,84.2240,560.6762,536.7521
25921.5686,845.3610,966.9018,522.2101,593.9257,893.1482,882.1176
25941.1765,943.1248,1050.8160,525.6779,682.0856,947.4264,976.3593
25960.7843,517.6516,645.0894,525.2419,324.9920,529.3646,551.5032
25980.3922,61.6982,81.3423,508.6012,-289.0241,-24.7588,110.6663
26000.0000,-60.5916,18.4819,509.2953,-411.4026,-49.9758,-71.8102
26019.6078,257.2254,415.0549,534.5420,-130.3599,345.6152,310.3228
26039.2157,806.4660,939.6882,579.2550,406.6735,853.1876,834.4703
26058.8235,1084.1110,1193.8082,609.6300,705.2516,1102.4875,1114.8876
26078.4314,799.9766,896.2924,576.3263,539.9619,819.6948,834.9792
26098.0392,341.5428,442.2411,551.4577,104.8246,301.9183,383.3669
26117.6471,-157.4399,-161.2268,463.4633,-529.3854,-232.9343,-137.1816
26137.2549,-200.9140,-167.9606,437.4213,-507.3592,-229.3160,-208.9164
26156.8627,61.8392,186.0399,432.4635,-206.9262,119.3616,95.1100
26176.4706,444.6552,509.5777,419.2887,323.9776,412.1947,474.5643
26196.0784,465.4430,501.4337,394.6058,532.2104,405.8560,480.4398
26215.6863,46.1964,64.1115,368.2876,175.5624,-45.9118,63.0471
26235.2941,-522.8873,-461.9803,325.6847,-304.1505,-573.5295,-525.8238
26254.9020,-595.2615,-566.2623,302.1816,-559.8983,-684.5697,-601.3848
26274.5098,-534.3506,-465.4333,303.6705,-475.5909,-575.2426,-531.1800
26294.1176,77.9858,173.2951,329.1381,104.4866,91.0077,101.8296
26313.7255,654.2886,714.9958,471.8137,770.8599,598.2748,650.3519
26333.3333,600.4422,631.7382,525.0236,684.8139,552.4177,610.3576
26352.9412,433.7857,492.3396,567.9543,466.5226,374.6397,450.8792
26372.5490,-92.9498,-20.4639,530.0081,-215.5779,-92.8638,-57.1038
26392.1569,-129.4204,-118.7485,500.9857,-424.8026,-194.5574,-97.2820
26411.7647,74.3363,186.6021,476.8834,-177.3030,104.4248,106.0168
26431.3725,547.9861,608.4435,442.0735,517.7642,501.7251,555.0551
26450.9804,458.7386,502.2387,414.7899,505.1066,410.9353,476.5916
26470.5882,94.5725,129.0025,367.1830,249.2280,9.1161,107.6995
26490.1961,-652.8441,-612.1760,273.6673,-352.4936,-733.3427,-651.9492
26509.8039,-855.7346,-809.4325,229.2560,-656.7568,-907.1450,-841.6530
26529.4118,-858.7201,-693.8989,235.4595,-533.2104,-813.8608,-869.5052
26549.0196,63.9344,74.1171,270.4306,391.6524,-40.6632,44.7270
26568.6275,155.3925,168.4810,287.3215,497.8933,62.2985,136.6689
26588.2353,218.4999,220.5628,327.4268,573.2814,108.5329,195.3165
26607.8431,-64.1133,-48.8344,371.2872,328.1899,-175.0444,-70.7394
26627.4510,-471.7330,-405.8725,386.5417,-285.8362,-485.7984,-459.7812
26647.0588,-471.8842,-405.6530,386.1146,-411.4332,-496.4807,-462.6315
26666.6667,357.0194,425.5747,415.6484,327.9512,357.6075,376.6425
26686.2745,511.4645,561.6547,423.0440,602.7255,498.7271,544.8317
26705.8824,547.7935,598.3107,427.8748,647.5533,514.1817,552.3124
26725.4902,356.8086,395.1028,419.9448,496.9359,309.2409,361.2362
26745.0980,-225.4851,-180.9382,394.9917,-5.3222,-310.0408,-222.8240
26764.7059,-611.9805,-548.3135,307.7950,-565.5018,-606.0106,-576.3969
26784.3137,-538.6423,-462.3435,244.1131,-257.5261,-535.5198,-524.2150
26803.9216,-83.6170,-66.6442,211.6313,171.3920,-181.4334,-85.9620
26823.5294,-132.9801,-109.7605,163.2763,288.8074,-209.9656,-141.5446
26843.1373,-295.3599,-305.2671,95.5966,213.6638,-430.0165,-307.5347
26862.7451,-886.0709,-921.3845,53.3152,-90.2464,-1099.5087,-910.9578
26882.3529,-1319.2150,-1327.8199,10.3437,-640.0776,-1464.7174,-1347.3888
26901.9608,-1281.3756,-1257.6816,36.4284,-609.3359,-1373.9679,-1313.3400
26921.5686,-900.8102,-888.4106,74.3316,-24.5771,-975.9521,-917.8383
26941.1765,-371.5174,-385.8094,80.6286,371.2890,-488.2229,-404.3092
26960.7843,-195.4424,-187.6955,107.2245,483.5416,-317.4135,-203.1694
26980.3922,-222.4886,-229.2979,160.6718,497.9000,-351.5653,-258.7192
27000.0000,-545.0754,-537.2939,224.0705,232.7751,-667.8131,-545.9809
27019.6078,-421.7724,-342.5629,372.9160,-112.0938,-427.1739,-415.0655
27039.2157,-103.8259,313.0096,472.0721,203.9248,240.5960,-94.4679
27058.8235,448.9355,799.8526,500.0187,674.6087,736.4009,709.6104
27078.4314,828.4510,930.6296,512.0020,822.3561,875.2476,872.0070
27098.0392,757.6868,855.3440,486.1028,757.3679,781.7626,788.2928
27117.6471,363.7294,441.2201,435.8600,403.6149,367.7631,395.2033
27137.2549,-460.4408,-354.9984,337.2942,-478.7240,-432.5167,-451.9608
27156.8627,-493.9339,-389.3570,314.7514,-432.9301,-457.7137,-455.2717
27176.4706,-288.8802,-162.5203,288.4094,-104.0636,-224.0477,-245.3447
27196.0784,130.2644,191.0589,260.5611,313.3376,86.6488,144.8435
27215.6863,90.6236,146.7397,210.5392,345.1613,80.0097,105.8999
27235.2941,-177.1914,-153.2963,141.3997,243.5912,-258.3515,-158.3284
27254.9020,-1227.5658,-1177.7124,32.5853,-694.1479,-1302.3563,-1238.3837
27274.5098,-1289.2677,-1257.9320,32.2353,-682.9913,-1365.1510,-1290.2906
27294.1176,-1030.9705,-949.3309,101.6927,-315.4230,-1063.1409,-1043.8446
27313.7255,-617.5536,-342.2308,125.2510,127.3286,-427.1389,-608.6919
27333.3333,-109.1578,-85.8237,148.7040,496.0433,-159.5948,-112.1042
27352.9412,99.7732,136.5206,214.1878,628.8946,41.3889,111.7711
27372.5490,-381.5285,-345.4390,297.8804,182.6521,-421.1474,-363.6454
27392.1569,-496.6436,-396.8388,326.1487,-275.3453,-457.7122,-465.5073
27411.7647,-313.1822,-198.9669,381.9296,-136.7168,-279.0225,-292.1862
27431.3725,-8.4617,114.6755,476.0258,302.8487,68.7257,27.7366
27450.9804,699.4892,890.2996,518.0952,563.4692,826.3153,746.1611
27470.5882,940.1282,1035.4816,518.9563,807.3806,971.5219,951.4344
27490.1961,170.9435,261.4514,367.1522,213.9404,177.3960,207.5438
27509.8039,-496.4974,-382.8664,301.8268,-377.8960,-441.8506,-451.1805
27529.4118,-603.6890,-505.1269,258.1765,-555.4429,-568.2867,-564.0325
27549.0196,-575.9900,-461.1511,258.7363,-517.1691,-537.9967,-555.6774
27568.6275,-181.1055,-75.8047,280.3579,103.6896,-151.9746,-163.4169
27588.2353,144.4292,193.2706,242.6900,338.2470,116.6141,196.0242
27607.8431,-206.5956,-180.6610,136.2844,199.0592,-275.8583,-203.1156
27627.4510,-1057.8861,-1047.7197,24.6901,-388.9060,-1157.5479,-1049.4126
27647.0588,-1469.5460,-1457.6217,-74.4360,-885.5891,-1574.8256,-1491.9313
27666.6667,-1767.3849,-1748.2677,-153.2888,-1018.2245,-1868.0288,-1776.9547
27686.2745,-1583.1583,-1568.2886,-187.4645,-810.4354,-1677.6177,-1613.7133
27705.8824,-1382.6669,-1399.3781,-149.3265,-52.3301,-1537.0139,-1420.2130
27725.4902,-458.6768,-453.0444,2.4465,515.7797,-567.4111,-465.1591
27745.0980,-514.9711,-536.5741,72.4537,381.2255,-671.1422,-522.3969
27764.7059,-686.4631,-650.0725,170.5475,144.8701,-715.3225,-687.9656
27784.3137,-596.2770,-510.5027,259.4216,-158.6865,-618.0927,-603.6657
27803.9216,-292.1204,-197.8859,355.6641,20.1195,-246.2339,-281.5614
27823.5294,131.5000,263.0608,422.3507,219.8841,233.7001,158.7901
27843.1373,-304.9043,-166.6204,349.5838,-465.7376,-208.1420,-258.3000
27862.7451,-489.6675,-365.7100,242.3326,-613.8332,-412.3741,-450.1085
27882.3529,-284.7776,-154.5967,126.6035,-142.6189,-209.9814,-237.9644
27901.9608,-192.7183,-63.9141,71.2734,142.8705,-124.3556,-149.4165
27921.5686,-240.6819,-187.4527,14.7469,192.2079,-259.9693,-224.9183
27941.1765,-747.7531,-745.7579,-46.6041,-53.9834,-890.2920,-755.4609
27960.7843,-1864.8931,-1864.6691,-247.2325,-1013.7640,-2002.2540,-1886.8668
27980.3922,-2065.1106,-2055.1641,-304.5983,-1085.0778,-2173.3535,-2091.8569
28000.0000,-1930.8766,-1953.7104,-330.1150,-854.8611,-2077.3804,-1968.9803
28019.6078,-1809.9095,-1832.9514,-318.6536,-502.8720,-1981.3503,-1855.9154
28039.2157,-1440.7031,-1466.5714,-280.2020,25.0413,-1647.2476,-1498.6378
28058.8235,-1267.8147,-1374.8971,-251.5847,82.1357,-1576.1399,-1381.0200
28078.4314,-1893.8386,-1912.6920,-284.0793,-697.8282,-2046.5464,-1920.7417
28098.0392,-2057.8076,-2072.1113,-315.6757,-810.6714,-2178.2312,-2083.1365
28117.6471,-2017.8427,-2009.7593,-368.1710,-854.0446,-2085.6877,-2045.7969
28137.2549,-2130.9595,-2154.9956,-419.6614,-758.3922,-2291.0996,-2175.0833
28156.8627,-2469.2102,-2510.8606,-478.1190,-554.2203,-2744.7646,-2550.7004
28176.4706,-3198.0535,-3268.0806,-580.7055,-514.2659,-3662.3340,-3317.4507
28196.0784,-4451.6313,-4477.3779,-717.1295,-1380.4847,-4860.2339,-4476.9844
28215.6863,-4453.9434,-4558.2549,-783.7042,-1683.2200,-4848.4014,-4560.5225
28235.2941,-4211.7661,-4324.3809,-780.1713,-1766.0144,-4628.2700,-4338.1514
28254.9020,-4368.7744,-4509.1626,-798.7774,-1663.8695,-4800.2036,-4492.3970
28274.5098,-4744.0205,-4909.5898,-801.2385,-1377.0804,-5190.5112,-4854.2075
28294.1176,-5312.5698,-5499.2363,-847.7712,-1174.5570,-5784.1123,-5415.5259
28313.7255,-5583.3945,-5651.7144,-867.2798,-1200.2589,-6110.8223,-5690.2822
28333.3333,-5057.3589,-5173.0088,-873.7626,-1557.2958,-5462.0249,-5157.4038
28352.9412,-4415.6157,-4455.9189,-859.2303,-1606.6654,-4690.0156,-4513.2256
28372.5490,-4181.9009,-4231.7695,-852.7036,-1674.0830,-4482.7676,-4285.2222
28392.1569,-4508.8037,-4590.9141,-878.2155,-1450.0013,-4832.1357,-4603.5093
28411.7647,-5111.6182,-5216.7969,-924.6762,-1242.6848,-5457.5566,-5194.3247
28431.3725,-5854.3647,-5984.2007,-955.2943,-1027.3240,-6254.5425,-5923.7017
28450.9804,-5278.4014,-5323.4868,-937.6431,-1339.2902,-5587.3057,-5331.0796
28470.5882,-4373.5698,-4349.2070,-897.3551,-1330.6731,-4586.4102,-4430.6777
28490.1961,-3499.7693,-3439.0215,-829.6265,-1320.0656,-3564.9097,-3532.6396
28509.8039,-2794.8647,-2746.1401,-742.3184,-951.9328,-2827.3176,-2805.6851
28529.4118,-2375.2722,-2287.9004,-664.7092,-422.6267,-2354.6238,-2369.3635
28549.0196,-1876.0311,-1740.3402,-581.3137,108.4167,-1824.4862,-1845.8331
28568.6275,-1172.6749,-1056.5885,-418.5233,329.6373,-1121.1445,-1136.9681
28588.2353,-1312.5333,-1192.6104,-393.2852,-29.6488,-1228.7798,-1264.9623
28607.8431,-1306.0314,-1163.2673,-315.5948,-299.6135,-1179.9353,-1259.8041
28627.4510,-1034.9475,-847.6888,-227.3548,-190.2328,-865.9015,-990.1054
28647.0588,-587.5930,-376.1046,-144.5518,39.4575,-381.8108,-520.4514
28666.6667,115.3007,348.0984,-53.3480,622.2424,370.7842,188.3482
28686.2745,471.7980,663.0187,28.2954,875.0299,672.4724,553.7922
28705.8824,767.0864,1105.0176,295.5936,894.9651,1114.6372,875.2853
28725.4902,765.4826,1150.4380,398.4744,571.2861,1198.8011,944.1162
28745.0980,764.5192,1172.8835,460.6462,261.4769,1240.5131,944.1358
28764.7059,1005.8420,1475.4556,512.4682,305.6632,1567.0051,1201.3953
28784.3137,1590.1469,2152.7505,566.5473,613.2773,2245.3521,1828.8871
28803.9216,1911.4514,2297.7441,607.4814,1009.1735,2381.2185,2074.7920
28823.5294,2084.7095,2500.7280,638.5240,1136.9998,2584.1665,2287.7678
28843.1373,1964.9525,2482.9338,696.5113,755.6367,2566.4709,2192.8872
28862.7451,1722.1002,2288.5708,684.5244,75.4002,2366.9707,1975.5292
28882.3529,1337.4797,1962.9874,651.5575,-7.1558,2066.4236,1605.9799
28901.9608,1626.6456,2261.4456,656.5792,111.0129,2363.8555,1883.1401
28921.5686,1809.8058,2221.1345,630.4996,382.0971,2275.5576,1989.2808
28941.1765,1794.3031,2178.2122,580.5286,705.8134,2219.8423,1984.9438
28960.7843,1728.2745,2032.1678,541.4534,678.5363,2062.7310,1868.3748
28980.3922,1373.5331,1787.1594,613.5208,176.2124,1777.5475,1559.7448
29000.0000,1246.6761,1760.1034,665.4423,-67.8576,1761.8925,1474.6205
29019.6078,1337.1299,1811.0243,685.5114,0.2381,1848.3616,1526.2937
29039.2157,1745.1753,2293.3589,701.4466,254.2936,2308.9988,1969.8329
29058.8235,1940.8009,2281.0850,711.5097,698.6951,2312.4182,2068.1982
29078.4314,2047.8524,2426.5757,721.4645,890.6603,2403.9812,2215.2334
29098.0392,2088.3066,2405.9573,745.5771,878.4462,2401.3513,2222.9961
29117.6471,1373.1661,1743.5797,632.4444,-311.0632,1710.0447,1532.2957
29137.2549,793.7791,1141.6238,572.6124,-359.6573,1101.2026,945.7724
29156.8627,1098.5118,1470.4716,622.4337,-125.6344,1432.0718,1242.5135
29176.4706,1688.5353,2048.8948,701.5391,387.7742,1999.1494,1840.7848
29196.0784,2078.1482,2392.6555,792.5752,958.4011,2356.4275,2191.8989
29215.6863,2278.1206,2613.9763,844.6501,1034.5522,2585.1594,2424.5227
29235.2941,1982.4534,2401.8169,846.4888,484.8092,2333.2786,2164.0977
29254.9020,1569.6559,1939.7603,795.6644,-193.4992,1836.1990,1743.3596
29274.5098,1220.8202,1627.6410,759.5450,-152.9351,1601.1625,1394.1345
29294.1176,1617.2451,2068.9390,790.6021,87.9008,1994.2584,1790.2670
29313.7255,2010.2628,2313.7178,837.5085,603.3499,2241.3296,2107.4548
29333.3333,2107.1028,2394.8303,852.6102,846.8965,2362.3037,2227.2078
29352.9412,1875.6388,2162.5374,842.4337,623.4920,2089.3972,1994.4678
29372.5490,1658.7610,1956.9631,829.6275,-37.2351,1872.1660,1765.0039
29392.1569,1273.9327,1627.5730,816.4255,-145.0905,1478.1996,1419.6074
29411.7647,1541.3143,1910.0304,866.6930,33.3107,1817.3665,1663.8566
29431.3725,2047.2587,2356.5610,906.4673,359.8011,2266.0249,2149.6587
29450.9804,2280.1584,2545.2588,975.7567,928.3087,2486.4155,2375.7019
29470.5882,2389.5183,2645.4695,993.3854,978.1761,2593.2263,2483.8328
29490.1961,1918.0341,2203.1765,921.6995,447.8873,2112.6621,2015.5667
29509.8039,1433.4655,1684.1628,831.4426,-345.6548,1541.7750,1524.8472
29529.4118,889.5280,1128.2513,725.7389,-457.0343,1008.4954,965.5260
29549.0196,645.6210,967.9349,630.3475,-384.5048,870.6650,838.6480
29568.6275,1064.4056,1206.3164,590.7101,4.7002,1135.6865,1115.2855
29588.2353,1033.8357,1096.6896,530.2307,359.4871,992.4497,1053.8782
29607.8431,739.3627,786.2957,465.6855,288.3804,630.7190,751.1806
29627.4510,147.7742,186.4529,428.1673,-213.2404,40.1073,142.5582
29647.0588,-86.8030,-38.5895,419.6545,-538.6417,-156.0071,-65.6648
29666.6667,-243.0242,-16.6506,433.2129,-437.2204,-134.0220,-253.1964
29686.2745,272.8973,375.5047,442.6755,-140.8203,256.8074,283.9518
29705.8824,665.0389,687.1859,437.2383,270.0803,541.6821,650.7670
29725.4902,732.9269,778.7444,435.6761,512.9981,651.1230,739.1016
29745.0980,503.0312,496.9845,484.1279,357.1791,339.5625,481.9015
29764.7059,95.6271,161.8275,478.7294,-156.9630,23.2935,98.9334
29784.3137,-105.5307,-67.9083,491.1585,-288.5050,-175.3126,-116.9741
29803.9216,-9.0647,214.9698,503.8519,-234.2814,93.4939,-6.8075
29823.5294,390.3117,737.8333,551.2099,205.4133,642.5452,653.9821
29843.1373,1136.8788,1189.2764,618.8944,770.4949,1056.7996,1115.9923
29862.7451,1298.4646,1331.7178,726.2676,845.7516,1217.4351,1293.1490
29882.3529,1155.8004,1257.4395,797.8573,548.4086,1135.9557,1181.0516
29901.9608,1158.3853,1238.5348,876.2271,317.8826,1119.2235,1166.1335
29921.5686,1099.7579,1266.6714,969.9337,172.0165,1160.9229,1157.9351
29941.1765,1540.2980,1972.6520,1001.2319,395.8379,1866.9589,1577.1456
29960.7843,1996.8373,2179.8301,1013.8471,753.1261,2089.3181,2030.1232
29980.3922,2222.3528,2329.4917,1054.2469,1017.0659,2231.8477,2236.3115
30000.0000,2146.8611,2338.9954,1103.9148,933.9349,2238.4119,2203.1362
30019.6078,2126.4060,2322.1187,1134.1459,492.1564,2194.8193,2163.2278
30039.2157,1917.9174,2210.9590,1145.8774,179.6807,2048.5684,2004.0313
30058.8235,2043.1147,2425.0632,1151.1720,251.2420,2246.5164,2104.2009
30078.4314,2483.2935,2702.3279,1195.9252,541.5735,2582.9221,2521.1775
30098.0392,2443.1677,2639.9683,1194.2094,984.4586,2570.2646,2491.2830
30117.6471,2449.4280,2668.6406,1200.8628,1004.5808,2598.0225,2509.3621
30137.2549,2443.0938,2639.8643,1197.2257,995.7117,2570.1663,2491.3184
30156.8627,2449.6235,2668.8669,1200.8696,1004.4268,2598.2419,2509.4458
30176.4706,2442.9663,2639.7300,1197.2625,995.8401,2570.0269,2491.3164
30196.0784,2449.8320,2669.0762,1200.8711,1004.2628,2598.4695,2509.5273
30215.6863,2442.8665,2639.6614,1197.2926,996.0391,2569.9490,2491.3596
30235.2941,2450.0286,2669.2493,1200.8632,1004.1213,2598.6472,2509.5825
30254.9020,2442.8447,2639.6775,1197.3308,996.2469,2569.9592,2491.4929
30274.5098,2450.1289,2669.3110,1200.8451,1003.9292,2598.7129,2509.5237
30294.1176,2442.6597,2639.5417,1197.3528,996.3835,2569.8245,2491.4739
30313.7255,2450.2610,2669.3450,1200.8101,1003.6898,2598.7522,2509.4858
30333.3333,2442.4773,2639.4529,1197.3730,996.5118,2569.7346,2491.4451
30352.9412,2450.3813,2669.3945,1200.7592,1003.5523,2598.7959,2509.4443
30372.5490,2442.3845,2639.4119,1197.4023,996.7173,2569.7000,2491.5447
30392.1569,2450.5261,2669.4385,1200.7235,1003.3851,2598.8308,2509.3542
30411.7647,2442.1433,2639.3157,1197.4316,996.8571,2569.6013,2491.5356
30431.3725,2450.6643,2669.4104,1200.6711,1003.1520,2598.8018,2509.2883
30450.9804,2441.9304,2639.2144,1197.4633,996.9869,2569.5029,2491.5342
30470.5882,2450.8257,2669.4954,1200.6235,1003.0322,2598.8811,2509.2314
30490.1961,2441.7302,2639.1497,1197.4873,997.1769,2569.4395,2491.5488
30509.8039,2451.0256,2669.5396,1200.5841,1002.8743,2598.9265,2509.2061
30529.4118,2441.6096,2639.1934,1197.5586,997.4313,2569.4854,2491.6606
30549.0196,2451.2034,2669.5540,1200.5480,1002.6708,2598.9324,2509.1499
30568.6275,2441.4700,2639.1838,1197.6290,997.5966,2569.4861,2491.7612
30588.2353,2451.4265,2669.6270,1200.5009,1002.5038,2599.0015,2509.1338
30607.8431,2531.4036,2646.1855,1188.7322,951.7751,2573.7156,2528.7661
30627.4510,1246.4016,1227.4081,763.3555,473.2600,1101.8156,1265.7061
30647.0588,575.9008,779.9788,702.7198,162.9049,645.4447,735.5643
30666.6667,27.3748,59.9829,707.2645,-276.9292,-50.1358,18.4462
30686.2745,83.6998,-21.8560,704.7183,-284.5838,-120.2716,16.5303
30705.8824,401.4510,108.8418,603.2134,106.5740,-64.1837,105.2393
30725.4902,579.4849,568.0634,587.8188,667.3990,436.5910,567.8301
30745.0980,453.6460,396.9504,581.1712,514.3433,243.4419,395.2965
30764.7059,95.4657,-5.8044,578.9172,216.7651,-161.9662,8.8520
30784.3137,-202.2518,-240.0815,585.1237,-195.6207,-388.6451,-271.7668
30803.9216,-303.6226,-338.4650,606.0323,-346.8047,-445.9493,-359.7421
30823.5294,-68.0258,-68.2095,641.0785,-244.8049,-191.6915,-131.9575
30843.1373,442.2946,447.4447,677.0648,410.1815,350.9223,401.1144
30862.7451,708.8789,668.4509,637.8651,607.7440,553.9184,659.7784
30882.3529,348.2880,270.7744,576.1749,355.3926,121.2017,264.4364
30901.9608,-257.0454,-307.5291,515.8901,-190.2150,-450.0548,-317.2964
30921.5686,-614.7568,-674.8911,453.1837,-554.1750,-782.3854,-667.1970
30941.1765,-676.9758,-722.8524,448.7525,-611.7172,-823.3626,-723.5670
30960.7843,-245.6857,-285.7014,534.4032,-212.7514,-408.9746,-321.0135
30980.3922,537.0791,495.9805,594.7717,629.0047,363.3700,485.1819
31000.0000,597.1929,427.4225,591.4196,589.4023,300.0713,538.3230
31019.6078,184.0209,101.6383,597.6765,342.6947,-19.7459,116.0142
31039.2157,-499.5876,-512.2126,531.4584,-482.3271,-591.4582,-529.4134
31058.8235,-636.9312,-650.6464,425.4869,-601.5443,-761.2989,-693.3668
31078.4314,-212.7816,-298.0161,276.5452,165.6696,-446.1406,-313.0680
31098.0392,-113.9512,-210.8295,297.3538,383.1487,-343.4287,-210.5580
31117.6471,-378.7883,-514.7385,276.6199,246.0800,-686.0609,-492.8506
31137.2549,-938.0618,-1095.1548,238.2454,-310.9619,-1230.0175,-1026.0342
31156.8627,-1401.7119,-1511.5341,133.7423,-733.5073,-1680.7487,-1520.7435
31176.4706,-1637.0436,-1767.5992,32.1739,-953.2371,-1889.4652,-1726.2621
31196.0784,-1645.7305,-1795.2854,-29.1287,-837.3367,-1933.5818,-1763.6704
31215.6863,-1377.2097,-1598.0636,-54.8399,4.1709,-1821.8859,-1556.5411
31235.2941,-1164.7606,-1411.9807,-53.9779,46.7707,-1633.0378,-1333.2782
31254.9020,-1712.3312,-1987.2917,-75.8318,-228.7629,-2217.2815,-1884.9265
31274.5098,-1970.5444,-2206.4795,-101.8335,-599.6972,-2374.6563,-2106.9441
31294.1176,-1949.2953,-2116.5405,-91.8688,-744.0974,-2253.2546,-2069.9570
31313.7255,-1770.3376,-1929.2378,-74.8432,-682.4258,-2076.2441,-1900.5807
31333.3333,-1334.4990,-1541.7150,-31.0003,55.4468,-1697.6613,-1499.2847
31352.9412,-938.3584,-1120.6504,-9.6346,291.7031,-1261.8788,-1088.3894
31372.5490,-968.6016,-1377.0862,-26.1488,148.1962,-1539.0709,-1094.4979
31392.1569,-1521.2305,-1729.3662,-49.5787,-170.9014,-1879.4058,-1647.9249
31411.7647,-1811.5496,-1951.4886,-77.1469,-597.6025,-2054.3154,-1897.6492
31431.3725,-1734.9813,-1836.0961,-66.5245,-638.6348,-1946.0564,-1831.5734
31450.9804,-1019.6216,-1103.7451,41.6913,-6.8797,-1172.6456,-1109.0264
31470.5882,-585.7148,-655.5979,75.4666,476.3549,-750.4648,-696.1876
31490.1961,-328.6279,-407.8732,123.6343,598.7054,-469.9174,-388.2150
31509.8039,-360.3955,-788.0033,108.5537,285.5182,-897.9958,-791.8818
31529.4118,-1136.6984,-1227.2343,67.5551,-213.2467,-1337.0774,-1224.3209
31549.0196,-1490.3394,-1535.7965,10.4744,-602.9182,-1594.8463,-1543.5967
31568.6275,-1390.9475,-1423.6091,-56.3540,-517.4051,-1482.6216,-1442.8270
31588.2353,-1253.1212,-1329.4116,-77.3053,-305.7015,-1420.4204,-1336.3684
31607.8431,-796.1027,-845.0410,-44.4745,368.1185,-955.0316,-881.0229
31627.4510,-743.9609,-812.1713,-47.2266,282.2096,-914.9521,-814.0613
31647.0588,-1195.4274,-1268.4159,-52.5968,-24.8575,-1384.2892,-1263.3315
31666.6667,-1583.8464,-1640.9861,-77.2116,-467.3984,-1743.8589,-1637.9547
31686.2745,-1072.5730,-1074.6770,71.3099,-315.2458,-1143.8389,-1138.6635
31705.8824,-668.7629,-637.6093,134.7820,63.4480,-666.5385,-689.7250
31725.4902,-294.8388,-265.9780,120.2455,421.4341,-338.9385,-351.7403
31745.0980,-290.4009,-281.2158,69.6921,452.6711,-366.2032,-321.4707
31764.7059,-382.9620,-388.1942,17.1215,260.3376,-476.2418,-433.8716
31784.3137,-1076.5092,-1122.3936,8.7755,-177.9694,-1200.2283,-1106.4834
31803.9216,-1333.6256,-1300.9141,-26.8365,-665.7555,-1357.8610,-1351.4795
31823.5294,-1167.4867,-1139.1063,-30.0425,-431.8188,-1218.1890,-1221.6064
31843.1373,-621.7170,-549.1646,41.0775,120.9252,-602.2365,-636.6390
31862.7451,-171.2308,-154.8956,107.8398,560.0218,-239.7754,-205.1981
31882.3529,-31.9927,1.5032,121.9900,617.8713,-56.5192,-53.9567
31901.9608,-213.3745,-185.7379,115.7488,328.1555,-285.7966,-241.3753
31921.5686,-950.3027,-874.8824,88.9435,-481.0748,-926.9469,-958.2555
31941.1765,-957.1700,-889.6422,71.8287,-511.8159,-935.4973,-969.2811
31960.7843,-687.4850,-582.9664,74.8695,-230.1611,-624.0773,-686.2873
31980.3922,-158.0057,-78.4575,87.8074,336.0620,-154.4715,-173.0968
32000.0000,-90.5951,-40.2134,92.9209,446.4160,-110.2988,-118.4359
32019.6078,-12.9225,42.7013,88.8491,441.1477,-30.1866,-18.9963
32039.2157,-916.9747,-931.6739,42.8287,-413.5095,-990.6894,-917.7034
32058.8235,-996.8191,-931.1835,61.7912,-547.8183,-953.0929,-975.0092
32078.4314,-791.1777,-695.8271,73.8821,-368.5276,-764.7816,-814.7744
32098.0392,-250.6656,-111.8611,150.8011,128.0424,-146.0129,-231.8410
32117.6471,272.5251,355.6681,223.8492,657.3602,284.8613,261.0167
32137.2549,505.4250,612.2113,297.7672,848.0270,552.0617,517.0055
32156.8627,167.4665,280.5227,331.8480,26.1645,221.7961,181.9478
32176.4706,-424.2933,-299.6149,266.6708,-330.0170,-345.7732,-389.0168
32196.0784,-584.6873,-456.3838,220.8716,-560.5831,-481.1173,-555.9805
32215.6863,-427.1158,-271.4850,173.7440,-349.8990,-303.6965,-383.7457
32235.2941,115.0983,234.2382,162.9323,200.4251,173.5646,135.8446
32254.9020,256.7273,354.5884,197.6315,533.0748,295.3380,276.9112
32274.5098,208.0618,286.0999,273.9462,447.3134,234.4825,218.8088
32294.1176,-101.8088,-44.1289,326.6707,-40.8237,-132.3448,-91.8070
32313.7255,-270.8289,-163.7521,349.9868,-303.2993,-204.4914,-237.9972
32333.3333,-44.7247,102.6727,381.6049,-157.9175,82.3002,-14.8140
32352.9412,341.7191,567.0291,378.9978,123.4712,538.5547,410.8207
32372.5490,652.0274,800.8763,366.6355,545.0278,748.5166,692.7974
32392.1569,635.6516,755.9896,382.0225,631.7672,716.5665,686.9619
32411.7647,342.0919,487.6980,351.6715,10.8528,393.4455,383.7058
32431.3725,-275.3045,-132.7536,316.0454,-367.0088,-207.4450,-257.8967
32450.9804,-403.5282,-251.9357,298.6259,-492.7800,-310.2860,-377.9721
32470.5882,-84.2785,86.9886,326.1072,-242.6826,47.5122,-38.5719
32490.1961,379.5900,521.2428,303.5200,209.8989,474.7288,428.9130
32509.8039,425.5516,530.1323,235.1739,490.1401,465.5984,454.3441
32529.4118,140.7602,235.3187,216.5418,336.5830,160.6219,172.8177
32549.0196,-378.3663,-273.6842,197.1483,-325.4186,-396.1504,-360.4394
32568.6275,-640.0202,-609.3779,168.4212,-597.2127,-685.9269,-705.9667
32588.2353,-695.1626,-573.6190,135.2369,-565.1706,-641.9999,-674.0810
32607.8431,-486.8864,-327.2693,102.3863,-309.4099,-424.9901,-470.0504
32627.4510,75.5312,163.1010,107.3549,398.6092,73.9961,79.0074
32647.0588,0.0660,67.6159,83.3761,399.3646,-34.1031,10.7105
32666.6667,-520.2293,-469.7485,-11.4954,-305.1183,-632.8953,-545.8414
32686.2745,-1193.8453,-1122.3141,-100.5459,-791.7147,-1225.1080,-1191.2837
32705.8824,-1433.3615,-1328.6823,-124.5063,-839.6650,-1451.9117,-1423.6919
32725.4902,-1250.6819,-1188.2875,-117.6018,-625.8466,-1302.1378,-1278.2583
32745.0980,-217.1838,-172.5927,14.4536,447.1712,-307.6728,-247.3910
32764.7059,62.2976,120.6900,94.3121,669.6870,16.8350,46.3089
32784.3137,36.5340,91.1081,128.4630,586.3679,0.3485,38.4665
32803.9216,-393.5421,-309.9942,142.2131,-85.2756,-467.9893,-408.4200
32823.5294,-679.2793,-573.5843,153.6220,-369.1595,-660.6240,-654.1320
32843.1373,-680.6071,-517.0833,161.1363,-403.5816,-595.1149,-622.7226
32862.7451,504.5211,642.1728,289.6029,615.7368,557.3051,522.9183
32882.3529,918.4186,1063.8811,417.1269,1018.1417,1000.7096,974.0522
32901.9608,1197.7249,1367.3196,543.7421,1141.9729,1291.4015,1249.0924
32921.5686,1304.4813,1528.8893,656.2463,1069.1431,1450.7146,1380.1088
32941.1765,1383.7748,1692.5100,765.7882,816.3333,1619.8109,1486.3290
32960.7843,1602.8577,2141.1797,924.2205,407.7596,2047.1108,1751.3235
32980.3922,2199.9719,2790.5181,965.8524,794.4859,2761.9238,2412.6008
33000.0000,2419.7341,2783.2483,940.1648,1059.6615,2787.0134,2551.2969
33019.6078,2337.8899,2625.3921,897.9243,1104.7020,2606.8015,2436.6650
33039.2157,2119.9194,2423.3535,909.2152,966.3690,2380.0254,2235.9771
33058.8235,1899.8865,2293.3645,907.9824,637.9142,2218.8245,2055.7471
33078.4314,1684.9196,2087.4985,837.1878,-140.5161,2035.0114,1847.8990
33098.0392,931.8317,1327.1626,676.0366,-221.7536,1266.7728,1037.8854
33117.6471,1296.8711,1520.5627,645.0530,295.9045,1474.2095,1374.8713
33137.2549,1434.9751,1665.3058,617.9594,585.3884,1596.7323,1534.0181
33156.8627,1309.8478,1447.6635,604.9866,660.8175,1351.0692,1358.6538
33176.4706,1009.7862,1196.0449,587.0636,464.3454,1090.5833,1085.1040
33196.0784,641.8232,817.5393,570.0062,33.4777,672.0936,703.5241
33215.6863,336.6870,536.7764,577.0672,-333.1132,431.5231,393.0323
33235.2941,588.7868,1204.9021,646.0007,176.2565,1091.1890,1045.4557
33254.9020,1471.7531,1675.8052,705.9891,769.9147,1607.4764,1552.3097
33274.5098,1710.8708,1903.9812,763.9880,985.1880,1792.3975,1779.6400
33294.1176,1738.9498,1909.7286,819.0959,1054.2267,1797.6161,1791.3098
33313.7255,1564.6610,1785.9971,865.9948,727.8861,1675.3109,1658.3887
33333.3333,1414.7769,1786.5687,960.1279,39.3206,1621.3844,1559.2994
33352.9412,1676.7902,2110.3555,1050.0143,318.7047,1983.5281,1799.3209
33372.5490,2314.0237,2688.6160,1080.0927,794.6019,2624.4551,2459.6143
33392.1569,2418.9570,2706.6240,1044.9263,1018.6430,2635.8374,2524.6716
33411.7647,2348.9697,2585.4993,1040.2168,1102.8743,2493.3481,2438.5674
33431.3725,1960.9830,2197.8909,1007.8934,749.3540,2087.9792,2057.3860
33450.9804,1099.9832,1408.0341,891.1498,-392.7968,1225.9615,1220.4397
33470.5882,735.8669,951.8784,824.9019,-374.7716,870.9830,820.2240
33490.1961,788.8315,1026.8459,716.0869,-243.7169,940.7339,873.3175
33509.8039,950.8383,1198.1018,651.9283,231.8833,1100.2223,1011.4681
33529.4118,1017.8735,1104.5762,594.2018,384.4221,973.4703,1056.3374
33549.0196,710.9807,769.3365,499.8771,337.8204,638.2943,716.3281
33568.6275,-637.0138,-605.5969,334.1376,-659.3792,-771.6863,-657.5669
33588.2353,-737.0700,-704.2269,296.8859,-787.2147,-842.2641,-748.3378
33607.8431,-774.9945,-742.9318,289.0318,-760.0671,-898.0108,-805.6807
33627.4510,-501.0815,-206.8745,292.8693,-223.3647,-373.0416,-529.3577
33647.0588,-91.9595,42.5580,292.1629,292.0106,-134.9461,28.0146
33666.6667,148.8727,135.1084,280.9331,428.1492,-26.7173,98.4516
33686.2745,-721.0807,-793.5198,211.0373,-115.5997,-1028.5306,-785.7726
33705.8824,-1082.9320,-1094.4727,180.8601,-652.8210,-1266.5360,-1128.2161
33725.4902,-986.2388,-992.0306,231.0346,-524.4351,-1157.8268,-1031.0322
33745.0980,-680.9476,-349.9243,338.9211,-114.9297,-495.1175,-726.2160
33764.7059,-1.9399,463.6826,468.0827,639.5080,310.9750,-49.0243
33784.3137,885.0023,910.2530,584.0776,1020.8184,779.9163,875.0598
33803.9216,1154.8232,1228.3402,770.1019,1026.6321,1108.6187,1157.7965
33823.5294,712.9698,802.4758,728.0933,402.5132,635.3698,710.0035
33843.1373,-3.1993,105.9228,618.0069,-365.0498,3.2819,0.7053
33862.7451,-96.7324,5.8945,544.0830,-443.3355,-120.3335,-89.7206
33882.3529,52.5950,478.6652,511.0247,-5.9454,369.9863,35.4902
33901.9608,598.1918,805.4572,542.0184,569.1512,687.9957,598.3776
33921.5686,601.5721,639.3634,505.0238,579.0610,502.5561,586.3235
33941.1765,243.8587,266.6359,485.1335,258.0375,94.1938,209.4240
33960.7843,-266.1690,-211.7542,496.9852,-207.6151,-329.5199,-285.6334
33980.3922,-181.9030,-107.8261,533.1214,-344.7691,-242.2500,-200.2323
34000.0000,-69.0549,-3.1979,549.9815,-270.3946,-108.8042,-75.6927
34019.6078,305.1021,716.5173,571.2415,374.7883,619.0422,310.8476
34039.2157,888.8204,939.3369,607.9219,785.4574,824.9153,872.0858
34058.8235,780.1503,824.6333,626.2454,666.5800,714.3547,783.8549
34078.4314,426.7871,474.9489,629.9939,273.5103,315.2528,412.7209
34098.0392,-55.7617,35.9620,616.2662,-328.2900,-74.2758,-62.9031
34117.6471,51.6641,141.5175,615.9150,-267.1215,40.0153,62.6204
