t,AF3,F7,F3,F4,F8,AF7,
0.0000,-64.0487,791.5778,536.2925,733.2626,-30.8229,-114.8709
19.6078,-51.6246,793.3358,550.6692,748.7305,-25.6155,-101.9917
39.2157,-47.1498,800.6706,567.4043,755.2137,-28.8533,-112.8654
58.8235,-31.6152,795.3356,579.6912,750.6885,-36.7714,-120.9769
78.4314,-48.1353,800.6589,559.4006,736.2140,-67.7819,-158.9057
98.0392,-52.6342,795.3491,571.6575,748.7198,-81.6156,-150.9091
117.6471,-46.1396,791.5379,580.4299,745.2922,-64.9351,-149.8557
137.2549,-37.5941,802.4825,577.5968,746.7520,-65.6531,-151.9073
156.8627,-7.0851,806.5936,610.4544,758.3005,-29.9317,-138.9164
176.4706,0.3001,801.5032,614.6376,768.6960,-17.7511,-132.9065
196.0784,-14.0289,799.6266,609.3754,755.2415,-24.8985,-146.8493
215.6863,-11.6397,794.3945,612.5590,764.7618,-37.6634,-160.9542
235.2941,-14.0130,790.5079,604.4121,754.2688,-28.8298,-153.8952
254.9020,-4.7005,798.3802,617.5246,757.7643,-20.8264,-159.9459
274.5098,16.8065,800.5955,630.4243,753.2930,2.8881,-151.8899
294.1176,13.1670,793.4243,622.6105,750.6438,-17.7665,-155.9189
313.7255,1.9144,789.4875,617.4366,735.2715,0.0393,-174.9167
333.3333,-11.6940,792.4410,602.5549,712.6298,3.0119,-176.9200
352.9412,-2.0427,791.4619,613.4385,734.2966,0.9145,-174.9206
372.5490,11.1443,791.4611,631.5801,742.6656,32.9798,-163.9586
392.1569,26.9403,792.4463,640.5422,742.2752,7.9177,-160.9612
411.7647,13.1104,798.4264,638.4921,725.7366,-13.8275,-154.8979
431.3725,23.9806,799.5562,655.4945,728.3066,-12.8613,-145.8712
450.9804,5.1361,796.4471,643.4577,726.7041,-32.6428,-144.8341
470.5882,3.9872,788.4529,640.5648,726.3555,-13.9552,-136.9445
490.1961,20.0172,801.5888,672.4799,731.5992,25.9763,-115.8991
509.8039,19.9127,811.4595,663.5352,718.2756,75.9397,-68.8962
529.4118,11.0461,802.5907,645.4972,711.5999,111.0566,-53.8892
549.0196,15.9617,808.4695,654.5536,690.3308,121.8689,-46.8864
568.6275,8.0370,799.4526,640.5055,686.5757,145.1806,-24.8324
588.2353,20.9588,803.4951,630.5140,690.3469,152.0542,-3.8679
607.8431,20.9294,806.5800,639.5246,685.5826,156.1208,4.9848
627.4510,42.9860,800.5055,642.5447,713.2835,196.0081,32.9819
647.0588,80.9485,816.5212,666.4810,755.5782,247.9899,83.9784
666.6667,82.0490,808.4458,651.5405,747.3771,241.9295,81.0261
686.2745,80.9205,796.4917,642.4175,751.6432,253.0289,98.0680
705.8824,83.0670,810.4265,635.5105,744.3219,250.8883,95.9943
725.4902,71.9495,813.5526,618.4749,709.5737,264.1935,97.0629
745.0980,86.0724,812.4067,632.6010,716.3794,265.9642,144.9216
764.7059,105.8474,824.4854,650.4144,724.5190,258.0763,173.0397
784.3137,121.1651,822.3355,661.5186,735.3969,271.8596,207.9377
803.9216,105.8197,816.5421,661.4647,721.5654,258.0892,199.0810
823.5294,105.1560,812.3958,636.6213,717.3884,241.8880,199.0110
843.1373,98.8346,811.5782,641.4147,714.5629,249.1319,210.0257
862.7451,118.2442,811.3977,654.6035,742.4154,255.0005,267.9407
882.3529,132.8775,815.5568,661.4564,748.5120,293.1119,323.1097
901.9608,140.2757,815.3668,665.5390,754.4449,293.9165,338.0006
921.5686,122.7709,798.5050,646.3906,718.4602,271.2581,334.0566
941.1765,115.3178,803.4410,638.5720,726.5042,262.8418,328.9442
960.7843,122.7446,800.6603,640.4393,715.5042,262.3109,330.0368
980.3922,162.3345,817.3469,664.5681,754.4752,317.9384,369.0670
1000.0000,169.7087,815.5659,686.4830,779.4952,346.3300,398.0971
1019.6078,155.2621,808.4024,657.6423,746.5190,313.7625,374.9776
1039.2157,135.7572,799.5063,650.4070,724.4320,291.2393,367.1608
1058.8235,131.2982,797.3080,643.5490,719.4391,295.8040,368.0602
1078.4314,138.7182,803.6487,658.4343,721.4797,307.2401,371.0720
1098.0392,153.3271,797.3069,661.5229,744.4648,327.7104,400.0066
1117.6471,157.7166,789.5771,662.4478,747.4587,352.3280,419.1273
1137.2549,160.4431,795.3179,675.6049,750.4831,353.7048,434.9674
1156.8627,171.6089,793.5524,662.4528,744.5053,337.2658,418.1256
1176.4706,142.4352,790.3488,659.5640,720.5837,315.6157,403.0130
1196.0784,158.6751,795.5432,690.4044,742.4123,352.3912,428.1954
1215.6863,157.5015,797.3024,691.5060,736.5366,349.7077,442.0018
1235.2941,151.5609,787.5952,686.5304,745.4666,352.4282,428.2032
1254.9020,142.4694,781.4066,691.4935,725.5143,315.5528,425.0166
1274.5098,135.6488,785.6074,704.5255,737.3633,308.5099,432.1138
1294.1176,138.5085,780.4141,734.4841,742.5688,292.5526,436.9601
1313.7255,131.5192,764.5775,730.5374,728.4023,287.5520,439.1700
1333.3333,128.4409,779.4211,741.5148,732.5257,292.5161,456.9522
1352.9412,123.5581,787.5936,742.5801,743.3500,265.5024,445.2186
1372.5490,118.5115,779.4221,751.4587,742.5891,279.5703,440.9669
1392.1569,130.5040,781.6311,754.5026,749.3480,271.6748,448.2509
1411.7647,130.4438,784.3914,762.4963,758.6603,280.4028,456.9317
1431.3725,136.6057,774.5110,763.5128,779.3812,288.5661,461.2210
1450.9804,125.4804,778.4334,764.4238,771.6678,316.4502,471.0121
1470.5882,111.6180,786.5975,742.6378,739.4019,310.7021,468.2756
1490.1961,103.4777,786.3835,731.4804,721.6516,300.4338,467.9799
1509.8039,106.5092,783.6155,733.5512,729.3436,327.8104,474.2003
1529.4118,102.4825,785.3934,721.3738,721.6554,320.2887,475.8901
1549.0196,103.5356,771.5262,705.6373,721.3730,324.8071,467.3005
1568.6275,94.5288,781.4232,689.4009,726.6861,324.3953,475.8744
1588.2353,96.5880,792.5523,678.6972,718.3049,308.8945,471.3436
1607.8431,85.4378,781.4283,667.3879,715.6579,312.3208,471.8339
1627.4510,112.6480,793.5476,687.7225,744.4232,305.0256,489.3533
1647.0588,113.5333,800.4738,714.3699,782.6024,322.1176,500.8745
1666.6667,132.6727,805.6337,711.6843,777.4039,319.0843,515.2791
1686.2745,127.4319,816.3723,701.3405,774.6335,289.2567,507.8987
1705.8824,161.6463,829.6411,727.7509,792.3630,299.0168,522.3412
1725.4902,153.3932,821.3425,718.3159,793.6355,294.0165,520.8340
1745.0980,142.6376,827.6500,712.8395,779.3674,282.0143,513.3025
1764.7059,149.3960,829.4607,719.2510,804.6672,286.9633,525.8441
1784.3137,147.6267,845.5283,737.7778,817.3826,294.0977,534.3265
1803.9216,150.3663,841.3885,724.1951,804.6606,286.9106,530.8530
1823.5294,157.7298,844.5292,730.8924,819.3511,304.2176,550.4466
1843.1373,165.3852,848.3465,742.1321,831.6249,326.0024,558.7497
1862.7451,151.6535,843.5316,739.9224,832.3561,315.2122,548.4548
1882.3529,167.3442,853.4847,750.1100,841.6710,328.7881,555.7080
1901.9608,166.7286,858.5935,748.9556,835.4334,348.2980,566.4627
1921.5686,160.3618,852.4991,738.0435,845.5828,354.7590,564.7380
1941.1765,151.7064,851.6339,727.9781,839.3643,331.2895,562.4567
1960.7843,139.3214,844.3932,732.0521,838.5846,303.7405,546.7263
1980.3922,152.7478,854.6176,722.0809,844.4150,326.5474,575.4467
2000.0000,150.2136,855.4961,733.9490,860.6411,327.7381,566.6967
2019.6078,176.7744,868.5212,755.0431,874.4714,371.4398,603.5187
2039.2157,154.1461,854.5125,727.9504,851.5510,335.5483,590.6918
2058.8235,137.9145,855.6008,720.0997,846.5328,319.6550,551.5950
2078.4314,127.1338,855.5153,716.8524,846.5087,328.4939,548.6553
2098.0392,115.9418,848.4720,709.2028,840.5311,297.6018,517.5269
2117.6471,137.1707,852.5436,719.8433,863.5332,340.4678,534.5458
2137.2549,134.0161,847.4706,724.1942,875.4968,334.6184,537.5599
2156.8627,141.0994,865.4667,730.8499,874.5450,350.4718,544.5825
2176.4706,118.0183,852.5955,718.2922,851.4855,335.7601,520.5991
2196.0784,106.9813,853.5496,712.8195,855.5182,306.4499,486.5598
2215.6863,139.0754,865.5031,729.2783,891.6018,346.7474,522.6247
2235.2941,134.0488,862.5010,747.7593,876.4576,331.3344,511.5627
2254.9020,131.0353,864.5038,738.3220,882.5555,340.8957,510.7397
2274.5098,106.8861,864.4971,723.6595,864.4145,380.2804,480.4635
2294.1176,120.1548,862.5076,729.3843,884.6672,412.9029,490.7587
2313.7255,120.8882,858.5455,721.6649,876.3994,417.1969,472.3764
2333.3333,116.2344,851.5731,721.4305,879.6690,406.8324,476.6873
2352.9412,92.8722,844.4803,695.6264,863.3740,394.1884,442.4051
2372.5490,105.2136,858.5178,719.5422,868.6628,379.9691,447.7810
2392.1569,121.7814,862.5394,715.5029,874.3813,389.1172,453.3221
2411.7647,124.2882,865.4612,721.5340,882.6685,411.0689,459.7522
2431.3725,112.7885,877.6183,718.4916,880.3618,403.0732,446.3797
2450.9804,105.3194,858.4965,700.6922,851.6774,390.9817,445.8097
2470.5882,95.7014,875.6435,700.4631,835.3370,379.2016,439.3129
2490.1961,73.4356,871.4033,676.6904,822.7764,373.9557,440.8019
2509.8039,78.6121,876.6490,672.3506,830.2826,365.1725,441.3048
2529.4118,88.3992,882.4858,670.7881,848.8094,379.0166,467.8689
2549.0196,73.5801,868.5424,666.3296,852.1819,374.9659,468.3112
2568.6275,68.5741,885.4562,640.8323,848.8417,353.0159,444.8759
2588.2353,79.4906,883.6270,624.2502,840.1338,346.9465,471.1888
2607.8431,62.5252,890.4120,616.8281,840.9046,350.1990,446.9118
2627.4510,76.4570,892.5840,624.2047,836.1778,332.9292,445.2602
2647.0588,89.6722,894.3635,633.8583,873.8974,356.1032,468.9232
2666.6667,99.4063,912.6343,648.2162,882.1335,356.9747,477.2000
2686.2745,99.6610,899.3148,653.9517,881.8956,357.2120,479.8849
2705.8824,80.3315,901.7220,620.1086,863.0952,339.8979,471.1440
2725.4902,55.7041,899.2956,630.9186,868.9319,290.0794,425.9397
2745.0980,82.2706,901.7405,631.1175,876.0609,323.9245,452.1414
2764.7059,73.7809,895.3010,634.9731,875.9518,305.1821,436.8958
2784.3137,94.2935,903.7480,659.0157,901.0415,319.9864,448.2359
2803.9216,72.8291,900.4111,641.0754,882.9563,271.2637,430.9923
2823.5294,82.1762,902.7729,645.0086,889.9824,311.8994,438.1659
2843.1373,67.9158,906.3568,633.1046,895.0077,269.0818,423.9662
2862.7451,84.1222,901.8015,631.0025,908.9599,292.8819,432.1263
2882.3529,80.8785,896.2374,655.1313,915.0198,292.2572,418.9429
2901.9608,62.0808,894.7044,654.9011,908.9333,292.8979,408.2279
2921.5686,75.9558,897.2213,661.1238,915.0474,290.0610,420.9664
2941.1765,74.1080,892.7396,666.8926,921.9039,302.1000,430.1163
2960.7843,60.9464,891.2380,660.1882,919.1171,302.0744,414.9305
2980.3922,62.9976,886.8012,657.8696,905.9411,290.9680,402.1948
3000.0000,59.9882,893.2033,660.2201,905.1658,298.1176,381.9720
3019.6078,46.0661,882.8480,659.7785,901.8729,289.0220,385.2168
3039.2157,36.0327,873.1478,645.1888,890.1006,291.0880,370.8994
3058.8235,8.9696,870.7836,623.7850,882.8371,259.0746,354.1447
3078.4314,11.0763,872.1272,626.2628,877.1220,272.0222,338.9377
3098.0392,13.9044,871.7999,626.7968,873.8666,245.9825,338.1712
3117.6471,-33.7558,844.1181,573.3221,824.1706,207.8959,299.9315
3137.2549,-81.9473,841.8528,557.7761,813.7759,155.0319,269.1245
3156.8627,-95.7685,843.1010,539.3259,805.1738,126.9209,252.8725
3176.4706,-91.0587,831.9440,538.6843,810.8230,124.2379,254.1699
3196.0784,-94.7506,825.1927,539.3456,820.1425,139.9982,261.9124
3215.6863,-106.9865,825.0153,528.7018,806.7628,111.1597,235.1905
3235.2941,-105.6595,824.0081,529.2771,808.1343,101.8879,239.8824
3254.9020,-124.0519,810.9658,514.7065,790.8085,99.1741,234.1955
3274.5098,-147.6570,812.0593,483.3745,775.1628,55.6901,206.7868
3294.1176,-134.1509,809.9991,484.6838,783.8129,57.2307,212.2056
3313.7255,-149.6297,811.0390,485.3273,776.1425,53.6629,199.8430
3333.3333,-125.0830,813.0075,501.6781,796.8060,71.2895,226.1913
3352.9412,-118.6675,817.9660,509.3875,802.1342,91.6543,235.7917
3372.5490,-122.1452,822.9593,491.5563,792.7332,71.3245,219.2726
3392.1569,-122.6299,810.9849,492.3838,796.2478,68.6249,206.7109
3411.7647,-122.1536,809.0764,505.6466,808.8036,82.5520,216.2880
3431.3725,-111.6832,814.9337,510.3658,810.2175,85.6181,222.7827
3450.9804,-132.1053,812.0847,504.5473,813.7139,89.6200,204.3642
3470.5882,-161.6422,808.9437,468.3366,771.2240,62.3645,193.7029
3490.1961,-184.2201,799.0305,443.5552,749.7162,25.6030,177.3523
3509.8039,-178.6660,798.8168,440.4007,749.1447,31.4506,200.7200
3529.4118,-168.1848,805.1843,437.6001,779.7659,67.6752,223.4200
3549.0196,-177.6642,800.9438,412.3382,769.1158,50.4054,203.7090
3568.6275,-168.1927,803.2255,421.5690,782.7224,61.8491,222.4445
3588.2353,-154.6559,811.8465,407.3526,797.1801,61.2666,240.6634
3607.8431,-137.2535,812.1943,426.5509,810.8142,58.8655,258.4532
3627.4510,-109.6463,827.8862,446.3467,848.1697,112.1557,287.6758
3647.0588,-111.1347,835.2336,434.5744,832.7812,100.9394,285.5361
3666.6667,-101.5469,846.7409,450.3507,846.0688,110.1028,283.6158
3686.2745,-119.2286,828.3041,419.6420,813.7985,83.0910,271.4847
3705.8824,-139.5896,816.7471,410.3736,807.0555,59.9293,261.5700
3725.4902,-138.2489,815.2499,410.5440,811.8657,60.0004,257.5645
3745.0980,-135.6078,814.7347,422.3876,810.0979,60.9435,259.5240
3764.7059,-120.2192,831.3365,444.5716,841.9344,100.1188,275.5907
3784.3137,-119.5660,826.7983,440.3490,832.0127,96.7243,279.4848
3803.9216,-112.2657,833.3489,440.5833,830.9320,97.3655,267.5800
3823.5294,-125.5311,834.7206,442.2715,812.9777,87.6607,247.3713
3843.1373,-105.1643,839.3334,466.7206,841.9996,126.3232,274.6566
3862.7451,-95.5837,844.6337,484.2838,843.9581,125.6175,271.3514
3882.3529,-80.1798,848.2946,490.6664,854.0486,127.5067,281.7359
3901.9608,-96.5799,838.6523,466.2863,816.9520,89.4316,259.3617
3921.5686,-101.1872,844.3415,463.7192,825.0236,92.6020,228.6914
3941.1765,-76.5673,853.6995,497.2418,842.9108,122.3670,245.3624
3960.7843,-58.1750,862.4105,520.7094,859.0157,127.6822,246.7099
3980.3922,-33.5648,865.6003,535.2366,882.8350,154.4147,265.3170
4000.0000,-32.1952,871.3714,554.7456,879.1632,148.7674,265.8651
4019.6078,-6.5913,868.5652,569.2327,893.8344,153.2296,252.1978
4039.2157,-10.1911,873.3738,598.7437,911.2005,148.8575,257.8509
4058.8235,17.2594,877.6548,602.1306,913.7891,191.1971,260.2126
4078.4314,32.6810,888.4588,626.8298,915.1627,216.9732,244.9263
4098.0392,30.3139,893.5338,627.1276,913.7477,207.0756,240.1734
4117.6471,25.7262,898.4073,621.8755,899.2620,203.9366,222.9384
4137.2549,-2.6197,895.5078,612.1653,886.7402,156.9056,183.1604
4156.8627,2.7338,902.5602,624.8219,889.2481,182.1454,183.9783
4176.4706,4.3378,903.6105,626.1146,880.6972,153.9811,166.0254
4196.0784,0.7490,901.5778,622.9040,879.3562,148.1107,141.9933
4215.6863,1.3519,908.5678,622.0782,878.6915,148.8584,137.0558
4235.2941,0.7496,910.5290,626.9406,870.3268,143.1682,123.9088
4254.9020,2.3497,912.5344,625.0949,869.5889,124.7241,109.9910
4274.5098,-1.2343,915.5045,613.9678,865.3355,118.3150,88.9684
4294.1176,-12.5582,917.4946,615.1068,849.5668,126.6160,85.9406
4313.7255,-23.1013,915.5095,599.9001,825.3980,72.4518,20.9402
4333.3333,-23.6350,919.4764,598.0657,829.5370,54.5743,8.9301
4352.9412,-37.1549,919.4882,592.0314,816.4885,27.4703,-12.8676
4372.5490,-56.5690,907.5503,582.9754,797.5017,16.4469,-40.0241
4392.1569,-82.1557,899.4552,542.0085,768.4622,-40.2628,-98.8776
4411.7647,-96.6051,897.4448,543.9481,769.3868,-39.4013,-108.9778
4431.3725,-84.1451,884.5556,550.0529,772.5419,-58.1310,-123.7643
4450.9804,-58.5646,892.4761,573.9250,793.3784,-27.4480,-107.9997
4470.5882,-66.1153,888.5300,588.0995,776.4990,-23.0682,-106.7629
4490.1961,-73.6142,895.4570,572.9262,748.3477,-24.4497,-103.9919
4509.8039,-98.1978,871.4726,553.1341,719.5193,-31.1012,-114.7923
4529.4118,-101.5837,876.5820,535.8433,710.3039,-63.6690,-129.0462
4549.0196,-108.1342,875.6092,515.1378,700.5497,-80.0341,-139.8062
4568.6275,-104.5643,875.5913,523.7894,697.2726,-91.7254,-155.0981
4588.2353,-121.1928,878.5876,495.1207,693.5956,-149.9617,-183.8116
4607.8431,-121.5999,876.5881,494.8430,689.2701,-175.7718,-196.1226
4627.4510,-122.1830,875.6058,485.1876,686.6393,-180.9581,-225.6794
4647.0588,-121.6001,878.5827,486.7961,685.1976,-204.6957,-235.1318
4666.6667,-115.2265,870.4669,483.1456,687.6465,-208.9053,-248.6864
4686.2745,-105.5573,873.4573,487.7433,689.2160,-213.7089,-240.1727
4705.8824,-90.2388,873.4410,489.2431,692.6987,-249.7607,-262.7595
4725.4902,-96.6181,872.4720,477.7542,688.2101,-260.7816,-271.1299
4745.0980,-116.2145,859.5234,468.2531,671.7549,-293.6785,-292.6841
4764.7059,-124.5830,852.6143,439.7049,649.1992,-320.9733,-326.2294
4784.3137,-123.1645,845.4394,453.2166,660.7434,-308.7337,-313.6762
4803.9216,-121.6011,846.4945,455.5971,651.1455,-294.9822,-311.1434
4823.5294,-133.0976,840.4617,446.3212,638.8198,-290.7609,-306.7473
4843.1373,-133.6733,834.5831,444.6335,651.1235,-293.0535,-307.2558
4862.7451,-165.1759,826.5406,435.2974,624.8612,-353.7241,-330.6375
4882.3529,-169.5921,820.5207,420.5567,627.0804,-367.0143,-329.1458
4901.9608,-186.1804,821.3944,411.2736,623.7705,-383.6570,-342.7035
4921.5686,-200.6853,807.6154,394.5369,597.0305,-438.1263,-352.1669
4941.1765,-266.0961,772.3704,344.3661,563.8253,-542.6446,-389.6133
4960.7843,-253.6484,772.5209,348.5878,570.0421,-600.0087,-409.2811
4980.3922,-226.2000,759.4393,350.3394,573.8800,-640.6157,-380.6786
5000.0000,-228.6752,766.5726,347.4684,567.0936,-660.1803,-377.2090
5019.6078,-218.0956,757.4368,355.3502,567.8813,-656.5544,-366.7049
5039.2157,-214.6335,764.5972,344.5244,571.0103,-685.1307,-367.2748
5058.8235,-184.1562,766.3660,369.4674,583.8229,-694.5977,-344.6906
5078.4314,-166.6597,761.6256,381.4294,581.0645,-714.2335,-345.2658
5098.0392,-161.1515,766.3528,386.4961,565.7939,-688.6873,-319.6616
5117.6471,-156.7335,755.6739,385.4113,575.0580,-722.1192,-320.2413
5137.2549,-154.0385,764.3541,376.4455,569.8415,-729.5759,-298.6528
5156.8627,-132.7587,771.5806,401.4175,588.0552,-716.2253,-273.2095
5176.4706,-137.1323,768.3153,391.5353,583.8112,-718.6400,-250.5999
5196.0784,-139.7323,765.6306,389.3631,577.0244,-722.1360,-261.2668
5215.6863,-120.0827,775.4219,368.4790,560.7520,-724.5472,-234.6237
5235.2941,-155.7933,754.7126,358.3585,568.0807,-731.1095,-226.1800
5254.9020,-106.0090,754.3790,385.5123,595.8086,-688.6753,-180.6564
5274.5098,-130.6813,737.6723,358.3372,577.0463,-702.2287,-187.1864
5294.1176,-216.9967,677.3708,276.5701,502.7367,-786.6619,-244.6721
5313.7255,-203.8186,654.7251,293.3188,495.0306,-756.2541,-228.2046
5333.3333,-186.0265,652.3545,318.6272,479.7923,-733.5175,-196.6198
5352.9412,-163.8137,624.7638,322.1984,487.0724,-686.2678,-180.2928
5372.5490,-140.0015,616.2467,346.5991,492.7813,-657.6171,-160.6363
5392.1569,-150.7765,594.6380,324.2384,476.0542,-664.1638,-178.2795
5411.7647,-70.9785,610.2770,399.7143,561.7952,-540.6105,-118.6187
5431.3725,-78.8300,595.6401,391.2683,555.1543,-532.2589,-159.2887
5450.9804,-85.8542,601.3260,379.6986,537.7429,-520.5032,-200.6222
5470.5882,-79.8554,598.6301,378.2407,553.2079,-493.0950,-213.2603
5490.1961,-61.8359,604.2930,364.7790,563.7151,-461.6845,-158.6111
5509.8039,-56.8876,623.6439,382.1017,566.2293,-414.1222,-94.2751
5529.4118,-50.8644,625.3142,356.7947,563.6982,-415.5381,7.3125
5549.0196,-63.8837,611.7264,332.1427,584.1451,-415.2117,11.6194
5568.6275,-79.7849,594.1790,301.7933,567.7269,-448.5722,-246.5027
5588.2353,-91.0345,590.7007,279.0261,584.1649,-448.0118,-225.3680
5607.8431,-89.8203,593.1799,268.7869,573.7183,-450.5573,-161.5802
5627.4510,-84.9714,590.7064,272.0717,603.1881,-436.1886,-94.3136
5647.0588,-104.6857,567.1786,180.8669,592.5800,-500.6654,-18.5526
5666.6667,-120.0753,567.6944,118.0070,600.2690,-507.0336,38.6293
5686.2745,-116.7038,568.1702,86.8803,598.5673,-490.6240,58.4464
5705.8824,-132.1894,565.7040,52.9774,588.2751,-491.0518,57.6068
5725.4902,-124.6065,570.1569,71.8539,595.6036,-503.7577,85.3800
5745.0980,-151.1164,569.6793,54.8870,579.3475,-472.0097,79.6041
5764.7059,-154.5085,564.1926,40.9101,587.6143,-465.7152,116.4674
5784.3137,-165.2173,558.7539,34.9335,567.3585,-492.9841,108.5206
5803.9216,-190.5148,538.1938,28.9197,540.5139,-503.7896,108.4349
5823.5294,-186.2728,537.7244,33.8110,515.3975,-506.9621,92.5308
5843.1373,-216.4372,533.2289,31.9958,454.5445,-511.6769,82.5449
5862.7451,-147.2868,571.6671,163.8789,565.3171,-363.9008,188.4831
5882.3529,-117.4375,552.2745,164.0804,564.5031,-369.7429,160.5493
5901.9608,-127.3214,529.7693,151.8181,565.3394,-382.9076,124.4424
5921.5686,-144.3600,517.1730,154.0366,565.4609,-408.6945,99.5574
5941.1765,-146.3947,505.7556,133.8047,565.3624,-422.9154,88.4539
5960.7843,-10.2950,563.2100,305.1927,713.4293,-281.8508,218.5692
5980.3922,-32.4579,563.7046,266.7837,647.4016,-298.8854,163.5234
6000.0000,-37.2151,571.1602,245.2201,669.5131,-303.7441,144.5013
6019.6078,-24.5638,566.6798,246.6988,686.4099,-276.9961,168.4079
6039.2157,-30.1996,589.2156,226.1921,675.5053,-311.8507,157.6081
6058.8235,-36.5400,574.7867,235.6040,673.4321,-324.8727,131.4119
6078.4314,-32.1400,600.3144,222.2210,671.4352,-355.8438,124.5376
6098.0392,-60.5899,578.7519,214.6679,677.4909,-377.7901,91.3890
6117.6471,-26.1267,615.2208,311.3000,777.4693,-250.8806,102.6656
6137.2549,6.2217,614.6774,282.5409,742.4966,-286.7732,93.3859
6156.8627,-62.9782,591.2214,237.3614,694.4491,-343.8575,22.5634
6176.4706,-84.6868,570.6235,213.5030,682.5566,-388.8923,-9.5220
6196.0784,-90.0383,565.2355,209.3405,688.4227,-375.8136,-27.2277
6215.6863,-125.7687,543.6249,176.5299,684.5336,-419.7131,-59.6027
6235.2941,-154.8535,468.2128,151.4383,676.3964,-441.8826,-114.2451
6254.9020,-163.8712,457.6772,147.4560,677.5571,-450.7555,-143.6454
6274.5098,-154.7966,466.2366,135.4428,687.2953,-452.8332,-150.1984
6294.1176,-161.9387,457.6670,136.3620,684.5572,-479.8301,-162.6569
6313.7255,-148.7765,456.3120,139.4946,665.3426,-490.8986,-151.1791
6333.3333,-135.0172,466.5981,164.3827,663.6030,-482.6617,-149.5914
6352.9412,-137.7913,447.2154,150.4656,703.3362,-451.9791,-153.1733
6372.5490,-61.9640,444.5666,196.2899,780.5807,-377.6688,-89.6145
6392.1569,-29.7094,471.2310,219.6256,792.3377,-333.0063,-45.1110
6411.7647,-17.0157,477.6743,208.2750,803.6407,-322.7607,3.1972
6431.3725,8.2410,487.3000,217.5948,817.3391,-286.8685,35.7785
6450.9804,3.8060,492.5684,192.2067,791.6404,-292.7767,50.2285
6470.5882,36.2624,484.3328,226.6234,843.3249,-240.9419,83.7193
6490.1961,28.7412,476.6593,212.2113,820.5834,-267.6111,78.2637
6509.8039,40.2838,476.3954,216.6988,833.2634,-256.0489,95.8083
6529.4118,65.6022,474.6627,231.2428,854.6699,-245.7353,105.1612
6549.0196,76.3787,472.2621,255.7245,871.2640,-221.0714,116.8241
6568.6275,131.5718,478.6279,317.2137,918.6767,-173.7597,160.2454
6588.2353,122.4182,481.3796,308.7264,897.2554,-214.0838,133.8157
6607.8431,120.6060,479.6135,331.1539,903.7288,-189.7074,116.2173
6627.4510,150.4197,480.3932,356.7370,944.3289,-178.0071,150.8028
6647.0588,148.5344,473.4790,366.1060,946.6481,-188.6037,138.2238
6666.6667,148.4677,475.4330,371.8300,951.3118,-155.0539,140.8682
6686.2745,336.5970,540.5344,564.0872,1128.7273,41.2830,322.2390
6705.8824,339.5843,542.3341,584.9413,1137.3119,44.8575,333.8297
6725.4902,315.5593,544.5049,566.1255,1105.6812,29.2675,310.1654
6745.0980,301.5722,535.3884,571.8528,1121.3710,39.8185,316.8531
6764.7059,311.5551,535.5580,573.9935,1117.7004,27.3086,327.2712
6784.3137,305.5740,536.3818,580.9896,1100.2759,12.6798,300.8779
6803.9216,312.5240,534.5621,601.0599,1115.7439,3.2592,270.1670
6823.5294,291.6846,531.4150,572.9966,1109.3466,-12.0440,243.8922
6843.1373,289.5051,534.5602,598.9706,1121.7550,-16.6364,251.1747
6862.7451,284.6023,529.4282,591.9689,1128.3419,-24.0910,256.8357
6882.3529,293.4636,524.6238,588.0219,1133.7760,-39.5922,257.2230
6901.9608,252.6744,509.3920,585.0620,1120.2413,-80.9719,216.8244
6921.5686,247.4500,503.5934,594.9265,1133.7789,-88.5771,195.2175
6941.1765,226.7046,478.4249,568.0698,1126.2413,-127.1334,177.8169
6960.7843,220.3256,504.5876,577.9037,1128.7546,-116.5652,157.2437
6980.3922,205.7031,473.2886,574.0385,1130.2848,-117.0827,162.8338
7000.0000,190.3625,477.5970,556.8699,1103.7455,-128.5890,150.2156
7019.6078,177.5975,462.3564,545.0190,1106.2507,-160.1811,129.7340
7039.2157,131.3090,447.4682,518.9605,1068.6870,-189.6017,84.1958
7058.8235,106.6169,447.2826,528.0208,1071.3002,-221.2136,61.7937
7078.4314,83.3330,441.5147,503.8924,1042.7074,-251.4812,30.2597
7098.0392,102.6334,446.2783,545.0283,1079.2560,-222.1099,44.6597
7117.6471,77.3798,440.5310,504.8646,1051.7902,-248.4048,17.3296
7137.2549,78.6320,446.2672,514.0543,1055.2169,-243.1238,10.6722
7156.8627,59.3617,429.6124,499.8829,1051.7991,-266.5452,-6.5386
7176.4706,103.6008,437.3141,537.0073,1115.2806,-226.0834,29.6325
7196.0784,111.4781,445.5199,550.9099,1129.7937,-231.5287,34.3751
7215.6863,125.5855,448.2293,566.0353,1126.1804,-215.1612,35.6378
7235.2941,107.3834,442.5548,561.9774,1129.8113,-223.4139,23.3422
7254.9020,118.6107,446.2263,566.0276,1128.2523,-221.2985,17.6218
7274.5098,123.4444,446.5437,589.9263,1143.8015,-215.5289,26.3948
7294.1176,147.5446,447.2016,616.0632,1169.1910,-171.2228,33.5635
7313.7255,155.5535,446.5614,627.9596,1159.8726,-144.4321,36.4946
7333.3333,131.4706,445.1942,608.9978,1139.1354,-147.1832,31.5074
7352.9412,144.5074,441.6140,615.9492,1158.9077,-145.5087,32.5116
7372.5490,127.4625,447.1588,630.9579,1135.1893,-154.2039,31.4601
7392.1569,128.4982,439.6477,611.9660,1131.8313,-180.4880,11.5515
7411.7647,132.3908,443.1617,618.9007,1136.1499,-175.2289,18.4581
7431.3725,125.5572,449.7682,596.0806,1136.8794,-178.2746,54.6183
7450.9804,116.4510,452.2455,562.8724,1104.1331,-202.3734,60.4256
7470.5882,98.6341,452.7757,549.0990,1111.8893,-146.3102,66.6221
7490.1961,78.3599,446.0917,509.8733,1076.1527,-187.3106,26.2856
7509.8039,56.6566,447.6692,499.0821,1057.9695,-201.4022,8.6892
7529.4118,59.2971,442.0912,499.8798,1073.0654,-184.2676,8.2546
7549.0196,62.6654,441.7349,488.0638,1048.9226,-219.3125,12.7683
7568.6275,37.2472,448.0238,460.8485,1004.9940,-249.4646,-44.6227
7588.2353,32.7613,444.7438,480.2059,1033.0099,-241.1602,-23.0258
7607.8431,28.2553,447.0000,474.7806,1017.9634,-265.4512,-44.6718
7627.4510,36.7913,441.7950,476.2411,1032.0614,-249.2292,-29.0084
7647.0588,46.2342,438.0303,497.6992,1038.0464,-250.3714,-29.7454
7666.6667,67.9331,448.7797,529.2510,1062.9862,-212.2383,-15.9986
7686.2745,74.1473,455.0517,529.7230,1051.9956,-227.4263,-14.8283
7705.8824,83.8917,463.8830,547.2810,1074.0562,-215.2737,-18.9583
7725.4902,93.1143,471.9066,563.6896,1067.9045,-215.4130,-18.9024
7745.0980,99.0009,471.8646,570.2910,1074.0887,-211.0901,-11.8558
7764.7059,121.0191,478.9942,571.5312,1088.9600,-185.4691,7.9606
7784.3137,118.0797,475.0452,589.4128,1105.1398,-182.1905,1.0298
7803.9216,114.0040,474.9843,593.5831,1094.9349,-181.5599,-9.9567
7823.5294,146.1093,487.9969,650.4554,1130.1921,-127.0408,2.0930
7843.1373,149.8606,482.8973,645.5198,1116.8502,-128.4358,5.8375
7862.7451,149.1535,486.0454,653.5526,1111.2246,-127.0120,4.1632
7882.3529,146.8206,496.7690,655.4266,1120.8624,-125.6161,-3.0212
7901.9608,149.2158,492.0450,656.6485,1116.2882,-133.9818,-9.6133
7921.5686,153.7168,494.7437,689.3817,1123.7681,-121.4804,3.7184
7941.1765,132.2443,475.1939,657.6863,1097.3251,-163.0395,-17.6041
7960.7843,132.7853,475.8291,670.3647,1098.7152,-157.5984,-8.1577
7980.3922,141.3902,460.1644,692.7357,1100.3022,-154.0458,-5.4759
8000.0000,127.6152,443.6685,670.3013,1099.6624,-150.6223,-21.1623
8019.6078,123.4246,446.1275,689.7666,1099.3600,-155.9859,-29.4472
8039.2157,128.5463,439.6591,689.1865,1100.6069,-135.5536,-18.3192
8058.8235,122.4933,439.2071,691.9007,1095.4755,-157.9278,-29.3951
8078.4314,92.5711,424.7225,684.1409,1074.5787,-160.7297,-62.2701
8098.0392,79.5401,422.1911,684.9288,1060.4519,-164.8997,-96.3811
8117.6471,67.5255,432.6341,668.0355,1066.5680,-167.7558,-105.3425
8137.2549,69.6638,434.3159,664.9539,1046.5143,-164.8758,-118.3435
8156.8627,80.3816,435.5763,688.9823,1076.5834,-155.7539,-101.4961
8176.4706,81.6465,442.3001,673.0410,1060.5286,-123.7286,-107.2264
8196.0784,69.3949,447.4630,668.8679,1044.5453,-118.8105,-124.4370
8215.6863,74.7479,450.4504,667.1614,1039.6044,-139.8843,-148.1856
8235.2941,62.2454,448.4203,655.8024,1042.4250,-127.7987,-169.5076
8254.9020,62.7379,454.4617,659.2154,1045.6504,-122.7964,-177.1985
8274.5098,74.2672,462.4660,664.7298,1055.3914,-93.6872,-173.5712
8294.1176,85.7842,477.5114,675.3162,1065.6681,-73.7705,-176.1496
8313.7255,93.2301,471.3745,677.6577,1067.3701,-56.7394,-207.5813
8333.3333,69.9370,480.5248,660.3230,1042.6543,-90.8078,-250.0690
8352.9412,57.1245,475.4836,651.5952,1044.4106,-109.6860,-277.6775
8372.5490,57.9201,479.5628,662.4567,1044.6490,-97.7875,-263.1136
8392.1569,53.0928,502.4418,659.5380,1046.3352,-95.7067,-262.7550
8411.7647,76.9846,501.6162,683.5371,1061.7227,-48.7761,-236.0373
8431.3725,69.0888,511.3539,672.4704,1046.3070,-49.7967,-225.8119
8450.9804,54.0320,506.6141,640.6001,1032.8190,-66.6853,-219.0224
8470.5882,61.9479,519.2743,656.4933,1037.3271,-56.8156,-186.7264
8490.1961,69.1184,515.5814,642.6030,1046.8240,-32.5479,-196.9855
8509.8039,92.9981,531.3364,657.4039,1059.2449,-19.8639,-165.7508
8529.4118,96.1258,529.6793,657.7249,1063.7688,3.1149,-158.9741
8549.0196,106.8681,536.2782,666.3337,1077.2415,8.9895,-150.8172
8568.6275,109.0877,553.7153,678.6813,1070.9069,0.2862,-165.8671
8588.2353,80.8511,533.2757,652.3058,1040.1909,-38.9230,-199.8976
8607.8431,68.2398,540.6574,662.8261,1048.8627,-33.6001,-207.8550
8627.4510,95.8772,538.2310,675.2219,1061.1434,-30.8344,-176.8939
8647.0588,100.2063,550.7802,674.7811,1070.9548,-23.5329,-157.9033
8666.6667,97.8376,548.1484,690.1062,1074.1184,5.8939,-148.8702
8686.2745,87.1692,560.7368,686.8631,1046.9458,-25.4927,-166.8156
8705.8824,79.7865,558.2344,678.1492,1044.1847,-47.9251,-172.9105
8725.4902,69.3044,549.6609,673.9178,1033.9686,-42.5414,-170.8237
8745.0980,68.8254,563.1854,672.0142,1035.0813,-49.9196,-167.9003
8764.7059,46.3211,561.7636,659.9932,1035.9435,-55.6682,-184.7736
8784.3137,53.7643,561.1853,661.0374,1044.1464,-60.8578,-165.0079
8803.9216,82.2511,580.8171,700.0054,1058.0240,-31.6053,-113.8207
8823.5294,79.7286,573.0969,693.9176,1043.0311,-25.8682,-110.9349
8843.1373,48.3317,576.8484,671.1302,1017.9392,-58.5163,-127.7877
8862.7451,47.7790,581.2035,664.9721,1020.0955,-31.9898,-125.9199
8882.3529,34.2836,577.8494,655.1298,1010.9476,-68.5870,-148.7973
8901.9608,28.7547,592.1294,663.8511,1016.0522,-32.8508,-130.9120
8921.5686,18.2470,593.7484,641.1953,996.9711,-62.6866,-158.8643
8941.1765,14.7017,590.1409,629.8117,998.0311,-70.8979,-169.9086
8960.7843,17.2500,595.7360,640.1287,989.9781,-45.6375,-156.8669
8980.3922,7.7525,600.2457,622.8743,980.1332,-68.9109,-179.9747
9000.0000,-8.5914,597.7200,604.2012,980.8992,-36.6831,-195.8796
9019.6078,4.7794,627.2409,622.8559,983.0801,-5.9096,-185.0003
9039.2157,-26.6256,609.8034,596.2121,963.9770,-65.5638,-205.8222
9058.8235,-26.1585,609.1958,597.8103,957.0930,-55.9845,-210.9058
9078.4314,-46.6492,612.7780,600.2406,937.9824,-64.7050,-225.8307
9098.0392,-46.1592,613.1764,597.7967,940.0569,-87.9081,-238.9496
9117.6471,-55.6094,610.7834,585.3134,928.9002,-88.5623,-242.9561
9137.2549,-62.0388,613.1912,571.7891,924.1313,-96.8592,-252.8971
9156.8627,-107.5856,597.6915,547.3035,905.9669,-123.5727,-281.9617
9176.4706,-106.0187,594.1627,554.7761,917.1660,-121.7754,-291.8715
9196.0784,-103.6467,599.6556,552.2679,908.8763,-123.6146,-299.9845
9215.6863,-110.9677,599.3146,564.7346,907.1296,-128.7522,-285.9370
9235.2941,-97.7098,605.7683,564.2972,927.8592,-118.8251,-267.9275
9254.9020,-102.9889,603.3093,555.7441,913.1568,-124.7886,-277.8620
9274.5098,-120.7352,596.6442,556.2820,912.8818,-122.7805,-286.0596
9294.1176,-122.0006,601.3317,568.7230,919.1692,-115.8155,-290.8118
9313.7255,-108.6990,602.7496,552.2725,927.8201,-95.6846,-283.0623
9333.3333,-110.8973,615.2613,564.7205,933.1684,-89.7622,-283.8656
9352.9412,-114.8419,606.6984,558.2150,926.8083,-98.7812,-306.1133
9372.5490,-124.9060,612.3060,558.7870,921.1872,-94.7480,-298.7979
9392.1569,-82.7961,623.5674,566.2188,954.7368,-40.8470,-247.0202
9411.7647,-61.8371,642.2988,580.7926,990.2446,0.2153,-215.7500
9431.3725,-39.8201,658.6474,589.1627,1000.8050,38.9511,-174.0953
9450.9804,-58.8196,651.4296,566.8260,972.2374,6.1342,-199.7465
9470.5882,-73.9393,633.6152,545.1722,952.7136,-10.9493,-205.0686
9490.1961,-79.7708,631.4323,542.8030,947.2675,-32.5333,-219.7018
9509.8039,-75.9715,620.5051,539.1989,958.6873,-5.9523,-209.1229
9529.4118,-81.7094,623.3509,538.8212,946.3217,-33.5931,-211.6153
9549.0196,-89.0753,621.4682,516.0963,930.6940,-37.9225,-222.2375
9568.6275,-95.7095,621.4086,511.8842,932.3846,-46.4536,-243.6456
9588.2353,-101.0465,616.4689,508.1744,928.5748,-58.9534,-252.1996
9607.8431,-91.6853,622.4359,509.9707,936.4654,-68.5076,-251.5359
9627.4510,-113.1665,621.4018,492.1072,909.5311,-102.9577,-277.2661
9647.0588,-135.6417,619.4904,496.8817,904.5065,-96.4579,-283.5749
9666.6667,-125.1469,624.3450,511.0201,939.5293,-89.0058,-280.3241
9686.2745,-94.5601,627.6444,540.0458,955.5491,-37.3589,-247.4363
9705.8824,-55.2239,657.4248,569.0458,982.5126,-7.2549,-207.2892
9725.4902,-47.5201,651.6896,581.9871,984.5262,10.3674,-202.4987
9745.0980,-26.3236,667.3149,612.9847,1003.4360,36.6652,-161.4224
9764.7059,-2.4666,687.6606,628.0634,1001.6080,31.4043,-156.4302
9784.3137,-0.3999,664.2916,637.0013,1009.4058,34.6510,-140.4578
9803.9216,27.5425,687.7044,666.1262,1016.6028,61.4138,-126.3307
9823.5294,24.5271,689.2540,672.9195,1017.3332,85.5659,-127.4148
9843.1373,48.6119,698.6761,698.1154,1042.6373,128.6082,-86.2958
9862.7451,111.4860,717.1941,747.8300,1070.3787,202.5350,-45.4412
9882.3529,100.6268,719.7481,751.2379,1072.7155,185.5199,-66.2621
9901.9608,98.3552,719.1375,752.8806,1063.2162,187.3862,-67.4979
9921.5686,84.6531,716.8102,751.2874,1042.7290,178.5801,-73.2586
9941.1765,94.3229,723.0696,801.7902,1057.2869,185.3709,-68.5383
9960.7843,111.8296,725.9643,808.3072,1053.8068,197.6599,-65.1709
9980.3922,91.2772,721.0358,810.7300,1042.1582,190.3535,-67.5712
10000.0000,81.7919,713.9207,792.3129,1027.8531,190.7000,-74.1910
10019.6078,43.0628,715.0200,764.6166,987.1597,145.2162,-108.6423
10039.2157,18.8237,711.9777,745.3436,981.9174,126.8818,-121.1972
10058.8235,-6.8227,687.9858,712.5804,954.0173,93.1157,-153.7075
10078.4314,-6.9496,688.0130,712.4664,953.8804,100.8997,-153.1101
10098.0392,7.0248,719.8986,722.6151,969.0558,137.2497,-140.7896
10117.6471,40.9535,716.0410,744.4599,1001.0070,171.8163,-117.0989
10137.2549,61.9061,739.8906,766.5439,1011.9289,185.1065,-89.7506
10156.8627,63.0212,739.1019,777.5569,1016.9909,202.9257,-78.0670
10176.4706,72.9192,740.8400,783.5025,1019.9794,206.0566,-66.7700
10196.0784,80.1107,749.0806,773.5906,1022.0521,232.9303,-61.0608
10215.6863,82.7938,750.8979,777.3849,1037.9592,228.9782,-63.7869
10235.2941,109.1385,755.2519,802.6703,1036.0736,248.0748,-40.0159
10254.9020,106.7283,765.7577,797.3873,1042.8217,242.9368,-43.8162
10274.5098,88.1892,761.2608,779.6388,1024.0994,216.1908,-60.9864
10294.1176,77.7139,754.7830,774.3841,1017.7718,212.9281,-64.8490
10313.7255,101.3047,772.2343,797.6583,1026.2169,252.1016,-51.9049
10333.3333,121.6681,783.7170,806.2990,1031.8417,255.9736,-38.9626
10352.9412,124.3584,781.3838,805.7236,1035.2010,294.1439,-0.8078
10372.5490,119.6323,778.7104,798.2480,1026.7847,260.9690,-24.8936
10392.1569,95.4588,776.4566,776.7307,991.2180,221.1324,-38.8918
10411.7647,102.5457,779.6666,782.2984,995.7354,233.8146,-33.9703
10431.3725,90.5391,777.4877,763.7642,1001.2977,237.3487,-34.8448
10450.9804,88.5865,780.6219,749.2221,989.7019,249.7498,-30.9704
10470.5882,106.4876,783.4846,757.8475,1016.2851,268.2253,-23.7519
10490.1961,105.4330,779.5947,765.2246,1014.6860,263.7138,-30.9894
10509.8039,83.5342,780.5383,734.9189,982.3420,227.3520,-47.7618
10529.4118,79.4045,777.5699,727.1639,974.6868,212.7200,-61.0725
10549.0196,76.6218,778.5845,712.9598,976.3583,209.4431,-52.7752
10568.6275,63.3219,779.5267,705.1472,962.6476,182.7292,-65.9889
10588.2353,64.5952,777.6207,687.9619,952.3498,193.2837,-63.7045
10607.8431,51.3503,778.4999,672.0684,921.5458,151.6427,-100.0959
10627.4510,32.6928,775.6654,687.0153,940.3544,165.3085,-105.7007
10647.0588,56.2802,782.4465,690.0229,946.5403,185.7388,-82.9975
10666.6667,59.7088,780.6633,689.9576,939.3945,190.4843,-73.7401
10686.2745,66.3195,789.3751,714.0502,955.5925,215.6874,-46.0242
10705.8824,54.7791,789.6317,684.0242,942.3590,192.4730,-62.6618
10725.4902,67.2781,785.3729,709.0529,946.5042,221.5803,-36.0919
10745.0980,54.8138,802.7386,689.0239,942.3723,188.5510,-53.7225
10764.7059,64.1248,794.2907,688.0237,920.5006,207.5716,-57.1077
10784.3137,36.8192,780.7396,686.0088,932.4581,185.5047,-63.6525
10803.9216,52.1731,785.3249,696.0255,951.5066,215.6422,-35.1023
10823.5294,63.8223,781.7546,696.1106,928.4275,210.4532,-41.6306
10843.1373,28.1570,780.3362,683.9871,913.4905,196.6087,-61.1382
10862.7451,31.9048,780.7812,683.1218,906.4847,176.5495,-76.7269
10882.3529,16.0690,777.3383,668.9200,899.5123,145.6519,-87.0446
10901.9608,16.8854,781.7916,680.0953,903.4290,152.4941,-83.6391
10921.5686,3.1297,781.2962,668.9094,905.5124,134.4963,-90.0623
10941.1765,-5.9496,771.7060,659.0854,891.4173,124.4997,-96.7198
10960.7843,-18.7527,752.3054,649.9515,886.5045,96.6560,-119.1150
10980.3922,-6.9285,759.7961,658.1107,897.4232,97.3750,-103.6464
11000.0000,-9.8318,769.1812,658.9351,894.4710,98.6215,-110.0522
11019.6078,-10.8857,765.7682,654.1029,884.4288,95.4040,-108.6845
11039.2157,4.0722,781.2582,673.8784,901.4618,92.5076,-96.0717
11058.8235,-5.9070,786.8047,683.1250,900.4893,74.3926,-104.6693
11078.4314,0.0874,786.2181,684.9354,899.5055,62.5590,-102.0957
11098.0392,-2.9232,781.8419,697.0847,896.4321,16.4105,-113.7442
11117.6471,-2.8976,789.1945,691.9857,902.4548,23.6469,-117.0455
11137.2549,-15.8355,779.8578,687.1121,893.4805,-10.2949,-122.8153
11156.8627,-4.8933,795.1523,692.9601,896.4542,-9.1469,-125.9617
11176.4706,-11.8562,797.7440,706.0524,898.5018,7.3977,-121.8302
11196.0784,-26.8953,802.2715,683.9848,891.5640,4.6605,-126.9454
11215.6863,-30.8776,791.7796,693.0381,894.4401,-3.3496,-136.8205
11235.2941,-32.8565,795.1566,696.9999,898.5690,7.7539,-128.9379
11254.9020,-39.8248,790.7809,680.9882,876.3980,-6.4449,-143.7636
11274.5098,-33.8420,795.1648,702.9759,899.5688,11.7307,-132.9367
11294.1176,-18.8235,785.8067,714.0082,924.4437,40.3257,-111.8459
11313.7255,-45.9008,790.2072,700.0783,892.5982,19.8629,-134.9208
11333.3333,-61.8433,787.7894,687.0197,887.3949,10.3193,-139.9231
11352.9412,-73.8559,770.1801,673.0113,869.5712,23.8447,-140.9270
11372.5490,-71.9365,795.7286,676.9091,870.3273,33.2370,-128.8865
11392.1569,-66.7438,784.2645,663.0771,864.5705,43.7952,-101.9009
11411.7647,-54.9096,778.8284,653.9227,858.2894,62.0653,-102.8735
11431.3725,-55.7990,781.2961,649.1360,866.6811,58.9307,-85.7673
11450.9804,-63.8672,778.8130,646.8479,865.2501,55.0148,-87.9384
11470.5882,-32.7836,795.2197,654.1472,881.6708,69.9180,-64.7234
11490.1961,-26.9778,803.8005,656.8966,876.2522,56.0551,-64.9580
11509.8039,-11.7536,806.3292,670.2184,898.7462,90.0894,-33.7416
11529.4118,-6.9822,805.7695,662.8130,868.2546,66.0587,-32.0399
11549.0196,-25.7841,810.3212,655.1932,859.7896,57.1232,-53.6966
11568.6275,-17.9350,807.7376,657.7968,878.1514,85.0262,-34.0906
11588.2353,-22.6400,804.3787,656.1984,866.8096,92.1775,-30.6396
11607.8431,-1.0692,807.7159,677.6819,885.2281,86.9308,-14.1301
11627.4510,21.1101,817.3132,686.2411,889.7708,86.1140,11.2891
11647.0588,17.7831,810.6757,677.6422,886.1738,96.7075,1.6819
11666.6667,-8.6690,807.3995,655.3060,866.8817,53.1568,-33.5679
11686.2745,-17.0259,801.7115,658.6510,869.0945,88.7696,-29.1734
11705.8824,16.2045,806.4296,689.3608,883.8383,93.2509,14.3963
11725.4902,29.7900,808.6381,689.5867,896.0310,124.5697,29.6519
11745.0980,28.2972,802.4806,686.3594,886.9368,124.3700,27.3894
11764.7059,14.7128,801.6569,674.6060,871.9659,97.5983,14.6406
11784.3137,17.2582,791.4137,678.3878,872.9993,125.5383,6.4282
11803.9216,9.7119,793.5145,681.4866,866.0429,110.4314,14.5934
11823.5294,12.3210,792.4343,684.5066,874.9976,91.4828,4.4611
11843.1373,32.6710,808.5530,706.4655,898.9832,121.5120,28.5061
11862.7451,55.3689,808.5241,722.5720,918.0712,153.6700,65.5113
11882.3529,26.6716,808.5241,712.4960,902.8659,149.4378,50.4733
11901.9608,17.3627,806.5629,684.5919,864.0444,106.7186,21.5363
11921.5686,2.6448,809.4919,698.3631,866.9036,87.2529,11.4401
11941.1765,35.4316,812.5524,696.6602,880.1458,127.7853,31.6443
11960.7843,37.5249,815.4221,708.3990,877.7717,124.1460,34.4100
11980.3922,26.5268,813.5743,717.6000,904.2190,159.7938,63.6362
12000.0000,12.5026,810.4252,684.3017,873.8075,108.1015,30.3394
12019.6078,-13.3258,809.6292,674.6381,865.1488,119.8448,19.7824
12039.2157,-13.3739,807.4136,664.2141,861.7515,89.0029,9.2891
12058.8235,-12.2896,811.6486,689.7471,883.2146,110.9533,17.8155
12078.4314,13.4174,808.3746,695.2695,892.7311,154.1099,43.2054
12098.0392,10.6098,814.6606,708.7444,880.3129,135.9614,29.8123
12117.6471,-3.5149,809.3375,684.1744,864.6149,98.9204,12.2184
12137.2549,-0.2861,813.6963,699.7902,868.3354,104.0970,13.8731
12156.8627,-2.5604,812.2877,695.1887,867.6429,112.8467,14.1890
12176.4706,-0.2408,812.7346,695.8247,875.3688,103.0812,11.9047
12196.0784,11.3127,812.2570,724.0657,914.5627,152.7986,43.0788
12215.6863,12.7218,818.7265,713.9669,882.4012,112.3432,25.9087
12235.2941,3.3260,823.1547,708.1157,879.5831,116.6371,29.0740
12254.9020,-6.1129,818.7567,686.9218,863.4409,83.3271,9.9801
12274.5098,0.3091,820.1486,692.0488,864.4664,99.7335,20.9882
12294.1176,-3.0855,818.7861,691.9440,864.4657,90.3982,5.9979
12313.7255,7.2263,826.2454,712.0621,878.5307,125.6999,41.9578
12333.3333,-1.0523,812.8577,716.0368,879.5849,119.5514,39.1189
12352.9412,-11.6935,814.1250,692.9551,866.4781,103.5396,14.0010
12372.5490,-7.9659,824.9752,691.0466,867.6069,115.4688,21.1649
12392.1569,-19.6831,818.0717,686.0002,835.4221,100.4110,5.9192
12411.7647,-23.9639,833.9443,693.1431,850.6025,127.5603,22.0813
12431.3725,-10.7815,828.1448,684.8752,856.3517,157.4409,59.9724
12450.9804,1.0554,818.8997,692.0770,876.6266,173.7603,71.1620
12470.5882,-7.8386,812.0579,658.8514,843.3221,150.3835,57.9301
12490.1961,-21.7611,810.9767,652.1331,845.6330,163.7465,68.1713
12509.8039,1.0624,835.0497,672.7925,854.3219,167.3875,78.9042
12529.4118,6.0974,829.0492,665.1527,853.6324,165.7612,88.1933
12549.0196,9.9706,834.0319,669.8530,872.3187,178.2773,98.8792
12568.6275,18.0576,825.0970,675.1362,875.7272,182.8680,106.2005
12588.2353,10.9274,823.9071,664.8513,862.2380,153.2958,89.8014
12607.8431,16.1067,841.0176,657.1777,840.6875,155.7970,90.2465
12627.4510,20.8304,839.9482,657.7849,877.1706,162.2189,114.8147
12647.0588,52.2004,845.0130,690.2418,880.8043,188.8618,124.3506
12666.6667,60.8262,861.9489,692.7502,893.2064,199.1430,136.8096
12686.2745,9.2151,835.0979,658.3046,857.7737,132.0285,96.3152
12705.8824,4.8622,813.9073,655.8063,842.1805,118.1776,90.7582
12725.4902,8.2481,821.0417,645.1965,850.8016,113.9034,90.2834
12745.0980,12.7759,814.8812,649.7198,857.1137,155.1015,109.7358
12764.7059,22.1885,814.1003,653.2214,866.8791,176.0461,117.3294
12784.3137,24.8128,808.9043,650.6821,873.1605,183.0695,113.7536
12803.9216,-3.6140,779.1820,634.2849,862.8549,169.0798,107.2776
12823.5294,8.7437,780.9052,646.6678,870.0807,188.0789,107.7129
12843.1373,3.3713,788.1421,629.3113,867.8950,206.0679,111.3084
12862.7451,4.7399,788.8369,634.7579,887.1111,232.0215,131.7337
12882.3529,3.3989,790.1437,628.3456,873.9164,224.0227,124.3898
12901.9608,-15.1582,779.8836,615.6854,851.0538,183.0143,82.6856
12921.5686,-9.4939,783.2011,622.2717,867.9194,213.9805,105.2710
12941.1765,4.6922,779.8727,630.7513,872.1350,233.9648,111.7469
12960.7843,7.4256,795.1323,634.2975,875.8974,219.0269,110.2999
12980.3922,4.6707,782.8448,644.7236,882.0615,232.8616,120.8122
13000.0000,5.4557,787.1882,623.2305,865.8409,204.1550,116.3249
13019.6078,-17.2147,777.8711,621.7710,866.1191,181.0153,101.7004
13039.2157,-15.3989,778.2477,633.2986,855.9055,138.0952,92.2820
13058.8235,-10.2757,805.8513,641.7041,848.0988,112.9921,82.7252
13078.4314,1.5083,805.2387,648.2242,856.8824,122.1237,95.2793
13098.0392,-17.2537,811.8073,655.8058,849.0810,123.9291,98.8418
13117.6471,-27.4358,804.2488,621.2405,843.8820,89.9645,74.2503
13137.2549,-29.3419,803.8547,627.7544,857.0526,118.0227,76.8486
13156.8627,-38.3499,798.1225,632.1564,859.8148,117.0744,80.2662
13176.4706,-48.3791,805.8395,618.7811,839.0375,106.8781,55.8649
13196.0784,-39.3400,810.2076,640.1484,856.8586,115.0815,76.2076
13215.6863,-26.3865,805.8409,636.7798,859.1564,127.0206,75.8929
13235.2941,-64.3138,810.2046,603.1962,819.8203,91.0031,39.1962
13254.9020,-88.2887,798.7236,598.7803,815.1555,53.9862,27.8729
13274.5098,-123.3603,777.2499,562.1061,781.7949,26.8934,-2.7257
13294.1176,-102.3517,801.8741,584.8408,806.1054,33.0144,17.9750
13313.7255,-74.3723,803.2431,609.0922,833.7661,66.0246,26.0435
13333.3333,-62.3234,810.8227,610.8658,841.1903,92.0975,44.9296
13352.9412,-69.3939,811.1833,604.0863,836.8168,81.9669,35.0646
13372.5490,-71.4135,805.8622,606.8857,834.2194,71.1299,47.9874
13392.1569,-71.3735,811.1788,615.1153,835.8180,74.9411,42.9527
13411.7647,-57.3645,814.8118,629.8753,839.1462,89.0949,46.0154
13431.3725,-63.2788,814.1460,630.9981,836.7750,85.8389,58.0023
13450.9804,-96.4087,811.8419,618.0003,808.2689,69.2222,47.0637
13470.5882,-100.3310,810.1584,582.0096,789.6699,58.9007,38.9606
13490.1961,-100.3833,808.8727,579.0375,783.2815,68.1663,59.1866
13509.8039,-57.3164,814.1214,602.9907,818.7003,122.7305,106.8348
13529.4118,-43.3160,813.8539,598.9984,841.3047,129.2260,129.1710
13549.0196,-67.3982,818.0799,588.8596,819.6479,118.7531,117.8522
13568.6275,-73.4186,823.7998,563.0720,829.3173,92.2967,122.2980
13588.2353,-73.3633,811.1114,547.8841,812.6256,90.7142,106.7321
13607.8431,-84.3453,813.8784,543.0682,813.2888,83.3759,107.2545
13627.4510,-61.2990,821.0335,559.8721,835.6453,98.7635,129.7000
13647.0588,-63.3355,830.9452,523.1797,822.3938,120.3792,118.3762
13666.6667,-58.3259,834.0983,488.7661,829.6023,106.5921,126.6250
13686.2745,-54.3842,841.8893,465.1556,836.4092,102.2701,116.4164
13705.8824,-75.3692,837.0647,450.7023,835.5728,112.6700,121.6661
13725.4902,-62.3238,830.9762,452.2006,839.3931,104.5082,121.5038
13745.0980,-59.3361,833.0743,456.7331,846.4468,120.4937,121.6095
13764.7059,-63.3076,839.9340,471.1941,835.5055,114.4018,118.5422
13784.3137,-55.3704,843.9860,468.7203,839.4219,99.4442,112.4939
13803.9216,-54.3565,840.9434,461.2738,834.5601,123.4173,114.5767
13823.5294,-67.4487,844.9634,451.6685,833.3734,119.5152,118.4732
13843.1373,-58.3164,854.0413,465.3307,829.5792,119.5385,125.5822
13862.7451,-53.4055,860.0150,479.5672,847.4342,133.4641,126.3384
13882.3529,-64.2650,841.9706,465.3754,833.6662,115.6541,94.6999
13901.9608,-46.4605,859.9991,486.5712,843.3486,126.4206,115.3368
13921.5686,-23.3670,868.9761,513.4061,863.6246,128.6093,141.8034
13941.1765,-24.4667,863.9576,506.4551,848.3383,111.2843,124.2139
13960.7843,-45.3562,845.9765,478.4564,836.6880,91.6907,89.7864
13980.3922,-52.4533,838.9369,485.3955,846.2109,91.3218,92.2005
14000.0000,-51.3035,826.1224,491.4988,845.6846,60.6843,67.8364
14019.6078,-51.4746,823.8515,501.3858,834.2733,61.0836,65.0930
14039.2157,-52.2805,844.0211,488.5068,834.8152,54.8302,62.8668
14058.8235,-62.4228,837.9120,486.4012,839.1389,54.0340,41.1336
14078.4314,-71.2848,826.1498,473.6074,819.7747,31.9152,38.0212
14098.0392,-84.4444,821.8354,472.2694,816.1724,31.0155,13.0261
14117.6471,-85.1789,835.1075,488.5866,831.8281,56.8959,32.0383
14137.2549,-82.4733,839.8705,492.2761,825.0824,58.9649,14.9810
14156.8627,-74.2286,845.0563,499.6793,837.8807,58.0312,21.0268
14176.4706,-63.4628,843.8284,509.2475,843.0693,86.9132,36.9418
14196.0784,-84.1480,840.1016,480.7612,832.8949,60.0449,12.1530
14215.6863,-99.5446,833.8774,489.1643,841.0622,68.9252,5.8147
14235.2941,-95.1987,839.1193,500.7213,844.9556,70.1569,9.1957
14254.9020,-97.5684,834.8605,497.1522,845.9278,60.7891,-15.1195
14274.5098,-88.0807,840.1249,522.7462,852.9653,84.2009,-3.5809
14294.1176,-85.5201,845.7834,534.1713,855.9429,61.8459,-1.0828
14313.7255,-55.1288,852.2197,542.8209,865.0167,103.0508,6.2758
14333.3333,-88.6663,839.8127,526.1185,839.8425,64.8713,-21.1373
14352.9412,-128.0715,841.1371,517.8314,833.0567,63.2873,-65.4940
14372.5490,-132.6959,837.8146,551.1124,809.8889,63.7460,-87.2223
14392.1569,-134.1549,843.1309,568.8789,812.1255,54.1378,-90.4783
14411.7647,-119.6584,843.7696,589.1070,819.7852,47.7454,-87.2705
14431.3725,-134.1316,844.1303,600.8555,819.1482,36.2472,-94.4533
14450.9804,-137.7091,848.7330,604.0211,821.8334,33.7143,-102.4106
14470.5882,-136.0952,841.1565,611.9388,816.2398,40.2227,-85.3519
14490.1961,-156.7536,833.8262,597.0706,780.7279,32.5889,-78.4287
14509.8039,-172.9812,836.1904,591.9189,782.1854,26.2528,-89.3342
14529.4118,-184.7396,841.7723,590.9767,779.7202,30.5970,-80.4811
14549.0196,-180.0601,824.1030,593.0296,780.2475,36.3366,-53.3227
14568.6275,-182.7772,835.8123,593.9893,785.6954,27.7261,-58.5126
14588.2353,-185.0033,827.2467,599.9766,803.3298,30.4584,-47.2441
14607.8431,-167.7541,836.8091,597.0026,789.7104,26.6043,-19.5608
14627.4510,-178.0242,827.2440,604.9775,799.3104,12.3262,-33.2447
14647.0588,-184.8102,821.7430,603.9108,802.6857,20.6795,-19.5957
14666.6667,-185.9489,818.1332,598.0722,790.3826,1.4113,-28.1776
14686.2745,-172.7656,820.7563,610.9412,805.6084,17.5964,-22.5239
14705.8824,-175.8449,826.2393,609.0224,792.3679,26.3671,-30.1565
14725.4902,-185.8513,834.8387,606.9189,797.6174,7.5194,-50.6090
14745.0980,-163.8971,839.1493,608.0679,806.3685,41.4738,-23.0784
14764.7059,-167.8481,842.7935,614.9266,811.5754,58.4723,-15.6739
14784.3137,-172.8114,840.1335,625.0862,801.3566,54.3864,-31.0985
14803.9216,-172.8492,842.8010,612.8474,804.5677,51.4614,-26.6497
14823.5294,-175.7690,841.1157,609.0613,792.4226,54.3973,-46.0393
14843.1373,-164.9248,843.8060,627.8996,797.5593,65.4447,-25.6733
14862.7451,-180.8528,839.1180,607.1296,784.4753,56.5976,-52.0505
14882.3529,-176.8742,842.8221,616.8360,804.5328,68.5016,-29.7189
14901.9608,-154.7088,843.0784,636.1700,805.4519,69.5018,-21.9708
14921.5686,-149.9272,845.8182,630.7976,809.5482,63.4627,-27.7272
14941.1765,-164.7616,845.0510,624.1510,798.4733,50.4790,-46.9824
14960.7843,-163.0205,843.8451,628.8436,805.4891,54.4917,-43.7255
14980.3922,-171.6948,842.0536,627.1922,801.4241,45.4445,-44.9555
15000.0000,-158.0722,843.8622,639.8980,809.5307,56.4641,-39.8346
15019.6078,-164.7060,841.0463,628.1772,803.5250,33.4219,-45.9414
15039.2157,-158.0968,842.8901,633.8223,809.5256,55.6001,-57.8321
15058.8235,-145.6497,843.0139,651.1429,819.4728,62.5083,-44.9197
15078.4314,-157.1217,842.9128,640.8743,809.5281,59.5544,-56.8283
15098.0392,-148.6041,839.0189,646.1644,808.4435,41.5055,-68.9327
15117.6471,-164.1041,841.9431,638.8077,801.4319,40.5276,-78.8498
15137.2549,-152.5483,843.9646,637.1791,806.4872,55.4980,-76.9722
15156.8627,-151.0694,843.9536,643.7884,811.4852,61.5417,-74.8297
15176.4706,-146.5660,842.9440,647.1320,815.5486,55.4752,-88.9235
15196.0784,-148.1217,841.9877,640.8667,810.5012,37.4867,-95.8499
15215.6863,-168.5472,842.9180,631.0901,790.5330,37.5177,-109.9294
15235.2941,-150.1390,842.0098,643.7838,807.4406,35.5305,-106.7982
15254.9020,-154.4649,839.9129,644.0844,803.5268,60.4735,-101.8735
15274.5098,-154.1459,851.1393,655.8105,815.5346,40.5655,-108.8172
15294.1176,-160.5469,848.8277,641.1606,796.5313,25.4604,-115.9631
15313.7255,-167.2294,847.0269,634.7963,792.4868,23.5146,-118.8872
15333.3333,-149.4437,843.8336,646.1438,812.4670,28.5115,-99.9836
15352.9412,-139.2836,850.1992,660.7979,812.4821,23.5339,-91.8368
15372.5490,-148.4229,845.7944,644.0790,811.4786,-0.3732,-103.8833
15392.1569,-154.2132,845.0925,652.9020,807.4650,1.6801,-98.8731
15411.7647,-157.4870,840.8007,633.1377,804.4728,3.3138,-108.9278
15431.3725,-173.2643,841.1413,623.8698,784.5478,-2.2345,-119.8736
15450.9804,-163.4216,832.8248,627.1860,786.4392,-9.3891,-117.9844
15470.5882,-171.3060,837.1948,629.8232,780.5126,-14.2473,-124.7772
15490.1961,-172.3344,825.8453,631.0737,772.4552,-27.5594,-122.8886
15509.8039,-184.3947,821.1580,603.8277,767.5242,-27.1307,-132.8240
15529.4118,-195.3106,822.6733,595.1041,746.4384,-30.4339,-120.0094
15549.0196,-216.3628,811.2485,570.7886,721.5638,-45.0440,-117.8467
15568.6275,-242.2730,809.7307,544.0809,702.4066,-56.4840,-134.9834
15588.2353,-273.4513,782.2975,517.8300,684.5547,-86.1343,-144.7519
15607.8431,-315.3584,779.7353,472.0404,650.4056,-149.4640,-191.9701
15627.4510,-318.4769,777.3563,454.7840,647.5400,-154.1409,-177.8241
15647.0588,-338.3351,755.6974,438.1436,637.3934,-173.5472,-185.9465
15666.6667,-359.5270,753.3730,423.8055,638.6033,-167.0276,-215.8031
15686.2745,-345.2637,761.6331,440.0918,645.3507,-181.6544,-183.0563
15705.8824,-344.5050,756.3767,427.8149,657.6231,-154.9815,-191.7690
15725.4902,-352.1930,754.6551,425.0294,652.3277,-156.5170,-199.0382
15745.0980,-334.5915,754.4117,436.8044,665.6079,-147.9634,-173.7715
15764.7059,-293.2560,780.6301,464.1502,693.2629,-89.6054,-133.0174
15784.3137,-288.6209,770.3321,470.8164,701.6702,-67.0200,-121.8110
15803.9216,-250.2124,791.5364,526.1081,758.3516,10.1194,-91.0172
15823.5294,-217.5176,788.4028,539.8128,775.6189,31.8516,-49.7306
15843.1373,-200.2246,790.5181,567.1661,786.2876,71.1275,-17.0681
15862.7451,-203.6287,790.4106,556.8187,769.6292,51.7690,-32.7391
15882.3529,-211.1353,797.4508,559.1497,770.2047,55.1455,-29.0294
15901.9608,-198.5390,806.4928,565.8055,778.7209,63.8092,-23.6712
15921.5686,-189.1115,799.5849,564.1370,782.2053,22.1088,-13.0623
15941.1765,-192.5989,785.4800,562.8845,775.6721,23.7927,-21.6481
15960.7843,-217.0589,783.5063,551.1428,773.2324,32.1587,-22.0078
15980.3922,-194.6090,780.5291,567.8571,782.6791,28.8277,-17.7382
16000.0000,-157.1350,789.4480,598.1606,809.2591,59.0515,10.8095
16019.6078,-151.6032,804.5577,599.8062,808.8189,66.9046,13.2255
16039.2157,-156.1279,793.4105,599.1352,804.2135,50.0744,5.7716
16058.8235,-145.6552,786.5226,593.8519,807.7330,64.9468,9.2136
16078.4314,-150.0106,798.3631,604.1188,815.2296,63.1872,11.7943
16098.0392,-134.7391,802.5995,631.8724,826.7588,95.7888,35.2624
16117.6471,-151.9875,790.4022,606.1857,806.1328,70.1799,7.7562
16137.2549,-154.6184,796.4911,603.8125,808.8825,65.8313,12.2621
16156.8627,-166.0344,776.4813,591.1245,802.0662,34.0856,-17.1613
16176.4706,-149.6571,793.5182,601.8655,810.8631,59.9246,0.1994
16196.0784,-148.9941,781.4403,597.2021,812.0982,62.0805,10.7469
16215.6863,-157.7541,780.6091,597.8486,811.8640,41.9866,-5.5760
16235.2941,-155.0887,780.4407,597.2148,803.1383,27.0965,-22.0850
16254.9020,-166.7024,778.6299,591.7677,792.8752,28.8554,-26.5724
16274.5098,-165.0276,781.4252,591.1435,805.0779,31.0286,-31.1604
16294.1176,-150.6662,781.6146,602.8149,807.8514,27.9785,-28.5719
16313.7255,-130.9550,804.4373,633.1808,818.0539,60.1225,-14.1957
16333.3333,-142.7176,795.5289,607.7924,807.8759,36.9459,-14.5946
16352.9412,-136.0611,801.4565,620.1915,819.0181,63.1982,-19.2357
16372.5490,-159.7519,793.5443,604.7471,794.8966,41.9697,-45.5231
16392.1569,-149.9777,805.4206,608.1703,793.0066,40.0233,-52.2056
16411.7647,-142.7153,793.5474,610.8141,803.9854,60.7683,-44.5060
16431.3725,-138.0551,811.3779,611.2121,797.0363,70.2178,-36.2470
16450.9804,-124.6806,806.6309,617.7371,811.9731,97.9440,-32.5396
16470.5882,-135.0815,810.3842,615.2256,810.0125,95.1638,-40.2860
16490.1961,-154.6245,814.5781,601.8176,780.9700,54.8413,-63.4686
16509.8039,-150.9904,810.3846,597.2536,784.0048,64.1192,-53.2536
16529.4118,-148.6535,806.6270,596.8278,777.0616,41.9192,-38.5535
16549.0196,-143.0524,814.3630,603.2137,778.9614,59.1043,-22.1966
16568.6275,-149.6301,816.5582,599.7428,781.0072,57.8775,-5.4539
16588.2353,-152.0051,809.4017,594.2320,783.9731,79.2501,18.6722
16607.8431,-168.6302,805.6282,546.7793,735.0504,37.7407,-21.4104
16627.4510,-176.0194,800.4615,546.2461,732.9446,25.2402,-19.3337
16647.0588,-185.6555,798.5027,555.7581,741.0686,4.6870,-16.4961
16666.6667,-172.0624,807.4208,563.2574,748.8683,35.3198,-1.2353
16686.2745,-152.5595,810.5830,585.7609,773.0850,41.8497,13.4545
16705.8824,-151.0727,811.4022,586.2196,775.8283,54.1533,14.5982
16725.4902,-140.6115,814.5491,594.7465,778.1286,57.7976,24.4139
16745.0980,-155.2145,812.4019,576.2598,762.8164,61.1756,20.6222
16764.7059,-166.5653,809.5753,575.7952,765.1487,47.7137,13.4841
16784.3137,-174.1111,809.4302,544.1966,736.8160,32.3339,6.5233
16803.9216,-180.5909,806.5869,550.7741,747.1430,7.6679,-13.4139
16823.5294,-198.1299,802.4843,541.2855,743.7916,0.4248,-19.4061
16843.1373,-194.4802,781.5739,535.7040,738.0795,-2.2087,-27.3658
16862.7451,-191.2081,801.4990,550.2759,745.8536,1.3240,-13.3895
16882.3529,-149.4456,811.5339,567.7709,765.1929,28.6048,3.4648
16901.9608,-150.2170,804.4866,565.2217,772.8094,31.3159,3.4469
16921.5686,-133.5125,810.5331,571.7819,785.1967,34.7038,35.5584
16941.1765,-139.3125,807.4780,571.1796,774.7608,31.3497,18.5300
16960.7843,-124.3930,811.5161,587.6977,780.1824,36.6452,14.5699
16980.3922,-130.2623,809.4751,582.2379,777.8145,27.4381,11.4704
17000.0000,-141.3936,809.5180,567.7808,756.1620,3.5866,-6.2963
17019.6078,-130.3017,801.5359,573.2490,772.7731,25.4973,-3.3888
17039.2157,-122.3259,807.5224,581.7578,777.2661,49.4908,16.6169
17058.8235,-130.3455,806.5147,586.2421,777.7853,46.5242,6.4035
17078.4314,-124.2715,809.5004,598.7679,786.2296,32.3962,11.6032
17098.0392,-125.4220,808.5088,593.2787,781.6941,33.4290,14.4308
17117.6471,-125.2265,810.4819,593.7922,780.2316,33.4618,1.5597
17137.2549,-117.5145,809.5136,602.2620,789.7766,42.6424,3.3431
17156.8627,-121.2023,809.4775,593.8049,779.2674,30.3770,-1.1842
17176.4706,-124.5149,809.5239,594.2370,779.7120,30.6449,8.3552
17196.0784,-131.0964,808.4727,593.8076,776.2090,27.4980,-2.1721
17215.6863,-131.5162,800.5925,596.1738,778.7197,1.5863,-0.4683
17235.2941,-133.1800,813.4283,585.7947,784.3165,1.4405,-6.1770
17254.9020,-147.6114,803.5810,575.1443,785.6917,-11.0725,-18.6088
17274.5098,-130.0085,807.4585,601.8401,798.3068,20.4420,10.7010
17294.1176,-113.7325,807.5668,610.2451,799.6570,46.6979,18.3510
17313.7255,-116.0424,811.4238,594.8056,778.3346,38.3520,-3.1103
17333.3333,-126.7045,810.5588,594.1945,779.6580,31.6352,-2.5531
17352.9412,-119.9680,812.4098,597.8532,788.2809,54.2891,0.6854
17372.5490,-125.7622,806.5903,586.1657,761.6174,22.6910,-18.6809
17392.1569,-124.8831,813.3936,590.8198,776.2792,51.2001,-2.0521
17411.7647,-128.7961,821.5023,594.1722,776.6868,50.7151,-4.6203
17431.3725,-105.8054,825.4734,610.8781,791.3737,94.2642,28.7949
17450.9804,-129.8422,815.5468,590.1490,765.6367,54.6722,-2.6388
17470.5882,-151.7465,819.3388,591.8196,762.3289,103.2128,3.7948
17490.1961,-158.9991,840.5563,589.1608,747.5997,124.6864,-16.7555
17509.8039,-156.8040,841.3557,621.8400,750.3265,154.1525,-3.9773
17529.4118,-105.9600,868.5457,654.1378,793.5637,231.8871,27.1158
17549.0196,-125.6568,869.3359,632.9114,754.3859,188.2519,-19.0410
17568.6275,-172.0275,862.5886,604.0697,745.6099,195.8164,-16.8137
17588.2353,-163.6466,864.3637,596.9709,752.4371,194.1431,-3.9120
17607.8431,-164.1363,849.6766,593.1172,757.6099,177.8953,1.0136
17627.4510,-153.5086,860.3861,602.9397,764.4667,195.2255,34.9895
17647.0588,-133.2511,855.6386,620.0647,774.5156,162.8142,62.9917
17666.6667,-157.5667,836.3748,599.9238,758.4747,138.1275,55.0225
17686.2745,-166.2341,844.5477,580.0806,745.5693,88.9035,33.0303
17705.8824,-153.3969,841.3389,597.0211,754.4404,114.0489,61.9735
17725.4902,-150.2461,839.5837,590.0178,753.5281,104.8859,58.0282
17745.0980,-158.4549,842.3287,581.9778,760.4601,87.1355,52.0736
17764.7059,-158.3864,829.6523,589.9977,770.5604,68.8127,52.9643
17784.3137,-158.4022,820.3018,580.0538,771.5063,64.1556,62.0466
17803.9216,-171.3574,811.6074,577.9501,763.5624,62.9196,51.9238
17823.5294,-173.2552,816.3275,569.0200,767.4725,62.1753,52.1404
17843.1373,-175.3818,813.5963,563.9594,747.4893,23.9962,39.9412
17862.7451,-147.2218,828.4103,594.0684,786.4897,69.1670,75.1946
17882.3529,-128.4460,818.5695,606.9392,807.4333,64.9040,90.8428
17901.9608,-139.2168,833.3744,611.0995,802.4400,63.0375,91.2082
17921.5686,-133.6079,818.5734,614.9332,807.4177,76.9360,101.8734
17941.1765,-148.1117,827.4130,596.0595,780.5079,52.0967,75.2683
17960.7843,-138.6249,833.6438,594.8646,781.4113,59.0086,92.7816
17980.3922,-133.1569,831.3870,596.0835,800.5056,57.9993,90.2734
18000.0000,-132.5676,837.6200,602.8586,792.4349,62.9505,102.6807
18019.6078,-142.0545,822.2766,588.0888,785.5573,24.0941,82.3883
18039.2157,-136.7306,826.6937,593.8459,788.3813,13.9576,85.6634
18058.8235,-142.0121,818.2986,578.1477,778.5745,-7.8407,57.3948
18078.4314,-131.6660,827.6861,561.7525,767.4063,-27.8198,64.6191
18098.0392,-157.0138,831.3805,570.1558,794.5268,1.1267,51.3946
18117.6471,-131.7084,832.6534,582.7409,787.3795,-1.7954,70.6204
18137.2549,-129.8559,826.4134,580.2640,793.5544,-3.6843,58.4759
18156.8627,-140.8404,825.6979,578.7053,800.3643,17.0074,65.5501
18176.4706,-158.9176,813.3303,563.2775,776.5201,-9.8071,41.5315
18196.0784,-141.8686,833.6478,577.7142,796.4396,3.8889,51.5577
18215.6863,-136.8718,834.3590,577.2738,792.5895,3.1038,57.5418
18235.2941,-132.8252,831.6638,592.7501,803.4203,38.8750,58.5615
18254.9020,-159.8323,821.2768,561.2621,789.5314,7.0468,41.6050
18274.5098,-130.8738,827.6908,586.6547,807.3365,32.9623,57.5175
18294.1176,-106.7029,833.3613,599.3094,815.6573,40.0824,84.5361
18313.7255,-119.9742,839.6173,594.6523,811.3771,72.9852,67.4181
18333.3333,-157.7758,815.3112,524.3790,742.5906,-35.8096,24.5752
18352.9412,-202.0610,792.5923,483.5958,720.3917,-86.9055,-41.5492
18372.5490,-267.7644,789.3120,458.3162,683.6194,-128.7641,-76.2689
18392.1569,-321.0597,777.6914,404.6052,645.3441,-204.8125,-138.5696
18411.7647,-309.7501,780.3683,410.3605,644.6404,-193.7129,-132.2028
18431.3725,-313.1379,773.5564,410.5360,655.3932,-175.9441,-124.5116
18450.9804,-333.7098,771.2580,382.3239,634.5956,-187.7953,-146.1280
18470.5882,-344.1155,764.6168,377.5898,625.3462,-211.8296,-156.6220
18490.1961,-317.6428,778.3750,413.4461,680.5790,-161.7558,-118.1708
18509.8039,-294.1726,792.6047,444.5002,692.2823,-139.8815,-95.6501
18529.4118,-235.5652,808.3413,494.4969,717.6143,-73.5937,-45.0571
18549.0196,-204.1906,824.7328,519.5531,744.3876,-18.9387,-8.6406
18568.6275,-199.6287,823.2390,524.5237,734.6597,-29.6164,-15.0875
18588.2353,-196.1188,836.6605,535.4442,739.3562,5.7600,-7.6676
18607.8431,-166.5355,845.2542,569.4880,753.6629,20.2646,14.8771
18627.4510,-180.2408,834.6780,562.5127,751.3688,32.8693,31.1668
18647.0588,-191.5002,844.2559,562.4670,757.5920,42.1534,29.8766
18666.6667,-211.2031,843.6268,552.4083,748.3006,18.8643,-4.7093
18686.2745,-213.4874,845.2450,543.5381,746.6847,14.1744,-0.9100
18705.8824,-235.2101,840.6518,533.4375,719.3607,-6.9547,-46.7495
18725.4902,-223.5535,842.2565,566.5154,760.6630,36.2757,-0.8859
18745.0980,-207.2622,862.6824,563.4205,772.3225,32.8371,1.0172
18764.7059,-201.5307,876.3587,563.6269,781.6374,51.1690,-8.9036
18784.3137,-185.2720,866.6652,560.3604,783.3556,65.8508,10.0478
18803.9216,-213.4413,855.3210,543.6044,745.7151,31.2810,-36.9257
18823.5294,-201.3247,867.6690,554.3867,769.2548,31.7147,-17.9024
18843.1373,-178.5081,862.2675,590.6415,804.6921,60.1662,3.9783
18862.7451,-171.2376,863.7034,594.3319,807.2632,84.8481,3.9560
18882.3529,-165.4350,864.2478,598.6848,819.6575,96.2755,-7.8198
18901.9608,-189.2717,868.6783,590.3047,807.2618,59.6780,-21.8536
18921.5686,-185.4395,857.2878,595.6718,806.6659,64.3619,-38.8649
18941.1765,-186.2920,855.7730,595.2720,822.3452,93.7894,-26.8996
18960.7843,-169.3913,866.2209,594.7231,808.6307,90.4100,-25.7640
18980.3922,-166.2780,871.6817,608.2536,823.3260,101.6499,-11.9493
19000.0000,-178.4684,873.1660,592.6797,807.6516,89.3325,-31.7779
19019.6078,-168.2708,872.6846,595.2327,814.3724,90.7005,-39.0161
19039.2157,-179.4613,873.1552,589.7845,809.7328,91.3078,-41.6960
19058.8235,-171.2520,871.7031,584.2807,809.3461,54.5954,-59.0308
19078.4314,-191.3873,864.2027,561.7405,792.6909,29.4236,-64.7027
19098.0392,-189.2886,865.7488,566.2785,789.3552,19.5743,-84.9615
19117.6471,-235.3945,869.1619,578.7662,810.7150,21.3445,-71.7332
19137.2549,-243.2357,871.7186,606.2200,826.2529,57.6091,-50.0096
19156.8627,-243.4914,869.1516,607.8174,819.6624,59.4114,-63.6772
19176.4706,-231.3101,876.8629,612.1502,823.3088,66.5562,-65.9997
19196.0784,-235.4036,880.2329,612.8154,822.7343,64.4600,-76.7444
19215.6863,-235.2814,885.8152,610.1880,820.2421,77.6946,-80.0998
19235.2941,-235.4087,881.2147,591.8148,806.6740,87.4402,-97.7418
19254.9020,-214.2677,880.8588,618.1902,845.2537,96.4978,-86.0215
19274.5098,-224.4820,873.0937,612.8465,834.7504,94.4516,-92.7029
19294.1176,-217.2437,874.9081,611.1322,833.3605,107.6368,-90.0553
19313.7255,-228.4592,875.2382,597.9214,831.6888,104.5333,-105.6489
19333.3333,-233.2843,881.8708,602.1253,828.3284,95.5887,-126.0368
19352.9412,-215.4062,875.2267,616.8853,843.7045,124.4499,-161.7459
19372.5490,-220.2209,876.9121,607.0906,842.3029,99.5102,-166.0428
19392.1569,-219.3917,889.1290,616.8979,836.7130,93.4004,-168.6641
19411.7647,-216.2344,876.9189,593.1096,807.2382,90.5346,-171.0721
19431.3725,-207.4767,883.1598,621.8878,836.7125,102.3775,-163.6333
19450.9804,-224.3171,869.8074,587.0256,806.2587,83.5253,-195.0953
19470.5882,-212.4525,872.0580,598.9412,811.7000,85.5484,-196.7147
19490.1961,-223.3131,884.8858,598.0690,812.2651,82.4228,-198.1099
19509.8039,-199.5493,875.1953,609.8823,816.7239,68.4935,-197.7288
19529.4118,-215.2085,891.8476,629.0383,818.2780,87.4426,-177.1007
19549.0196,-217.4454,887.1108,597.9874,779.6934,60.4182,-205.6530
19568.6275,-229.2522,881.9181,594.0427,780.2723,63.5928,-205.1446
19588.2353,-198.5745,900.1865,613.9102,804.7028,105.4869,-166.6664
19607.8431,-190.2041,898.8115,615.0482,801.2359,100.5441,-167.0285
19627.4510,-185.5304,902.1701,612.9434,813.6500,101.5578,-154.7266
19647.0588,-189.1996,893.8417,607.9899,783.3357,84.5638,-169.0349
19666.6667,-194.4819,876.1752,595.9523,775.6465,66.5799,-182.7794
19686.2745,-197.1359,882.9128,594.0101,788.2393,96.3617,-183.1124
19705.8824,-182.5703,907.1389,596.9319,803.7239,121.4912,-159.7699
19725.4902,-184.2051,898.8083,592.0590,805.2827,119.5338,-158.0702
19745.0980,-180.5970,910.1218,598.0314,807.6445,123.4695,-140.7878
19764.7059,-174.1113,904.9313,593.9987,806.2675,121.4900,-144.9803
19784.3137,-164.5715,907.1451,600.9504,815.7322,106.6347,-140.7980
19803.9216,-169.1265,913.8681,592.0515,812.2773,106.3884,-147.9845
19823.5294,-154.6464,913.1097,600.9550,818.6774,123.4924,-131.7515
19843.1373,-154.0670,915.8491,601.0353,813.2567,125.4008,-129.9867
19862.7451,-163.6069,908.1492,591.9678,809.7254,120.6615,-143.7217
19882.3529,-159.1614,907.8942,589.9781,808.3542,93.4539,-144.0601
19901.9608,-165.6098,902.1934,577.9990,805.6777,95.5201,-152.7941
19921.5686,-184.1318,903.9150,567.9907,802.3474,89.2847,-152.9786
19941.1765,-155.6856,904.1890,591.9758,829.7160,117.6283,-132.8048
19960.7843,-132.0185,901.9183,610.0190,841.3370,127.3291,-105.9197
19980.3922,-148.6018,902.2129,608.9832,831.6746,119.6085,-120.8748
20000.0000,-139.1009,908.8607,605.0382,836.3114,120.3161,-113.9522
20019.6078,-140.6715,910.1722,608.9779,826.6418,124.6505,-118.8830
20039.2157,-150.0168,909.8409,605.0385,817.3094,93.4012,-128.9032
20058.8235,-152.6131,916.1465,599.9878,813.6445,80.7000,-137.8941
20078.4314,-148.0107,904.8593,585.9702,807.2584,75.2318,-140.9599
20098.0392,-183.7192,904.2397,561.9618,780.6581,53.5914,-154.8942
20117.6471,-190.0103,900.8705,560.9543,781.2750,26.2306,-177.9165
20137.2549,-193.6706,904.2567,542.0352,773.6675,21.6774,-178.9333
20156.8627,-189.9901,902.8406,559.0159,776.3758,26.2166,-186.8267
20176.4706,-178.7843,911.2316,558.9172,804.6869,30.6596,-173.9192
20196.0784,-165.9816,914.7403,594.9766,813.2828,43.2609,-145.8067
20215.6863,-143.7437,928.3047,590.0080,826.6291,67.6347,-135.9540
20235.2941,-140.9766,921.6757,597.0500,816.3522,59.2157,-135.8495
20254.9020,-190.7557,914.2507,553.9200,784.6910,18.6532,-180.0047
20274.5098,-198.8763,908.7396,536.0754,776.3850,3.2071,-201.8633
20294.1176,-211.7879,901.3566,528.8828,767.6443,-4.9545,-204.0526
20313.7255,-190.9077,901.7617,543.9811,786.3172,35.3445,-181.8439
20333.3333,-193.7745,906.3483,539.9330,778.6817,39.6858,-183.0625
20352.9412,-206.9320,896.6062,534.0278,773.3209,28.3254,-201.8250
20372.5490,-201.8858,898.2579,536.8853,771.6896,24.8257,-204.9710
20392.1569,-202.9390,884.6578,546.0624,773.3220,53.2438,-190.7360
20411.7647,-184.8701,902.4241,557.8897,786.6436,56.7789,-168.0109
20431.3725,-155.7895,908.6407,568.0601,815.3803,73.1301,-153.7379
20450.9804,-174.8093,905.4315,572.9421,787.6205,54.8288,-169.0348
20470.5882,-187.8545,905.6339,543.0471,771.3653,23.2417,-187.6801
20490.1961,-210.8849,896.3536,527.8637,750.5928,-9.0186,-211.0645
20509.8039,-187.8365,898.4828,552.0477,783.3817,33.0642,-187.6641
20529.4118,-193.8652,915.4266,553.8480,779.6492,20.9659,-181.1454
20549.0196,-192.7894,912.5275,563.1145,761.3149,26.0521,-182.7406
20568.6275,-183.9446,914.4615,563.9206,759.6624,22.9567,-178.1435
20588.2353,-173.7466,915.4787,570.0527,781.2989,45.0622,-156.6846
20607.8431,-158.9805,914.4917,570.8273,780.6258,57.9716,-148.1033
20627.4510,-172.7349,919.4219,563.1434,776.3984,53.1316,-152.6406
20647.0588,-158.9993,913.5302,582.8414,777.6826,58.8703,-134.1566
20666.6667,-139.7818,909.4543,584.1716,779.3419,88.9787,-108.6018
20686.2745,-145.9561,908.5942,585.8638,803.6725,105.9163,-95.1784
20705.8824,-140.7573,925.4849,593.1787,797.3719,123.0805,-96.6366
20725.4902,-135.0415,925.6803,588.7654,802.5680,121.9041,-91.1675
20745.0980,-132.6453,932.4059,589.1863,805.3431,128.0903,-87.5637
20764.7059,-142.0185,931.6747,572.8338,802.5615,123.8895,-82.1306
20784.3137,-143.6991,933.3676,577.1775,808.4153,95.9221,-83.5206
20803.9216,-145.0134,931.7073,576.8260,797.6548,93.9406,-85.1632
20823.5294,-145.6692,928.3639,571.2429,792.3592,74.0219,-84.5116
20843.1373,-130.9759,934.7217,587.7386,809.6680,63.9922,-77.2520
20862.7451,-138.7059,924.3519,578.1779,800.3235,63.0536,-73.5633
20882.3529,-133.1181,930.7817,577.7634,801.5811,69.0535,-69.2048
20901.9608,-134.7084,931.2740,581.2347,801.3064,44.8732,-76.5727
20921.5686,-118.0874,935.7831,567.7871,812.6116,51.1409,-68.2112
20941.1765,-148.6071,923.1282,568.2515,802.4107,26.9128,-92.5383
20960.7843,-129.0333,938.7956,577.7342,803.6605,31.0433,-93.2540
20980.3922,-123.6115,935.1827,577.2523,807.3149,30.8268,-75.5530
21000.0000,-127.0539,936.8446,575.6558,800.5983,20.1370,-83.1977
21019.6078,-112.6664,940.1169,587.2324,828.4048,44.8060,-61.5813
21039.2157,-116.1369,931.9101,600.6599,815.6771,48.1525,-61.1959
21058.8235,-121.6000,937.1036,579.3516,810.3815,29.9067,-87.4868
21078.4314,-142.1258,928.9611,566.6316,798.6356,20.1866,-90.2558
21098.0392,-134.6500,938.0656,569.2803,799.3430,32.7214,-94.5285
21117.6471,-138.1588,934.9565,564.6772,786.6262,22.1885,-114.2806
21137.2549,-119.5904,931.0806,579.3798,817.3662,34.8799,-92.5145
21156.8627,-120.1414,927.0399,581.6694,816.6634,48.2436,-94.2857
21176.4706,-131.5039,944.9578,566.3973,807.3141,28.7339,-106.4731
21196.0784,-123.1349,932.0366,580.6790,809.6711,38.2047,-100.3289
21215.6863,-153.5031,936.9817,563.3738,802.4040,27.8271,-118.5514
21235.2941,-142.1636,923.9503,568.6375,817.6434,60.3247,-114.2917
21254.9020,-152.5033,911.9525,562.4174,802.4004,51.6382,-129.4953
21274.5098,-147.1388,910.0681,570.5689,813.6041,49.4198,-124.2258
21294.1176,-144.5488,911.9226,561.3386,796.3884,28.6436,-138.5548
21313.7255,-149.1329,903.1405,573.5916,813.6042,41.3552,-125.2324
21333.3333,-153.4866,920.8379,560.3791,800.3058,24.6767,-144.4701
21352.9412,-152.1200,902.1749,563.6176,794.6046,23.4483,-142.3377
21372.5490,-119.5508,918.8254,586.3904,818.3274,39.5293,-120.5696
21392.1569,-133.2433,925.0513,582.5570,804.6636,21.5053,-140.3194
21411.7647,-143.5400,913.8322,559.4360,774.3068,3.6345,-147.4929
21431.3725,-144.1726,920.1064,577.5632,801.6006,30.4979,-140.3134
21450.9804,-152.4851,911.8231,576.4562,804.3420,35.5438,-143.5986
21470.5882,-115.2158,923.1094,601.4789,833.6037,70.5489,-115.2807
21490.1961,-119.5487,930.8425,606.4750,834.3734,68.5397,-125.4922
21509.8039,-143.1822,926.2784,594.5424,793.6427,19.3965,-149.2345
21529.4118,-166.5389,921.7131,569.4356,780.2946,-7.3850,-158.5783
21549.0196,-163.1989,905.2695,573.5153,775.6291,25.5506,-150.2346
21568.6275,-164.5488,903.8110,582.4468,780.2864,27.5815,-145.5013
21588.2353,-154.1099,905.2906,570.4662,785.6887,47.4514,-124.1912
21607.8431,-160.5761,919.6877,565.4514,762.2570,33.4610,-139.5960
21627.4510,-177.2518,900.1748,538.5027,750.6267,14.6654,-145.1940
21647.0588,-180.5916,896.6550,538.4999,740.3055,24.4648,-153.5604
21666.6667,-167.1630,906.3232,552.4718,763.6411,13.6136,-130.2131
21686.2745,-159.5768,907.7371,563.5443,784.3193,34.5128,-97.5811
21705.8824,-135.2101,912.2991,581.4938,803.7425,64.6024,-72.2184
21725.4902,-151.4808,909.7124,561.5009,787.2624,55.5010,-83.4890
21745.0980,-170.1310,901.3822,538.4752,774.6899,19.5587,-114.2256
21764.7059,-175.4763,898.7718,538.5533,763.3474,15.4519,-112.5517
21784.3137,-167.1371,906.3624,549.4042,770.6572,22.6487,-110.1860
21803.9216,-161.5630,902.7373,545.6174,771.3144,21.3447,-102.6157
21823.5294,-157.1983,902.3981,546.4688,782.6699,22.6640,-100.2486
21843.1373,-157.5971,904.7140,550.6080,775.2313,16.2966,-91.5546
21862.7451,-161.1812,901.4097,542.4349,779.7241,1.6674,-88.1801
21882.3529,-163.5739,902.7157,545.6339,781.2250,2.2686,-91.5690
21901.9608,-174.0981,901.4158,538.4085,778.7493,-1.1588,-94.2133
21921.5686,-142.5692,903.7016,572.6161,810.2790,34.4009,-58.6179
21941.1765,-127.1066,915.3287,572.4036,815.7813,34.7242,-47.1703
21960.7843,-126.5314,908.6659,568.6226,813.2170,25.1986,-43.5282
21980.3922,-167.1341,905.3950,546.3889,782.6826,-38.1024,-82.1370
22000.0000,-171.5367,883.6601,540.6979,779.2499,-50.4918,-90.5697
22019.6078,-167.1242,897.2844,537.3873,781.7086,-66.9584,-85.1521
22039.2157,-143.5725,903.6959,563.6773,807.2084,-31.4682,-54.5885
22058.8235,-117.1479,904.4054,580.3732,818.7369,-31.0831,-29.1841
22078.4314,-136.6231,906.6746,559.6877,805.2438,-55.5348,-48.5489
22098.0392,-143.1196,909.3709,561.2841,790.7831,-66.0684,-62.1379
22117.6471,-147.5643,906.6771,563.7136,806.2208,-59.4829,-60.6266
22137.2549,-148.0800,905.3975,556.2885,798.7584,-52.9328,-60.2484
22156.8627,-139.6215,905.6847,563.7308,807.1962,-34.5537,-44.5262
22176.4706,-139.1363,908.3752,570.2338,809.7878,-31.0616,-35.2264
22196.0784,-144.5976,901.7131,565.6923,804.2516,-41.5609,-47.5402
22215.6863,-140.1300,917.3123,572.2743,814.6873,-27.1258,-26.1810
22235.2941,-138.6383,915.6256,578.7114,815.2881,-22.5299,-19.6092
22254.9020,-134.1605,915.3226,571.1620,815.7917,-8.9694,-24.1709
22274.5098,-135.6635,906.6896,571.8066,813.2022,-27.5660,-24.5092
22294.1176,-138.1309,910.3472,561.1819,807.7014,-29.9663,-36.2542
22313.7255,-141.6340,907.6898,564.7775,809.2755,-32.5977,-32.5544
22333.3333,-146.0774,905.3710,567.2349,810.7644,-41.1257,-34.2543
22352.9412,-129.5728,913.6588,575.8506,833.3070,0.2132,-29.5243
22372.5490,-140.1104,905.3622,574.1394,821.6736,-3.0717,-37.2840
22392.1569,-133.6930,908.7001,572.8372,815.2896,0.2258,-26.4890
22411.7647,-130.0239,909.3287,576.1885,816.7710,6.7714,-42.1999
22431.3725,-132.5611,902.7484,569.8209,814.3099,0.2305,-42.4491
22450.9804,-153.0135,895.2441,562.0713,800.7009,-24.9508,-61.2099
22470.5882,-154.5695,895.6395,550.8859,812.2253,-2.6116,-51.4970
22490.1961,-170.0451,889.2692,555.1224,805.7261,-3.9625,-61.2219
22509.8039,-152.5870,905.7524,565.8491,781.2101,-5.4455,-64.4363
22529.4118,-152.0177,897.2014,574.0475,784.7505,3.6791,-55.3292
22549.0196,-150.5999,897.6517,577.9002,772.2706,-2.5905,-50.4546
22568.6275,-160.1068,898.1828,572.0824,767.7001,-13.1736,-54.3374
22588.2353,-156.7084,893.6914,575.9774,785.2717,0.2634,-42.3876
22607.8431,-136.1114,892.2085,561.9772,784.7377,3.6577,-31.3359
22627.4510,-177.5788,884.7639,535.9142,753.2789,-38.4419,-58.4678
22647.0588,-182.1075,883.2511,521.0143,759.7163,-37.0398,-72.3629
22666.6667,-178.7146,885.7720,531.9270,763.3389,-38.4258,-57.4379
22686.2745,-151.0208,896.1524,538.9679,784.7203,-8.1850,-27.3494
22705.8824,-135.6964,891.7499,554.0641,803.3215,6.4337,-8.3578
22725.4902,-161.1026,888.1865,524.9714,784.7108,-28.1045,-39.4481
22745.0980,-163.6597,887.7948,525.0594,778.3243,-35.5437,-50.3451
22764.7059,-152.0212,890.1559,530.8945,787.6364,-30.0922,-36.4552
22784.3137,-158.6896,889.7994,530.0664,789.3721,-24.3729,-38.3705
22803.9216,-156.1442,882.1888,535.8467,804.6664,-19.1752,-31.4510
22823.5294,-132.5581,886.8365,551.1106,818.3266,4.3047,-6.2637
22843.1373,-155.1597,885.1512,531.8112,781.6031,-8.2580,-23.4262
22862.7451,-153.5552,897.7838,536.0722,800.3199,-25.4238,-32.2724
22882.3529,-154.0301,889.1054,532.8832,789.5645,-32.1150,-25.4645
22901.9608,-151.5621,902.9372,543.1437,816.3923,-32.4020,-13.2520
22921.5686,-137.1479,896.0374,551.8043,824.6122,-26.2372,4.3091
22941.1765,-120.6093,899.9767,567.2226,840.4386,2.4003,22.6244
22960.7843,-131.0520,909.0992,565.7502,830.6024,-14.2294,17.3582
22980.3922,-150.5530,894.8668,533.2339,799.3846,-38.2575,-16.2123
23000.0000,-161.1564,897.9858,538.7588,798.5869,-49.2463,-21.5380
23019.6078,-139.6131,906.9736,546.2571,816.4417,-34.3024,-0.2090
23039.2157,-141.1541,896.9682,551.7309,820.5139,-19.3109,-1.5760
23058.8235,-146.5575,899.0484,545.1904,821.4869,-33.1827,-8.1013
23078.4314,-154.0793,895.9532,536.7679,809.5872,-31.3654,5.1836
23098.0392,-157.6218,888.9694,538.2860,816.4736,-32.2848,-12.0964
23117.6471,-157.2189,896.9233,536.7441,813.4924,-37.2929,-17.7428
23137.2549,-158.6023,893.9581,542.3166,814.5286,-34.2283,-19.1090
23156.8627,-138.2114,907.9955,565.6317,833.4600,-2.3249,-7.7139
23176.4706,-129.4857,900.1077,568.3373,839.4370,7.5757,21.8035
23196.0784,-137.2297,897.8743,565.6123,836.5113,8.3709,11.1256
23215.6863,-134.5807,908.0787,569.3309,832.4656,1.6986,-2.9437
23235.2941,-120.2089,897.8520,566.6857,836.4918,-1.4958,1.0330
23254.9020,-128.4602,900.1522,569.3524,821.5713,-4.1829,-3.9213
23274.5098,-103.1957,908.9215,596.6647,838.4299,26.2513,0.9967
23294.1176,-111.5483,905.1458,580.4290,836.5519,42.6561,10.9556
23313.7255,-115.2768,904.9245,582.5571,835.4706,31.2598,-1.8010
23333.3333,-118.4896,904.1757,584.4538,835.5853,23.6508,0.0444
23352.9412,-104.2214,908.8742,597.6052,833.3715,15.2675,9.9900
23372.5490,-117.4765,905.1933,575.3593,819.5419,2.6825,-6.8380
23392.1569,-111.3373,907.8544,587.5081,831.3920,23.3364,1.9092
23411.7647,-104.3954,908.2019,584.4890,844.5743,29.8325,9.0464
23431.3725,-116.3169,901.8704,581.5477,824.3914,9.3211,-10.9479
23450.9804,-135.4642,901.2729,572.4755,808.6688,-16.0717,-28.7776
23470.5882,-133.3654,902.8386,579.5996,795.3199,-0.5399,-24.9385
23490.1961,-126.3582,907.2593,572.4883,785.6389,-7.9500,-37.7954
23509.8039,-124.2945,912.7509,578.5023,784.3925,7.3188,-13.0180
23529.4118,-129.3101,913.2483,572.5036,777.6936,0.8327,-24.6741
23549.0196,-142.3429,912.7263,564.5270,762.3083,-16.5435,-23.9902
23568.6275,-123.3240,909.3004,568.5068,770.7247,-7.0135,-11.6820
23588.2353,-128.2975,903.7628,566.5946,780.3245,1.1622,-7.0304
23607.8431,-116.3412,907.3412,581.5179,781.6559,0.0140,17.2853
23627.4510,-113.4042,911.6887,579.5962,799.3213,6.1815,23.7658
23647.0588,-123.2730,908.3619,562.4547,780.6918,-4.7755,8.2600
23666.6667,-124.3507,900.7360,566.5981,785.3342,0.2616,18.8370
23686.2745,-125.2393,908.3913,565.4952,781.6870,0.0568,14.3278
23705.8824,-114.4286,913.6273,573.5258,796.3621,-1.7187,23.7246
23725.4902,-113.2888,909.4149,568.5369,794.6981,-4.7362,20.3922
23745.0980,-115.4417,908.6332,579.6016,796.3521,-5.6698,28.7321
23764.7059,-116.2529,911.4279,579.4715,802.7996,-9.7477,29.3474
23784.3137,-120.4228,900.6602,568.5466,806.2763,-10.7154,27.7052
23803.9216,-121.2045,896.3848,562.4622,794.7175,-7.7623,27.3574
23823.5294,-115.4739,908.5822,567.5773,811.2935,0.2031,36.7392
23843.1373,-128.1475,900.5490,567.5513,805.7551,2.9635,38.4423
23862.7451,-110.5262,907.5615,567.5837,804.2960,-18.6236,37.7227
23882.3529,-118.2025,910.5052,559.5128,789.8176,-33.7798,37.4439
23901.9608,-120.4851,908.5290,564.5532,817.2840,-32.6410,38.7047
23921.5686,-116.2030,912.5154,568.4900,803.7968,-51.7063,43.3691
23941.1765,-135.5512,906.5188,548.5301,793.2475,-63.7133,19.6925
23960.7843,-124.1349,902.6045,554.5085,801.7188,-70.7217,33.4515
23980.3922,-121.5142,904.5076,566.6412,811.2665,-52.7883,40.6796
24000.0000,-128.0962,910.5793,566.4015,807.7324,-61.7496,30.4457
24019.6078,-131.4627,904.4842,554.6324,803.2928,-56.7337,43.5576
24039.2157,-135.1774,912.5898,546.4655,782.7250,-68.7390,25.4324
24058.8235,-157.5978,906.4479,529.6268,782.2034,-88.6749,9.5823
24078.4314,-148.0748,902.6815,535.4006,801.7346,-81.6299,18.5327
24098.0392,-145.5402,900.4636,535.6027,788.2144,-101.7992,12.5926
24117.6471,-138.1168,903.7026,546.4426,799.7789,-90.7981,17.5466
24137.2549,-143.5645,900.4391,528.7009,783.1888,-92.8390,13.5877
24156.8627,-137.1119,897.6014,534.3943,790.8269,-61.6978,14.5368
24176.4706,-132.6462,900.4147,533.7017,790.2989,-91.7514,21.5033
24196.0784,-128.0148,896.6334,545.3047,786.7778,-85.7520,16.5541
24215.6863,-137.6243,895.2580,541.7434,786.2563,-87.8214,16.5923
24235.2941,-127.0051,891.6923,546.3810,805.7844,-65.6137,27.5103
24254.9020,-122.5894,897.2213,553.7943,797.2917,-54.8027,21.4891
24274.5098,-123.0181,896.6850,535.3007,793.7650,-63.6380,15.5705
24294.1176,-124.5872,900.3418,545.7982,784.3002,-54.8081,7.5213
24313.7255,-135.0760,899.8569,550.3437,780.7659,-52.6908,10.5438
24333.3333,-137.6507,894.1925,546.7982,782.2241,-57.8724,9.5354
24352.9412,-139.0430,894.7470,566.2324,792.7765,-26.6550,11.5556
24372.5490,-127.5770,899.1392,573.7939,787.2587,-23.7566,11.5445
24392.1569,-127.9619,900.8964,573.2542,779.7746,-30.5833,13.5760
24411.7647,-122.6107,910.2120,591.8028,786.2852,-2.7605,26.5100
24431.3725,-142.0125,899.9263,570.1899,752.7945,-39.5458,-5.2881
24450.9804,-140.6393,903.2376,561.8315,749.2711,-30.7582,14.5663
24470.5882,-126.9665,895.8073,568.2109,772.7640,-25.5511,29.5498
24490.1961,-136.6703,906.1968,568.9036,764.3577,-28.7953,31.5447
24509.8039,-141.0154,899.9653,564.1741,768.7084,-35.6106,27.5383
24529.4118,-132.7016,897.0681,561.8834,769.2704,-3.8646,38.5890
24549.0196,-136.0429,896.8401,559.1610,775.6849,-8.7089,43.5101
24568.6275,-130.5779,890.0948,550.9767,774.2991,-9.7826,36.5745
24588.2353,-120.0144,893.8758,552.0751,775.6687,-8.7216,48.5282
24607.8431,-114.6773,900.1765,554.0425,780.3185,-9.7845,45.5097
24627.4510,-118.0308,906.9757,550.1006,785.7130,-12.6534,59.5948
24647.0588,-117.6564,896.0200,559.0503,809.3843,-0.8224,59.5988
24666.6667,-104.9734,901.0300,561.9747,811.6942,30.2183,86.5095
24686.2745,-126.5957,894.0179,554.1029,792.3572,-4.7614,54.5734
24705.8824,-126.9847,896.9067,547.9697,796.7211,26.0636,60.5931
24725.4902,-121.6221,895.9853,566.0381,805.3666,28.9220,73.5760
24745.0980,-134.0892,901.0654,550.9753,795.7288,11.1930,67.5011
24764.7059,-123.6061,891.9935,545.0485,795.3200,0.0442,58.6142
24784.3137,-125.0089,898.9303,559.9346,808.7125,12.0671,82.5884
24803.9216,-109.5518,906.0504,565.1165,820.3402,30.0009,92.5770
24823.5294,-103.0159,907.0547,568.8858,815.6852,33.0607,92.5150
24843.1373,-97.6187,898.9148,569.1530,816.4351,36.9995,89.5674
24862.7451,-107.9986,893.9872,550.8746,789.6758,3.0941,71.4934
24882.3529,-125.5790,895.9205,541.2375,797.4418,0.0247,68.5664
24901.9608,-126.0437,888.0390,559.8281,810.6231,1.1220,74.4965
24921.5686,-139.6239,892.9252,550.2571,795.3712,-7.8554,70.5831
24941.1765,-144.0915,885.0671,541.8153,798.5922,-9.5994,56.4956
24960.7843,-142.5964,880.9904,526.2292,794.4003,-2.8320,56.6259
24980.3922,-164.1265,862.0615,505.7001,777.6046,-30.6096,45.4077
25000.0000,-164.5967,864.9133,506.2050,778.4673,-39.7994,34.6149
25019.6078,-169.1159,863.0651,513.6821,796.5863,-31.7151,42.3657
25039.2157,-161.6073,861.9182,513.2738,791.4758,-37.8386,38.6461
25058.8235,-162.1822,867.0468,515.7132,792.5189,2.1764,37.4387
25078.4314,-150.5198,873.8292,529.3376,786.4643,2.8466,44.5729
25098.0392,-194.1394,867.0568,488.5943,753.5139,-43.7544,-3.4562
25117.6471,-219.4995,858.9152,463.2758,741.4788,-63.8680,-18.3084
25137.2549,-228.2279,847.0314,468.6494,746.5093,-90.7828,-30.5141
25156.8627,-220.4772,840.8557,467.3094,741.4926,-116.7977,-27.2258
25176.4706,-190.2022,848.0334,492.5533,776.5335,-67.5982,-4.4935
25196.0784,-154.4483,856.9084,522.3628,811.5153,-31.9307,34.6723
25215.6863,-132.1632,864.1010,538.5646,814.5221,-28.6713,33.3491
25235.2941,-136.5401,860.8773,533.4443,804.5449,-30.8337,33.6822
25254.9020,-147.2314,863.1136,528.5748,794.3941,-29.7680,27.2926
25274.5098,-148.4471,862.8566,533.4691,795.4893,-27.9878,26.6537
25294.1176,-131.2095,872.0611,554.5482,782.3631,-3.7396,32.3071
25313.7255,-125.4240,867.8184,563.4984,793.5457,16.8613,48.6869
25333.3333,-149.2592,864.1213,548.4522,775.3586,-4.6178,25.2468
25352.9412,-159.4734,854.8973,530.4791,748.5634,-23.8172,16.7541
25372.5490,-171.2912,855.1817,509.4287,730.3397,-26.7194,9.2488
25392.1569,-186.4270,843.7994,490.5304,713.5129,-40.8734,-4.1115
25411.7647,-194.3077,842.1033,493.4965,720.3942,-70.6852,-10.6394
25431.3725,-184.4151,840.8144,494.5629,725.5473,-64.9251,-0.1916
25450.9804,-168.3512,837.1395,497.3614,740.3627,-65.6566,11.2299
25470.5882,-176.3023,832.8632,487.5370,740.6424,-72.7981,12.7800
25490.1961,-157.4438,837.1419,501.3506,755.3043,-54.7232,26.1789
25509.8039,-155.4124,843.7887,497.5161,756.5945,-54.8620,22.7330
25529.4118,-118.4249,844.0991,538.3862,784.3511,-32.6332,75.2201
25549.0196,-115.3564,849.9115,531.5485,780.6399,-29.9234,79.8563
25568.6275,-128.3861,842.1140,526.3407,776.3658,-36.7936,68.1567
25588.2353,-123.2824,847.7582,524.6434,773.6660,-35.8234,68.8064
25607.8431,-132.3871,846.0892,519.3950,769.2363,-34.8318,69.1428
25627.4510,-116.3036,844.7758,528.5495,785.6944,-33.8517,81.9071
25647.0588,-89.5393,849.0692,549.3824,805.2709,-1.8075,123.2123
25666.6667,-97.2544,851.8966,562.5809,811.7020,-0.8179,122.9324
25686.2745,-86.4413,850.2264,559.3258,818.2495,1.0252,125.0788
25705.8824,-101.2068,855.8727,548.6260,798.7200,-19.8425,109.8712
25725.4902,-104.4924,846.0853,532.3417,778.2679,-35.7255,100.1555
25745.0980,-106.1519,852.8929,536.6164,801.6768,-15.8973,112.9129
25764.7059,-92.5893,843.1047,547.2708,808.2955,-14.7281,120.1383
25784.3137,-72.1909,841.8029,568.7079,828.7916,-5.8190,141.9955
25803.9216,-78.5615,858.1696,579.3261,809.2597,-4.6800,131.0570
25823.5294,-72.1619,851.9087,587.6758,812.7463,-10.8374,131.9587
25843.1373,-44.5168,868.1010,601.2961,836.2250,14.1231,158.0797
25862.7451,-52.1173,865.8219,597.7758,810.8006,-0.7641,146.9514
25882.3529,-63.5538,858.1652,598.2491,827.2742,-18.6810,136.0555
25901.9608,-59.0466,862.8450,596.7020,812.7770,-10.8142,141.0620
25921.5686,-76.6413,860.1483,586.2042,797.2173,-31.8175,124.9609
25941.1765,-66.1270,865.8276,587.7285,805.7980,-5.7785,126.9897
25960.7843,-51.6786,868.0934,596.2706,806.1555,-3.8287,145.9441
25980.3922,-37.9963,870.7983,617.7482,836.8282,2.9762,155.0605
26000.0000,-49.7167,863.1208,603.1777,806.1417,-23.7406,147.9306
26019.6078,-61.9702,859.8711,595.7726,796.8631,-28.7394,143.1266
26039.2157,-61.6665,854.1763,591.1347,791.1719,-35.7805,141.9939
26058.8235,-62.9375,854.9080,592.7542,796.8754,-27.8566,148.0552
26078.4314,-67.7919,849.0391,590.1490,803.1805,-36.8768,144.8698
26098.0392,-33.9579,863.8522,619.8546,827.7786,4.9549,180.1477
26117.6471,-32.7464,868.0797,628.1601,822.1768,-0.7942,187.8673
26137.2549,-64.8841,860.8749,610.8788,779.8456,-29.8162,152.1181
26156.8627,-61.7308,866.0886,606.1547,771.1605,-28.8052,136.8989
26176.4706,-94.9583,851.9366,591.8207,749.8166,-22.8099,114.1542
26196.0784,-95.8222,859.1284,591.0770,746.1371,-35.8081,121.9099
26215.6863,-74.9235,860.8826,595.8434,773.8571,-29.8025,135.1782
26235.2941,-80.7946,860.1159,603.0853,772.1183,-35.8131,148.8036
26254.9020,-72.9192,862.8751,598.8943,776.8049,-46.6362,161.2355
26274.5098,-77.8344,852.1634,592.1364,779.0986,-56.8227,162.8668
26294.1176,-79.8535,842.8416,595.8726,780.8593,-48.8127,180.2523
26313.7255,-78.8378,849.0198,593.1061,779.1058,-49.8136,181.8511
26333.3333,-68.8993,855.9263,595.8911,779.8860,-36.7734,199.2746
26352.9412,-58.8346,851.1698,603.0555,788.0503,-24.8791,216.7971
26372.5490,-60.7925,849.9681,592.8672,775.8408,-33.7138,214.2607
26392.1569,-96.8939,837.0936,565.0197,756.0461,-37.7829,200.8042
26411.7647,-79.7990,843.8448,595.9213,781.8531,-22.7774,221.3219
26431.3725,-60.8473,852.1620,592.0970,779.0972,-28.8141,227.7075
26450.9804,-58.7728,851.9605,608.9360,786.8817,-28.6751,244.3663
26470.5882,-60.8613,849.0124,614.0679,782.0377,-26.8497,235.7347
26490.1961,-68.8466,843.8446,598.0106,777.9266,-47.7096,231.3023
26509.8039,-74.9285,837.0904,592.0645,756.0420,-66.8808,210.6772
26529.4118,-85.7289,836.8909,590.0063,758.9200,-63.6774,217.3606
26549.0196,-84.8787,837.0876,597.0275,775.0464,-70.8204,205.6273
26568.6275,-71.8101,846.8279,596.9447,776.8186,-59.7399,234.3603
26588.2353,-56.9248,855.1334,620.9432,792.0925,-44.7949,239.6948
26607.8431,-97.7844,839.8715,581.0386,746.8924,-107.6522,200.4146
26627.4510,-95.9680,835.1004,566.0265,750.0475,-116.7481,199.6805
26647.0588,-88.8323,830.9289,582.0245,768.8336,-112.6864,197.4164
26666.6667,-86.8918,832.1194,566.9838,760.1048,-107.7784,202.6765
26686.2745,-89.8222,831.9207,570.0048,760.8553,-113.7840,189.3826
26705.8824,-86.8991,841.0615,566.9739,769.0629,-98.8063,188.5722
26725.4902,-109.8326,825.9576,552.0369,751.7726,-126.7000,164.4922
26745.0980,-126.9346,817.0543,533.9223,745.1654,-148.8820,147.5551
26764.7059,-131.8284,812.8747,536.0154,729.8210,-155.7910,133.4451
26784.3137,-166.9690,814.0778,499.8957,715.1366,-179.9307,118.6111
26803.9216,-181.7953,809.8894,472.9796,681.7493,-231.6969,71.4496
26823.5294,-225.0363,788.0844,427.8452,650.1654,-281.8489,48.5343
26843.1373,-307.7098,762.8586,352.9740,579.7304,-379.7816,-48.4054
26862.7451,-329.9421,747.0259,330.8969,562.1483,-402.7866,-63.2963
26882.3529,-362.7835,744.8060,296.0154,537.7889,-442.7785,-112.4113
26901.9608,-389.9943,731.1351,271.8469,519.1258,-469.9258,-126.3287
26921.5686,-430.7809,716.8182,244.0342,493.7568,-511.9070,-164.3442
26941.1765,-469.0722,704.1466,190.8002,458.2012,-562.8768,-215.4073
26960.7843,-520.7828,689.8228,142.0025,415.7628,-623.9080,-260.4287
26980.3922,-547.9973,677.1640,121.7966,400.1055,-660.8486,-287.4915
27000.0000,-544.7721,657.8609,119.0528,393.6787,-662.8541,-293.3694
27019.6078,-581.0748,649.0198,83.7624,359.1703,-702.8275,-347.5043
27039.2157,-624.8419,628.8741,43.0146,335.6634,-740.9558,-371.3442
27058.8235,-642.9708,620.0499,23.7410,315.1712,-765.8076,-401.4808
27078.4314,-656.7808,608.8319,-8.8470,295.6752,-800.0240,-418.3719
27098.0392,-683.9938,609.1301,8.7911,301.2151,-790.7258,-424.5110
27117.6471,-657.7755,611.8054,27.1228,314.6598,-767.0106,-402.3822
27137.2549,-627.0637,625.2017,58.7106,340.2268,-717.8776,-379.4929
27156.8627,-611.7867,629.8436,85.0764,348.5990,-713.0059,-362.3725
27176.4706,-588.0242,625.2108,85.7870,356.3069,-687.6790,-357.4986
27196.0784,-518.8053,656.8233,167.0838,415.6432,-609.9984,-268.2719
27215.6863,-498.0199,660.1588,184.7852,429.2838,-567.7997,-239.5270
27235.2941,-471.8194,672.7098,194.0592,438.5437,-559.9283,-222.3481
27254.9020,-476.0140,660.1685,185.7491,435.3166,-566.6873,-225.5790
27274.5098,-472.8147,662.7632,188.1166,431.5341,-571.9739,-233.2754
27294.1176,-478.9955,662.1646,185.7368,430.3074,-580.6739,-238.5513
27313.7255,-483.7510,653.8115,169.1722,415.5685,-563.9022,-243.3281
27333.3333,-503.9726,644.1250,148.6801,397.3529,-596.6193,-258.5587
27352.9412,-523.7859,636.7489,124.1141,388.4506,-610.9411,-281.3015
27372.5490,-527.9591,626.2509,112.7158,374.3272,-624.5964,-285.6114
27392.1569,-579.8609,605.7749,60.1038,344.5338,-662.1332,-325.3104
27411.7647,-602.0612,597.1190,42.7345,319.4173,-714.6970,-358.5801
27431.3725,-654.8189,573.6415,-7.7948,273.3993,-755.1032,-416.2359
27450.9804,-659.9747,575.2733,-25.1781,275.4251,-756.6752,-414.5644
27470.5882,-652.8340,570.6515,-12.7652,286.3753,-754.0251,-405.2773
27490.1961,-659.9722,566.1764,-18.1401,287.4612,-752.7281,-419.6095
27509.8039,-656.8156,566.6673,-7.7788,303.3944,-741.1309,-394.1983
27529.4118,-669.0536,558.2389,-13.1666,295.4555,-743.5248,-416.5998
27549.0196,-710.9019,538.6753,-64.7450,258.3747,-786.2012,-449.2762
27568.6275,-702.9797,536.2258,-51.1945,268.5044,-773.6965,-443.6551
27588.2353,-695.8570,535.6851,-47.7334,276.3781,-761.0595,-444.2287
27607.8431,-699.0037,537.2283,-27.2655,273.5533,-763.6242,-439.6429
27627.4510,-712.8943,520.6073,-66.6801,251.3458,-806.1271,-456.1603
27647.0588,-736.0501,518.1968,-76.2259,239.4925,-813.6956,-488.7083
27666.6667,-760.8757,509.6703,-102.7525,204.3666,-859.0674,-525.1989
27686.2745,-760.0413,507.2772,-114.2569,207.5101,-859.6224,-521.6786
27705.8824,-774.9313,498.5663,-121.6995,203.2450,-872.1998,-534.1138
27725.4902,-771.9625,502.3187,-119.2401,214.5231,-881.6995,-524.7097
27745.0980,-773.7979,481.6681,-132.7515,204.3272,-902.1776,-536.1129
27764.7059,-796.9421,472.1922,-162.2415,177.5242,-911.6446,-559.6844
27784.3137,-782.8838,481.6597,-136.7581,197.1934,-873.0954,-554.0883
27803.9216,-758.0457,487.2679,-114.2595,218.6177,-871.6077,-532.7786
27823.5294,-769.8231,486.6193,-113.6756,230.2780,-841.1700,-535.0824
27843.1373,-743.9926,506.3168,-94.2175,236.6600,-845.5715,-532.7908
27862.7451,-736.8958,498.5351,-63.7492,260.1720,-806.1901,-512.0563
27882.3529,-707.9321,500.3618,-38.2148,304.6054,-770.5400,-482.7412
27901.9608,-612.8220,537.6085,31.1291,358.2393,-656.1521,-399.0872
27921.5686,-614.9510,536.2979,39.6533,343.7413,-655.4802,-407.7831
27941.1765,-605.8605,537.6036,46.1976,348.1700,-657.2455,-410.0127
27960.7843,-595.9303,532.3268,63.7068,360.6788,-643.4448,-397.7325
27980.3922,-594.7921,537.5995,72.1882,371.1944,-628.1663,-398.0531
28000.0000,-596.9276,533.3230,56.6581,355.6695,-624.4172,-398.7543
28019.6078,-608.8376,528.6578,58.2206,348.1375,-636.2498,-429.9819
28039.2157,-594.9391,536.3065,68.6879,360.7157,-629.4511,-427.8238
28058.8235,-577.8862,535.6129,93.2052,380.1266,-619.1848,-401.0361
28078.4314,-558.0306,535.3116,110.7217,394.8173,-611.5143,-398.7829
28098.0392,-561.8463,536.6083,105.2289,387.0992,-602.1258,-406.0569
28117.6471,-548.9496,536.3035,128.6991,396.7888,-586.5856,-384.8428
28137.2549,-525.7891,563.5980,175.1950,411.1140,-550.0735,-365.0461
28156.8627,-500.9691,568.2615,207.6688,420.8350,-504.5618,-340.8315
28176.4706,-443.8765,582.6439,246.2552,451.0738,-460.1726,-287.9297
28196.0784,-418.9183,593.2637,280.6851,477.8617,-425.3804,-258.8325
28215.6863,-376.8675,604.6689,313.1826,504.1498,-397.1789,-226.9160
28235.2941,-372.9247,609.3225,322.7231,503.8660,-378.5765,-201.8632
28254.9020,-315.8213,628.6824,359.2157,532.0942,-334.1812,-166.9065
28274.5098,-273.9791,646.2440,414.6933,576.8319,-267.4676,-113.8213
28294.1176,-229.7922,665.6137,464.1670,635.0726,-186.1026,-54.9503
28313.7255,-173.8953,677.3702,510.7937,672.8465,-154.3913,0.0026
28333.3333,-132.8350,688.6353,552.2292,705.0715,-91.1675,42.9176
28352.9412,-113.9892,706.3412,568.7485,707.9199,-66.4717,63.0111
28372.5490,-46.8049,732.6893,633.2470,767.1068,13.8294,132.9898
28392.1569,-20.8647,743.2588,647.8417,778.9173,36.3184,153.0650
28411.7647,-13.7282,747.6000,662.1461,791.1313,27.8340,164.0754
28431.3725,4.9775,751.3636,678.8370,809.9509,53.3829,189.0468
28450.9804,7.1421,748.6039,655.2101,812.0867,67.6492,184.0839
28470.5882,12.9252,761.2891,661.8421,812.9004,65.4069,190.0451
28490.1961,24.1790,760.7039,671.2324,815.1458,62.8529,194.0290
28509.8039,32.9380,768.2325,691.8596,826.8810,72.3923,204.1254
28529.4118,61.0834,780.7501,720.1688,856.0834,100.6942,227.9897
28549.0196,57.9207,765.2407,709.8554,839.8890,94.2591,226.0088
28568.6275,32.1240,769.6693,707.1542,840.0142,64.8357,213.0266
28588.2353,32.9462,766.2230,699.9175,822.9839,63.4160,205.0089
28607.8431,27.1529,774.8169,702.1541,823.0854,52.8135,206.1108
28627.4510,32.9512,777.3038,716.9468,835.9932,59.2511,210.0421
28647.0588,36.0885,778.8052,719.1349,841.0967,74.6877,218.0549
28666.6667,34.9473,769.1759,716.9710,842.9931,84.3991,218.0973
28686.2745,57.0905,781.8019,738.0615,858.9884,99.8479,234.0266
28705.8824,53.9771,778.2678,747.0029,848.0319,95.3288,229.0411
28725.4902,49.1366,782.8131,748.0020,851.0113,108.8187,226.9808
28745.0980,44.0494,787.1938,727.9555,843.9951,93.3613,221.1220
28764.7059,41.0362,785.8099,737.0436,836.0427,69.8903,212.0065
28784.3137,57.9693,790.1586,748.9976,852.9544,89.2027,227.0376
28803.9216,49.1211,789.8025,737.0194,851.9721,55.8995,217.0341
28823.5294,61.9434,794.1135,744.0366,866.0755,82.1886,224.1428
28843.1373,40.0222,794.7856,720.9540,843.9879,63.7757,204.0661
28862.7451,40.9384,796.0830,722.0717,842.0502,59.2120,190.0541
28882.3529,38.0222,791.8220,715.9432,844.9577,46.7149,185.9436
28901.9608,37.9720,792.0916,720.0392,848.0704,36.2431,193.0861
28921.5686,50.0736,794.8197,739.9616,870.9385,57.8681,198.0047
28941.1765,66.0979,803.1694,747.1664,893.0828,83.2708,212.0945
28960.7843,63.9667,808.9127,742.8394,873.0062,59.8355,189.9356
28980.3922,57.0221,809.1107,744.1619,874.0872,70.3594,190.0902
29000.0000,41.9454,808.9299,737.8189,872.9892,55.8914,186.8971
29019.6078,69.1062,809.0914,754.1601,885.1360,77.3611,194.1339
29039.2157,44.9076,807.9545,745.7989,868.9288,60.7001,169.8959
29058.8235,50.1093,812.0558,743.2704,868.1156,47.1849,167.1142
29078.4314,29.9791,807.9727,722.7988,851.8661,2.7311,141.9455
29098.0392,-5.8015,800.1151,699.3342,835.1498,-39.4227,116.1937
29117.6471,6.9516,807.9904,700.7636,842.8961,-21.9981,132.8520
29137.2549,-8.7570,793.9683,691.3586,831.1248,-53.4146,107.1619
29156.8627,-17.9173,785.9866,690.6359,820.8087,-56.1237,108.8003
29176.4706,-45.7843,784.0142,675.3682,799.1407,-93.4333,75.2356
29196.0784,-116.0381,768.9505,629.6090,720.8660,-174.0250,7.7680
29215.6863,-125.6761,762.9688,609.4518,713.0889,-186.5924,2.1871
29235.2941,-105.0010,772.9401,624.5793,731.7548,-163.9835,21.6909
29254.9020,-83.6178,782.9893,637.4437,751.1243,-147.4242,52.2866
29274.5098,-52.0843,787.0303,668.5078,782.7377,-106.0381,87.6935
29294.1176,-42.5601,790.9216,691.5491,789.1556,-91.4147,103.2604
29313.7255,-29.1250,798.9664,692.5076,799.7479,-90.0893,119.7264
29333.3333,-16.5454,804.9830,708.6053,822.2888,-59.4614,132.3546
29352.9412,-14.1134,804.1143,702.4198,806.7123,-58.1756,136.6671
29372.5490,-17.5001,803.9763,707.5657,814.2254,-26.4135,157.4242
29392.1569,-21.1037,805.1215,699.3340,796.7560,-51.1954,137.6334
29411.7647,-20.4404,811.9124,724.6240,816.3321,-27.4840,148.4079
29431.3725,-33.2157,795.0330,704.2571,804.6982,-34.1625,141.6118
29450.9804,-35.4479,807.9235,706.6978,805.3256,-34.4578,145.4309
29470.5882,-30.2756,805.1467,712.2215,808.7187,-2.2544,155.5302
29490.1961,-16.3803,810.8921,734.8149,832.3292,3.4066,163.5916
29509.8039,-8.3118,811.1206,729.1759,838.6084,5.5896,169.4457
29529.4118,-2.4177,813.8623,735.8460,835.4262,6.5036,183.6432
29549.0196,4.5553,817.0901,751.1046,843.6008,3.5883,190.3972
29568.6275,1.6040,810.8723,745.8625,842.4437,-23.2120,178.6596
29588.2353,5.4956,814.1172,741.0852,844.5464,-0.3816,184.4270
29607.8431,-13.2532,812.8525,735.9565,833.3992,-27.3374,170.6612
29627.4510,-45.5193,787.1341,683.0828,781.4936,-101.2498,120.3454
29647.0588,-82.1900,780.8894,647.9456,758.5214,-131.1910,67.7057
29666.6667,-124.5034,769.0909,624.9584,756.4487,-169.3101,53.2439
29686.2745,-120.1820,778.8968,626.0150,767.5032,-147.1234,72.7933
29705.8824,-121.5777,770.0906,623.9296,772.4790,-155.3501,66.1414
29725.4902,-125.0889,766.8062,610.1622,766.5554,-146.2104,72.8549
29745.0980,-140.6610,756.1846,598.8423,745.4669,-162.3909,49.0965
29764.7059,-160.0999,746.7652,582.1603,741.5796,-206.1015,10.9026
29784.3137,-151.6477,762.1496,598.7805,754.3803,-183.4311,33.0578
29803.9216,-121.9969,775.9052,617.2034,765.6453,-176.0954,39.0163
29823.5294,-121.7513,774.0743,627.7591,786.3488,-150.4418,59.0328
29843.1373,-111.0051,777.8918,632.3256,792.6585,-151.1159,63.9903
29862.7451,-97.8195,781.1952,657.7075,812.3061,-116.5809,72.9288
29882.3529,-87.8046,780.8722,656.3125,803.7240,-128.9823,70.0934
29901.9608,-62.8127,797.0904,669.6841,818.2867,-92.5589,79.9102
29921.5686,-52.8230,801.9014,681.3892,840.6602,-58.9490,97.2024
29941.1765,-75.9248,789.1430,662.5923,808.3307,-99.5887,64.7593
29960.7843,-75.7573,792.7987,653.5090,810.7791,-91.9257,61.2977
29980.3922,-61.9291,803.2175,662.5389,831.2281,-66.6021,91.7428
30000.0000,-52.6911,801.9103,692.5679,845.7591,-65.8450,94.3233
30019.6078,-35.0109,812.1596,694.4442,859.2811,-44.7670,102.6276
30039.2157,-38.5700,810.8563,693.5955,857.8047,-28.8325,115.3985
30058.8235,-65.0226,808.1848,674.4713,828.2347,-72.8026,69.6108
30078.4314,-73.5754,809.8660,667.6500,812.8339,-97.6901,60.4930
30098.0392,-74.1722,802.2171,678.4249,829.1828,-87.7254,57.5923
30117.6471,-67.5527,811.8581,672.6799,829.9062,-98.7395,63.4461
30137.2549,-59.1822,809.1660,689.3118,842.1573,-79.8886,70.4865
30156.8627,-65.3587,810.8736,655.7258,818.9020,-96.7214,48.5448
30176.4706,-96.2836,796.0793,635.3315,805.1096,-137.8876,14.4587
30196.0784,-114.4221,791.8405,617.7517,791.9534,-159.6738,3.5728
30215.6863,-122.3205,793.0911,612.2061,791.1080,-156.9589,-13.5249
30235.2941,-117.3455,790.8541,609.7797,786.9481,-159.6339,-17.2492
30254.9020,-90.4317,814.1128,658.2056,810.0909,-123.9678,21.2583
30274.5098,-94.2902,804.9382,660.8467,786.9720,-110.5970,26.7146
30294.1176,-116.4583,798.0446,627.1965,775.0129,-127.9347,11.2675
30313.7255,-131.1390,789.8818,627.9697,754.0141,-128.4870,4.7722
30333.3333,-119.4916,794.0638,635.1796,767.0287,-148.9660,7.1865
30352.9412,-105.0979,805.9565,643.9268,778.0701,-120.3476,25.8491
30372.5490,-86.4621,811.1120,654.1002,787.0002,-106.1270,38.1989
30392.1569,-108.0274,804.9739,642.0175,778.0827,-114.4093,23.8947
30411.7647,-118.6003,796.0328,630.0137,758.0500,-123.0044,8.0753
30431.3725,-122.0272,797.8644,624.0696,754.0635,-128.3754,1.0611
30450.9804,-135.6874,792.0471,624.0288,752.0294,-119.1018,-10.8490
30470.5882,-116.0200,792.9064,626.0388,754.0697,-94.2312,-0.7715
30490.1961,-87.6134,798.9901,657.0385,778.0122,-91.1371,26.9532
30509.8039,-110.0168,802.0258,656.0678,789.0168,-101.2070,16.1347
30529.4118,-95.7622,795.9921,654.9347,780.9390,-106.2706,11.9190
30549.0196,-94.9276,797.8973,660.0969,789.9995,-96.3749,12.1550
30568.6275,-91.8352,793.9916,653.9402,784.9828,-96.2350,12.8762
30588.2353,-84.8030,811.9863,661.0937,783.9962,-87.1596,16.2323
30607.8431,-69.8731,822.9571,685.9897,810.9729,-48.1376,29.8104
30627.4510,-58.7845,820.9392,683.0996,825.0687,-32.2378,42.3165
30647.0588,-81.8354,822.9448,669.9388,802.0266,-59.3144,19.7028
30666.6667,-87.8464,808.0374,658.2148,792.0865,-85.1457,3.2438
30686.2745,-90.9516,810.0182,661.9134,804.9771,-96.2937,-1.2144
30705.8824,-88.8065,811.0309,662.1180,800.0535,-113.1202,-3.5019
30725.4902,-77.9140,812.9907,674.9066,817.0024,-102.2114,3.6558
30745.0980,-83.6671,812.0359,663.2223,814.0228,-106.1033,-11.5117
30764.7059,-107.8850,804.0428,647.9380,800.9592,-123.2132,-26.1806
30784.3137,-110.7536,798.9637,636.1425,792.0649,-123.1550,-44.4319
30803.9216,-108.9028,804.0348,643.9232,810.0447,-116.2215,-35.2696
30823.5294,-91.7081,798.9731,644.1650,806.0262,-120.0876,-27.4186
30843.1373,-98.9848,802.0389,643.9194,804.0534,-137.2246,-44.2317
30862.7451,-115.6807,789.0491,632.1403,793.9938,-147.2069,-63.3606
30882.3529,-119.0123,796.8994,626.9206,782.0075,-152.3145,-76.3288
30901.9608,-125.6000,790.0522,622.1781,765.0386,-183.0739,-97.4182
30921.5686,-112.0702,795.8976,623.8873,780.0661,-154.2856,-87.2959
30941.1765,-115.6471,792.0477,617.1934,767.9611,-182.1991,-117.3936
30960.7843,-122.0170,783.9702,611.8729,762.0713,-208.3015,-136.3703
30980.3922,-143.5989,784.1074,596.1693,741.9426,-226.1673,-161.3918
31000.0000,-125.9965,783.9642,605.9338,760.1403,-208.2879,-144.4349
31019.6078,-140.6131,787.0947,598.2239,736.8857,-229.2386,-166.2815
31039.2157,-151.9741,781.9728,591.9783,727.1924,-243.2687,-171.3649
31058.8235,-152.5414,776.1693,578.1634,718.8264,-256.1582,-189.2890
31078.4314,-160.0667,772.8600,561.9851,698.1649,-290.2823,-196.4137
31098.0392,-166.5952,775.1835,575.1160,713.7733,-308.2266,-206.2572
31117.6471,-170.0006,779.9747,566.9727,696.2357,-325.2683,-230.3877
31137.2549,-168.5952,777.1741,571.0813,700.7366,-322.2438,-231.2850
31156.8627,-152.9565,780.9634,576.9512,703.2631,-318.2527,-232.4078
31176.4706,-113.6690,786.1168,601.0635,723.7462,-289.2358,-208.2607
31196.0784,-126.9717,783.9402,589.9632,709.3036,-303.1469,-219.4632
31215.6863,-140.6564,785.1269,583.0598,715.7355,-300.1986,-235.3041
31235.2941,-134.0708,783.9299,577.9460,677.3315,-340.3238,-277.4653
31254.9020,-175.5948,781.1561,542.0968,653.6578,-376.3398,-309.2624
31274.5098,-163.0145,780.9489,542.0121,648.3134,-382.2915,-327.5257
31294.1176,-127.6341,796.0582,571.9501,686.5948,-343.3469,-311.2815
31313.7255,-120.9735,793.8639,595.0038,678.3936,-341.1414,-316.4526
31333.3333,-152.6388,784.1368,577.0281,628.5604,-391.4954,-338.3267
31352.9412,-166.9429,774.9876,570.0075,601.4417,-383.1018,-334.4277
31372.5490,-192.6997,762.1128,548.9340,566.4728,-430.4623,-372.2963
31392.1569,-181.9677,772.8361,565.0544,565.4369,-416.0974,-347.5059
31411.7647,-171.7183,765.0931,571.8605,576.4797,-397.4656,-327.2739
31431.3725,-151.8415,768.8629,589.1406,594.5422,-370.1328,-282.4623
31450.9804,-150.7383,770.0590,600.8602,601.4459,-355.5042,-248.2944
31470.5882,-156.9263,757.9329,567.1803,594.5864,-384.0997,-241.4503
31490.1961,-161.8466,753.1675,570.8139,577.3655,-415.4791,-238.3717
31509.8039,-151.7922,748.8254,573.1605,595.6075,-422.1283,-220.4430
31529.4118,-148.8229,751.1746,596.7709,598.2820,-408.5235,-202.4127
31549.0196,-152.7549,753.9628,578.1764,587.6830,-412.0271,-213.3873
31568.6275,-150.8494,751.1686,591.7518,595.2921,-414.6940,-212.3684
31588.2353,-156.8420,751.9764,579.2996,572.7664,-422.9297,-228.3455
31607.8431,-157.0004,751.1607,584.7822,589.2291,-417.5904,-224.3441
31627.4510,-162.7705,752.9724,593.2987,595.7332,-397.9637,-214.3744
31647.0588,-142.9935,758.1099,599.6820,596.1654,-414.7942,-200.4688
31666.6667,-141.7242,753.9692,597.3409,597.7389,-412.7996,-210.3358
31686.2745,-158.0872,748.0009,584.6993,566.0782,-431.6845,-228.4139
31705.8824,-157.7341,738.9031,588.3776,581.8350,-445.7964,-238.3769
31725.4902,-164.0955,736.0711,582.5970,570.0771,-445.7302,-311.4525
31745.0980,-163.6515,738.9096,584.4056,570.8476,-474.8365,-371.3088
31764.7059,-151.0837,743.0185,599.5633,595.0406,-458.9024,-371.4750
31784.3137,-129.5341,748.8530,606.4351,603.8740,-440.6735,-348.3935
31803.9216,-150.1385,744.9967,595.5150,590.9481,-472.9487,-367.5992
31823.5294,-152.4853,735.9443,593.4749,593.0048,-476.7171,-376.2953
31843.1373,-158.2785,737.0409,588.4278,592.9894,-476.0547,-377.5573
31862.7451,-156.5576,722.8684,572.4950,569.9915,-492.6419,-385.3327
31882.3529,-166.2753,721.9680,566.4052,572.9658,-523.1241,-396.5725
31901.9608,-213.4313,705.9854,537.5467,539.0141,-554.7104,-450.3359
31921.5686,-213.3124,700.1039,533.4476,538.8426,-558.1610,-451.5594
31941.1765,-242.3405,685.9573,499.5624,523.1156,-568.6613,-479.2421
31960.7843,-220.3207,689.9948,525.3885,534.8763,-553.1780,-456.6155
31980.3922,-226.3895,690.9321,526.5693,537.1323,-543.4634,-465.2567
32000.0000,-196.3821,691.9752,551.3478,563.7723,-527.1989,-447.7103
32019.6078,-194.2588,690.9382,554.6646,565.1224,-523.5186,-429.2614
32039.2157,-195.4365,688.9886,545.2376,567.7873,-489.1804,-423.7084
32058.8235,-203.2899,686.9724,548.6276,564.1785,-505.5393,-425.2134
32078.4314,-207.5557,687.9858,537.3041,560.7622,-505.1924,-427.7600
32098.0392,-218.1449,685.9863,543.6823,557.2269,-518.3967,-424.1835
32117.6471,-228.6188,678.0423,524.2696,549.6902,-533.2388,-447.7861
32137.2549,-170.1106,687.9803,577.7331,598.2123,-474.3828,-394.0975
32156.8627,-154.5675,692.9379,582.1801,620.6471,-464.3853,-365.7970
32176.4706,-144.0823,693.9471,599.7561,633.3104,-432.3477,-337.0968
32196.0784,-148.6580,692.9299,593.2014,628.5877,-416.3075,-350.7243
32215.6863,-144.0300,697.9294,599.7898,634.3199,-401.2460,-347.1363
32235.2941,-143.7397,696.8975,606.1672,631.6241,-382.4467,-340.8112
32254.9020,-151.9327,687.0065,592.8962,624.4136,-401.2095,-348.1202
32274.5098,-148.7621,685.9604,598.1122,627.5460,-397.3621,-335.8062
32294.1176,-122.9246,693.9661,605.9276,646.3881,-374.2642,-315.0145
32313.7255,-119.8483,696.8823,610.1085,655.5973,-339.4392,-300.8609
32333.3333,-118.8999,707.0530,622.9647,658.4274,-339.2271,-301.0298
32352.9412,-112.9416,701.0155,623.0773,666.4859,-321.5448,-282.8962
32372.5490,-139.8587,696.9594,614.9788,647.4167,-327.1540,-288.9292
32392.1569,-135.9850,688.9212,608.9585,645.4982,-334.4844,-273.8597
32411.7647,-134.8451,704.0834,615.9797,651.4844,-339.1455,-265.0094
32431.3725,-117.0037,705.9726,628.9786,641.4359,-305.6413,-201.9277
32450.9804,-110.8082,708.0613,627.0627,643.5333,-292.9589,-178.9529
32470.5882,-122.0134,703.9846,623.9721,630.5086,-318.5792,-181.9451
32490.1961,-124.6750,700.1181,612.0273,628.4731,-325.0720,-164.9695
32509.8039,-131.9861,687.9203,604.8773,628.4110,-324.7312,-162.9657
32529.4118,-131.5854,692.0089,603.0657,624.5720,-339.9077,-151.8631
32549.0196,-103.0652,693.8784,615.9102,649.4855,-304.6355,-111.9154
32568.6275,-127.5753,689.0306,602.1155,635.4948,-297.8854,-124.8077
32588.2353,-132.0609,686.9208,587.8286,620.4169,-318.6620,-137.9666
32607.8431,-125.5547,684.0651,596.0593,627.5323,-317.9820,-125.8025
32627.4510,-120.1771,689.8990,593.8746,653.3829,-322.6327,-105.9135
32647.0588,-104.5102,686.0513,620.1345,655.4952,-302.8644,-95.8521
32666.6667,-103.1763,688.9044,611.8312,657.4199,-296.8499,-90.9607
32686.2745,-105.4706,687.0450,604.1216,643.6101,-287.7471,-73.8243
32705.8824,-143.2405,686.9197,576.8253,626.3928,-316.7792,-96.0103
32725.4902,-138.5160,683.0685,592.1141,653.5502,-308.7178,-69.7812
32745.0980,-147.2448,673.8405,590.7757,627.3662,-324.8966,-88.9806
32764.7059,-130.3922,685.0552,590.1890,630.5073,-322.6939,-70.7727
32784.3137,-117.3192,685.9300,599.7501,652.3744,-297.7947,-57.0435
32803.9216,-121.4215,683.0648,601.1407,657.6077,-284.8372,-43.7174
32823.5294,-130.2632,684.9399,596.8146,658.3760,-277.9094,-38.0630
32843.1373,-154.3338,676.1067,572.2453,650.6203,-304.7255,-60.8125
32862.7451,-152.2904,684.9442,588.7830,651.3870,-292.7985,-52.0385
32882.3529,-132.4541,686.0351,589.2605,667.5357,-282.8401,-35.7725
32901.9608,-114.4082,692.8987,602.7427,690.3782,-267.8746,-10.0369
32921.5686,-95.3798,691.9903,621.2225,709.5901,-237.7689,4.1138
32941.1765,-93.4152,705.9868,616.7027,709.3864,-227.8584,9.8274
32960.7843,-118.3538,687.0191,590.2638,684.5834,-262.6821,-25.6785
32980.3922,-117.4181,687.9462,586.6885,685.3625,-265.9211,-25.0217
33000.0000,-123.2997,689.9937,581.2873,687.5245,-261.7934,-33.7163
33019.6078,-115.4476,686.9601,587.6489,688.4293,-247.7788,-33.0874
33039.2157,-124.2813,686.0118,592.2292,708.6058,-241.6626,-36.7241
33058.8235,-107.3680,687.9633,597.7256,718.3530,-237.9440,-26.0564
33078.4314,-102.2612,689.9781,583.2509,699.5336,-228.7469,-19.7274
33098.0392,-113.4808,684.9942,598.6925,717.3778,-211.9069,-14.1139
33117.6471,-112.3303,688.9719,594.3098,714.6077,-213.6504,-21.6048
33137.2549,-111.5088,689.9698,595.6450,711.3721,-217.8143,-19.1594
33156.8627,-121.2659,688.9612,587.2684,690.5667,-219.5555,-41.7220
33176.4706,-108.3952,689.9808,592.7240,705.3713,-230.9396,-31.1216
33196.0784,-120.2673,688.9489,591.2787,706.4966,-221.7465,-31.6471
33215.6863,-151.4180,684.0319,548.6222,664.4256,-270.9663,-72.1415
33235.2941,-162.2879,680.9848,548.2748,660.5061,-275.7809,-86.6047
33254.9020,-181.5202,682.0573,524.6843,651.4310,-303.9980,-102.0946
33274.5098,-201.3187,668.8868,502.2421,626.5446,-340.7366,-129.6042
33294.1176,-225.5280,657.0665,481.6803,597.3684,-368.9571,-166.1278
33313.7255,-282.2367,645.8549,422.3099,569.5209,-432.6096,-205.6949
33333.3333,-327.4556,617.0107,355.5798,522.4604,-475.9056,-244.2532
33352.9412,-373.2382,604.9388,333.2652,516.5436,-518.7983,-269.5812
33372.5490,-370.4665,594.0106,339.6669,510.4530,-528.8297,-274.2039
33392.1569,-337.3227,614.8581,356.2246,537.5026,-479.6539,-228.5595
33411.7647,-307.4333,628.1364,389.5964,581.4531,-432.7982,-190.1938
33431.3725,-272.3097,631.8979,425.2225,584.4510,-411.6425,-137.6028
33450.9804,-274.4936,632.1256,437.7066,579.5033,-403.9168,-117.2541
33470.5882,-265.3607,637.8418,444.2880,582.4776,-399.8438,-106.5197
33490.1961,-249.5010,652.1782,497.6042,611.5148,-340.9136,-83.1802
33509.8039,-196.2296,656.8693,498.2238,628.4482,-299.6735,-23.4837
33529.4118,-165.4502,658.1568,528.7091,652.4766,-257.7862,-5.2092
33549.0196,-136.3307,678.8730,542.3188,683.4900,-218.7610,49.3633
33568.6275,-132.3641,686.1609,556.6539,701.5292,-209.8725,55.6535
33588.2353,-101.2814,693.7533,582.2737,719.4030,-177.6587,85.3491
33607.8431,-106.3766,691.1479,569.6532,703.4990,-183.8333,74.6253
33627.4510,-116.3373,686.7806,560.2872,688.5031,-192.7602,43.3623
33647.0588,-136.4559,686.2017,535.6472,669.5475,-218.8130,16.6218
33666.6667,-162.3441,672.6864,528.2100,650.4885,-246.7962,-9.4432
33686.2745,-158.4516,671.1511,527.6328,658.5143,-245.7086,-6.2968
33705.8824,-138.3680,675.8122,549.2175,693.3926,-204.8204,23.4045
33725.4902,-94.4145,691.2067,582.6682,720.5599,-158.8565,70.5359
33745.0980,-96.3611,690.6961,575.2087,716.4393,-161.7501,59.5259
33764.7059,-101.3530,694.2070,565.6744,715.5447,-169.7712,47.4990
33784.3137,-112.4125,690.6774,564.2677,715.4552,-164.8288,27.4806
33803.9216,-102.3313,689.2596,567.7505,718.4949,-155.7579,44.4593
33823.5294,-93.4132,685.6888,590.2474,735.4274,-142.7593,47.4981
33843.1373,-72.3555,698.2211,600.6830,746.5751,-121.6181,61.5425
33862.7451,-82.3587,695.6066,609.1906,750.3832,-121.7773,66.5172
33882.3529,-66.2329,699.2341,599.7217,736.5272,-124.6607,50.4496
33901.9608,-96.4313,689.6256,582.2123,719.3579,-154.8244,22.5175
33921.5686,-82.2569,691.3051,588.7955,741.5634,-153.7324,28.4097
33941.1765,-90.4905,689.6051,592.1592,744.3603,-152.8848,21.5330
33960.7843,-77.2716,706.3920,598.7657,747.5746,-153.7151,31.4004
33980.3922,-90.5057,697.5339,599.1993,741.4163,-156.8384,27.5991
34000.0000,-90.3108,704.4268,579.8286,732.6246,-153.6861,18.4218
34019.6078,-96.4890,700.6615,568.2094,717.3768,-187.0439,-19.2938
34039.2157,-101.2218,701.4647,577.7740,735.5718,-162.6301,-7.5176
34058.8235,-76.4959,704.6169,588.1191,751.3313,-147.0433,9.6623
34078.4314,-94.2457,698.3364,580.8235,743.5469,-153.6391,-7.5432
34098.0392,-101.4951,707.5811,576.2065,733.4280,-145.9706,-6.1561
34117.6471,-111.2588,696.3683,567.8394,730.5585,-152.5176,-24.5457
34137.2549,-105.4916,704.5822,567.2022,736.3604,-145.1252,-12.1686
34156.8627,-121.1792,698.3734,565.7866,719.6514,-152.4923,-32.6266
34176.4706,-103.5265,696.4503,566.0955,720.4169,-142.9585,-28.1103
34196.0784,-107.1022,695.4120,561.7924,726.6465,-128.4076,-33.6580
34215.6863,-128.5288,693.4515,543.1252,710.3604,-162.0100,-60.1539
34235.2941,-138.1696,691.4559,534.8382,711.5723,-150.4689,-67.6431
34254.9020,-156.6571,690.4559,512.1360,694.4181,-164.0034,-75.0920
34274.5098,-152.0612,687.4991,506.9115,685.5833,-157.4414,-80.7487
34294.1176,-163.6336,690.4410,525.1194,698.3367,-152.2142,-82.9855
34313.7255,-159.1391,687.5118,516.8857,705.5724,-155.4502,-80.7760
34333.3333,-151.5896,692.4164,533.1237,717.3372,-147.2044,-68.9929
34352.9412,-173.0272,684.5450,516.9030,687.6795,-172.4839,-84.7007
34372.5490,-134.7130,704.4904,542.1008,715.3751,-124.0384,-63.9287
34392.1569,-129.9902,721.4858,566.9692,730.5986,-99.4017,-22.7114
34411.7647,-116.7061,717.3928,564.0771,712.3085,-102.1869,-0.0012
34431.3725,-131.9563,709.5762,603.9106,700.6822,-101.3406,7.0733
34450.9804,-102.6718,712.4131,640.1081,718.3132,-88.2122,30.9734
34470.5882,-107.9466,714.5571,649.9656,685.6045,-105.2538,30.0644
34490.1961,-105.6739,716.3747,654.0629,707.3965,-104.2020,32.0075
34509.8039,-86.9180,723.5112,673.9121,719.6967,-93.1981,51.0470
34529.4118,-90.7857,720.3387,668.0181,693.2922,-99.1924,51.0308
34549.0196,-85.9070,734.6147,694.9418,713.6919,-90.3353,61.9647
34568.6275,-73.7696,731.4257,689.9940,711.3165,-88.2708,66.0342
34588.2353,-78.9268,718.5678,690.9510,713.6999,-93.1530,60.0570
34607.8431,-64.7011,738.3708,706.0179,721.3691,-58.3243,85.0584
34627.4510,-73.9471,728.6783,698.9780,719.7073,-84.1685,72.9863
34647.0588,-82.7449,733.3956,688.0249,718.3035,-91.3710,62.0700
34666.6667,-89.9684,733.6558,688.0594,707.7040,-105.1353,43.9097
34686.2745,-75.8028,735.3771,697.9731,720.3839,-96.2078,58.1938
34705.8824,-72.9133,731.6769,692.0859,719.7301,-97.2319,57.9806
34725.4902,-82.7734,727.4214,688.9697,717.3167,-128.3788,53.1857
34745.0980,-93.9090,728.7042,684.0781,713.7258,-123.0245,27.8940
34764.7059,-105.7878,729.4031,670.9775,704.3134,-153.3335,20.2494
34784.3137,-90.9135,726.7215,663.0735,704.6590,-155.1569,30.8875
34803.9216,-94.8696,718.3074,681.9031,713.2563,-148.3184,20.2693
34823.5294,-80.8170,725.7321,688.1130,728.7041,-131.0683,47.8515
34843.1373,-94.8846,734.3652,687.9623,720.3564,-132.3700,26.1959
34862.7451,-100.8189,717.6207,656.0502,707.7507,-164.0755,13.8718
34882.3529,-92.9103,728.4009,664.8721,708.3339,-140.4804,12.2564
34901.9608,-87.7437,733.6854,673.0682,719.7776,-132.9953,21.7841
34921.5686,-79.8629,739.3290,678.9552,731.2554,-119.4964,34.2861
34941.1765,-76.7982,737.6608,685.1071,730.6996,-125.9775,34.8524
34960.7843,-92.9328,727.4037,672.8686,729.2813,-126.5143,15.3073
34980.3922,-90.8491,730.7059,660.0894,718.6926,-148.0530,10.8136
35000.0000,-90.9556,732.3723,663.8657,724.2403,-139.4370,3.2450
35019.6078,-69.8259,732.6934,682.0924,745.8069,-122.0038,14.8326
35039.2157,-88.9782,732.3772,659.8486,738.2042,-126.5429,3.2601
35058.8235,-90.8287,727.7236,656.1024,718.7230,-153.0512,-3.0318
35078.4314,-93.9559,727.4091,656.9228,718.2051,-154.5519,-10.5560
35098.0392,-97.7801,719.6077,657.2035,721.7971,-144.9466,-12.0999
35117.6471,-95.9590,719.2959,657.8785,731.1830,-127.4528,-9.5493
35137.2549,-94.7859,722.5867,651.1443,740.8206,-122.8338,-9.0809
35156.8627,-104.9088,718.3071,651.7947,721.2346,-148.4601,-30.5478
35176.4706,-101.7336,720.5960,640.2205,737.7722,-146.8835,-25.0582
35196.0784,-114.9948,716.3254,625.7913,722.2012,-157.4399,-32.5577
35215.6863,-106.6966,720.5927,632.2116,720.8686,-146.8686,-40.1545
35235.2941,-117.9736,718.3194,629.7957,711.1503,-181.5105,-59.5943
35254.9020,-114.7832,711.6469,622.1376,714.8819,-179.8820,-61.1599
35274.5098,-106.9018,712.3652,633.8010,718.1188,-174.5221,-58.5854
35294.1176,-116.7692,716.6080,625.1784,715.8824,-181.8416,-63.0476
35313.7255,-102.9300,716.3450,626.8699,718.0964,-169.5046,-53.5574
35333.3333,-103.7081,717.5961,630.1620,721.9083,-151.8715,-51.0988
35352.9412,-119.9697,706.4150,616.7801,689.1381,-189.6378,-56.5848
35372.5490,-138.7702,700.6980,612.1906,683.9230,-194.9561,-47.0693
35392.1569,-121.9566,705.4306,639.8564,695.1233,-177.6146,-22.5029
35411.7647,-118.7529,710.6247,636.2488,687.9927,-172.8564,-12.0954
35431.3725,-118.9732,710.4053,628.7982,693.0167,-153.5586,-6.5344
35450.9804,-119.7480,716.5779,630.1800,686.9125,-166.9456,0.7435
35470.5882,-122.9572,707.4300,624.7738,680.9645,-185.5090,-20.5153
35490.1961,-99.7351,718.5564,641.2386,697.9713,-148.7880,12.8238
35509.8039,-77.9541,722.3409,636.7943,690.0116,-150.5226,16.3267
35529.4118,-95.7590,718.5487,640.2767,691.9930,-145.9387,15.8591
35549.0196,-86.8975,714.4003,633.7501,691.9435,-135.6583,19.3309
35568.6275,-87.6732,719.5338,625.2137,686.9919,-126.9184,11.8418
35588.2353,-64.8888,724.5117,655.7380,702.9497,-138.7205,29.2537
35607.8431,-65.6733,727.6383,649.2678,709.0898,-134.7918,27.8286
35627.4510,-69.0019,731.4747,641.7661,717.8758,-145.7256,36.2794
35647.0588,-74.7667,732.5959,651.2119,719.0477,-152.9528,25.8285
35666.6667,-79.9249,738.4388,631.8029,712.8193,-150.5352,30.2270
35686.2745,-95.7841,727.6198,623.2719,712.0913,-178.9843,17.9188
35705.8824,-93.9713,734.4728,614.7968,718.7965,-174.5933,20.2731
35725.4902,-78.7561,744.5011,629.2243,722.1747,-149.9003,34.9128
35745.0980,-59.8945,747.3959,627.7971,720.8511,-151.6221,37.2373
35764.7059,-90.8312,741.5107,616.2208,710.1919,-181.8410,5.8664
35784.3137,-84.8707,735.4832,620.7570,708.8035,-152.7143,18.2223
35803.9216,-99.7841,734.5472,607.2269,687.1763,-194.9664,-4.9314
35823.5294,-110.9797,732.5122,602.7820,693.8138,-188.5786,-2.6814
35843.1373,-78.7818,736.5270,627.2689,716.2687,-151.8838,14.9614
35862.7451,-71.9296,746.4297,630.7268,730.6872,-163.6362,21.0685
35882.3529,-69.8504,734.5339,629.2117,725.2567,-170.9167,36.9900
35901.9608,-102.8670,734.5138,595.7407,696.6850,-190.5428,-10.7796
35921.5686,-109.7497,725.5845,596.1656,690.3497,-218.8315,-12.9272
35941.1765,-84.8271,731.5460,616.7597,723.6235,-187.6830,10.0762
35960.7843,-93.8632,732.5275,607.2124,721.3986,-184.9344,4.9526
35980.3922,-104.8382,733.5418,603.7596,703.6016,-206.4860,-8.8203
36000.0000,-108.7801,730.5320,592.1430,716.4059,-214.9111,-17.9169
36019.6078,-109.7953,719.4774,591.7404,711.5380,-232.5077,-13.8792
36039.2157,-105.8077,727.5445,597.2408,708.4728,-237.8843,-18.8982
36058.8235,-111.9125,719.4865,584.8217,705.4888,-238.6225,-29.8808
36078.4314,-118.8819,723.3976,596.1374,695.5150,-244.0214,-28.8100
36098.0392,-119.8504,716.5129,583.8604,696.5009,-242.5456,-45.8821
36117.6471,-124.8614,720.4085,559.1934,687.4521,-265.9114,-46.7781
36137.2549,-142.8350,716.5209,568.8051,690.4576,-267.4677,-57.9848
36156.8627,-130.8318,712.4526,561.1288,687.4867,-260.0180,-52.7901
