t,AF3,F7,F3,F4,F8,AF7,
0.0000,-190.4854,62.9992,124.1005,157.0348,-227.7130,840.9880
19.6078,-190.9214,62.9384,123.9540,156.9425,-227.7201,841.0301
39.2157,-190.4915,63.0019,124.1081,157.0318,-227.6909,840.9758
58.8235,-190.9133,62.9351,123.9461,156.9461,-227.7466,841.0464
78.4314,-190.5030,63.0055,124.1163,157.0265,-227.6651,840.9584
98.0392,-190.9043,62.9326,123.9379,156.9523,-227.7715,841.0638
117.6471,-190.5138,63.0080,124.1231,157.0198,-227.6393,840.9399
137.2549,-190.8949,62.9291,123.9307,156.9576,-227.7954,841.0810
156.8627,-190.5227,63.0114,124.1310,157.0141,-227.6177,840.9234
176.4706,-190.8841,62.9259,123.9234,156.9641,-227.8178,841.0966
196.0784,-190.5320,63.0148,124.1386,157.0083,-227.5945,840.9101
215.6863,-190.8731,62.9221,123.9142,156.9708,-227.8433,841.1122
235.2941,-190.5453,63.0185,124.1486,157.0002,-227.5694,840.8945
254.9020,-190.8602,62.9179,123.9038,156.9791,-227.8657,841.1270
274.5098,-190.5576,63.0224,124.1592,156.9917,-227.5476,840.8807
294.1176,-190.8457,62.9140,123.8936,156.9884,-227.8923,841.1408
313.7255,-190.5755,63.0264,124.1687,156.9824,-227.5184,840.8654
333.3333,-190.8313,62.9101,123.8842,156.9978,-227.9218,841.1557
352.9412,-190.5895,63.0302,124.1769,156.9729,-227.4920,840.8518
372.5490,-190.8161,64.9147,124.8657,154.0036,-227.9482,836.2169
392.1569,-197.7339,68.0557,127.1612,155.9795,-251.5295,818.8707
411.7647,-188.8549,90.9112,126.8381,154.9969,-252.0401,837.0920
431.3725,-203.8029,96.0690,144.1288,157.9329,-254.5372,815.8414
450.9804,-188.8402,96.9323,157.7753,157.0312,-261.1727,841.1968
470.5882,-208.7891,123.0775,154.1585,160.9249,-217.4387,827.8896
490.1961,-211.9517,106.8596,152.8095,167.0394,-245.1529,846.1591
509.8039,-214.6405,107.0127,154.1686,158.9483,-213.5143,808.7107
529.4118,-190.7569,121.9201,157.7551,168.0914,-249.0837,814.2943
549.0196,-214.6554,121.0772,158.1430,156.9134,-236.4684,819.6839
568.6275,-220.7874,124.9281,156.7534,157.0690,-246.0713,809.1312
588.2353,-220.7263,124.0938,157.1628,158.9220,-226.4728,817.7340
607.8431,-211.9078,119.9037,155.7517,159.1049,-232.2248,815.1727
627.4510,-207.7772,119.0754,161.2479,155.9033,-236.4222,822.6735
647.0588,-199.7878,119.9005,156.7322,164.0882,-233.1121,815.1830
666.6667,-210.8188,120.0837,163.2407,163.8623,-228.3823,809.7429
686.2745,-221.8152,118.8918,161.7877,155.0893,-243.1096,807.2221
705.8824,-215.8062,119.0802,161.2684,159.8610,-225.3274,807.7979
725.4902,-229.7978,131.9480,158.8044,158.1075,-231.2024,804.2095
745.0980,-216.9013,126.1133,156.2128,165.8562,-227.2644,809.7352
764.7059,-203.8475,129.9367,161.7676,158.1230,-237.2855,809.1652
784.3137,-203.9483,129.1287,164.2619,156.8270,-238.3076,805.6395
803.9216,-200.8048,128.9281,159.7728,165.1875,-254.2052,806.1549
823.5294,-203.9614,129.1316,169.2305,155.8294,-259.3278,794.6558
843.1373,-198.6284,128.9260,167.6913,165.2030,-260.2889,781.1711
862.7451,-198.7886,129.1344,168.2498,158.8181,-288.3649,797.6736
882.3529,-214.6096,125.9111,164.7073,156.2048,-240.3504,782.2439
901.9608,-218.9018,128.1327,163.3043,153.7769,-263.2159,803.7062
921.5686,-201.6295,142.8689,171.7455,158.1836,-244.2546,792.1508
941.1765,-200.9753,146.0989,169.2605,163.7579,-294.2092,814.6949
960.7843,-218.6895,129.9247,176.6918,162.2426,-245.3467,775.1318
980.3922,-220.8735,139.0689,177.3087,162.7603,-256.2685,779.8108
1000.0000,-216.7312,142.8671,177.6741,164.2229,-259.2211,782.2298
1019.6078,-210.9435,155.1399,179.2995,161.7619,-252.3666,784.7732
1039.2157,-212.6129,151.9038,182.6212,172.2706,-269.1945,787.1759
1058.8235,-212.0352,155.1416,177.3262,167.7549,-270.3610,780.6896
1078.4314,-210.6579,148.8893,180.6280,167.2598,-269.1899,781.1342
1098.0392,-204.9131,155.1429,178.3285,168.7207,-260.3955,780.7021
1117.6471,-219.7283,159.9354,184.6929,158.2625,-263.3309,777.2419
1137.2549,-193.8973,158.1568,184.3939,165.7006,-271.2347,778.7802
1156.8627,-195.5093,158.9302,187.6590,158.2780,-269.1832,781.1119
1176.4706,-199.9570,157.1531,180.3269,164.7033,-290.3162,777.7157
1196.0784,-198.5332,164.8441,188.6410,157.3107,-274.1625,778.0819
1215.6863,-199.9650,159.1613,187.3821,156.6573,-281.2142,778.8043
1235.2941,-198.5235,160.8262,184.6700,162.3521,-260.2833,776.1309
1254.9020,-196.9453,158.1573,186.3983,167.6781,-290.3242,776.8832
1274.5098,-213.6475,158.9293,188.6271,169.3578,-313.1760,775.0358
1294.1176,-222.0209,159.1615,185.4138,158.6501,-272.3398,758.8078
1313.7255,-219.6953,157.9250,191.5947,172.3777,-300.1588,757.1456
1333.3333,-212.0822,158.1569,193.3494,163.6014,-291.4295,765.9336
1352.9412,-220.5555,163.8399,185.6405,162.3982,-299.2744,760.1418
1372.5490,-217.0557,176.1217,193.3553,166.5911,-316.3732,752.8142
1392.1569,-212.5561,176.8969,192.5733,174.3710,-296.2276,753.0156
1411.7647,-225.0528,177.1244,186.4230,163.5742,-289.2912,753.9138
1431.3725,-228.5517,175.8954,197.6340,168.4323,-288.1895,748.0378
1450.9804,-215.9766,177.1205,192.3739,177.6019,-310.3379,769.0115
1470.5882,-225.5253,178.9088,196.6380,167.4049,-292.2940,744.1396
1490.1961,-214.8938,177.1197,199.4268,166.5539,-296.4762,750.9451
1509.8039,-231.5787,184.9380,201.5895,158.4030,-319.1549,746.9150
1529.4118,-233.9117,185.1525,200.4223,158.5691,-291.5140,732.8802
1549.0196,-226.6111,186.8349,198.6111,167.4274,-295.0714,749.0417
1568.6275,-214.0235,182.1374,198.4439,167.5717,-297.3867,741.9524
1588.2353,-220.5631,189.8497,205.5459,171.4250,-296.1339,749.8768
1607.8431,-214.8824,185.1480,203.4022,170.5082,-318.4423,752.1021
1627.4510,-228.5638,187.8440,197.6136,164.4430,-292.2063,742.9571
1647.0588,-218.9843,187.0443,210.4525,179.5123,-325.3978,749.1160
1666.6667,-229.6484,186.8413,195.6290,174.4484,-279.1753,740.9919
1686.2745,-225.8948,191.0593,207.3715,182.5077,-303.5274,744.1928
1705.8824,-216.6846,190.8590,205.5387,182.4882,-302.9972,743.9797
1725.4902,-209.8954,188.0447,210.4559,181.5175,-298.5612,745.0845
1745.0980,-216.6923,198.8950,211.5956,179.4919,-302.1102,741.7986
1764.7059,-221.9907,197.0817,210.4553,173.4772,-299.4490,743.1733
1784.3137,-197.6799,197.8926,205.5391,181.5225,-302.0882,752.7554
1803.9216,-201.8833,197.0799,209.4645,178.4962,-301.6360,756.1230
1823.5294,-198.5518,196.8899,206.5299,175.5210,-294.9142,748.8514
1843.1373,-201.0110,197.0774,209.4644,180.5121,-320.5232,752.2725
1862.7451,-214.5558,196.8925,210.6041,162.5266,-317.0067,740.8527
1882.3529,-210.9421,201.0927,211.4465,184.4934,-303.6292,746.2725
1901.9608,-223.6407,199.9074,209.6141,175.5321,-292.0559,743.8417
1921.5686,-218.9288,199.0821,209.4630,181.4842,-295.6253,735.3158
1941.1765,-218.6804,198.9051,211.5973,180.5047,-287.9194,737.7861
1960.7843,-216.9753,199.0804,215.4063,181.4788,-299.5450,736.2021
1980.3922,-214.5854,197.9020,212.5918,182.5329,-294.8403,723.7623
2000.0000,-217.8286,210.1262,214.4120,178.4706,-299.5634,717.2758
2019.6078,-230.5889,207.9468,219.5321,186.5230,-307.8291,714.6916
2039.2157,-227.9762,207.1121,213.4191,184.4738,-288.7404,719.2379
2058.8235,-215.6863,206.9435,213.5880,182.5405,-293.9402,717.6839
2078.4314,-223.8597,207.1113,218.3729,185.4525,-293.7359,718.3975
2098.0392,-216.7753,207.9484,217.5558,185.5477,-303.9054,716.5886
2117.6471,-231.8461,208.1152,212.4212,184.4695,-307.6210,714.3276
2137.2549,-227.8081,209.9568,218.5508,183.5260,-330.7814,706.6598
2156.8627,-228.8105,208.1155,219.3543,183.4281,-309.7924,687.4255
2176.4706,-228.6805,208.9522,220.6493,185.5493,-322.9757,719.5668
2196.0784,-228.8008,212.1333,220.3391,183.4265,-319.7663,690.4572
2215.6863,-215.7231,216.8742,223.6277,182.5451,-328.8227,695.6426
2235.2941,-223.8211,220.0573,219.3428,186.4314,-323.6789,689.3985
2254.9020,-213.7883,219.8854,216.5847,187.5140,-338.7910,709.6262
2274.5098,-231.8077,220.0594,221.4308,187.4717,-319.7795,696.5193
2294.1176,-229.7906,219.8835,219.5621,183.5265,-314.9376,688.5078
2313.7255,-230.7155,220.0614,218.3426,186.4330,-304.8249,695.4561
2333.3333,-214.6704,218.8767,223.6426,189.5346,-327.9460,719.5095
2352.9412,-216.8754,227.0944,223.4010,186.4329,-285.7420,689.4352
2372.5490,-211.8698,230.9253,229.5953,190.5165,-309.9575,694.5179
2392.1569,-217.7330,231.1149,226.3684,192.4427,-310.6683,687.5044
2411.7647,-232.8425,227.9084,225.6371,188.5499,-304.9780,684.6050
2431.3725,-216.8582,232.1233,229.3343,187.4756,-315.6466,685.5710
2450.9804,-218.8009,230.9171,230.5996,185.5435,-319.9460,684.6048
2470.5882,-230.6848,231.1237,218.3135,190.4822,-315.6344,688.3732
2490.1961,-230.6946,230.9120,228.6248,192.5322,-349.8777,684.6028
2509.8039,-229.8166,231.1292,218.3058,186.4404,-300.6603,675.4519
2529.4118,-231.7805,231.9105,223.6770,187.5021,-332.9836,678.5727
2549.0196,-230.6758,228.1222,230.3018,191.4713,-325.5778,678.4675
2568.6275,-230.7044,229.8956,226.6588,189.5207,-321.9460,665.4373
2588.2353,-228.7259,230.1381,229.3008,192.4572,-326.6425,667.4799
2607.8431,-229.8451,229.8884,233.7168,187.4935,-336.0529,661.5643
2627.4510,-230.6667,230.1454,218.2780,190.4976,-317.5220,660.3691
2647.0588,-219.9053,229.8804,228.6617,200.4900,-323.9333,661.5705
2666.6667,-233.6900,230.1539,229.2807,185.4750,-326.6035,664.4529
2686.2745,-230.7122,229.8715,229.6620,199.5028,-326.9961,661.5806
2705.8824,-220.7214,230.1628,235.3284,197.4986,-316.6007,664.4413
2725.4902,-226.8225,229.8623,232.7548,197.4749,-330.0598,662.4545
2745.0980,-236.7141,230.1721,230.2528,199.4687,-335.6504,656.4603
2764.7059,-228.7677,229.8525,229.6816,203.4772,-333.9894,655.5763
2784.3137,-230.6629,230.1823,230.2421,194.5056,-346.4625,656.4467
2803.9216,-227.9026,231.8508,227.7092,192.4934,-309.0873,654.5151
2823.5294,-229.7996,232.2022,232.2138,193.5295,-333.4223,657.5073
2843.1373,-216.8780,235.8567,231.6841,199.4777,-305.2153,658.6230
2862.7451,-230.6680,242.1451,233.3042,196.4842,-303.4718,654.4758
2882.3529,-229.8418,239.8625,232.7961,196.4657,-303.0830,652.6119
2901.9608,-230.6712,239.2555,230.2102,198.5144,-302.3519,657.4719
2921.5686,-226.8117,238.8461,231.7053,199.4614,-321.1117,661.6790
2941.1765,-231.7588,239.2669,231.1910,194.5358,-309.4694,649.2672
2960.7843,-229.8321,238.8344,231.7153,196.4491,-303.1534,646.6265
2980.3922,-229.8189,244.1892,239.2195,200.5529,-300.3248,656.3500
3000.0000,-230.6905,240.7185,231.7260,204.4716,-315.3332,653.7586
3019.6078,-227.8818,239.2922,236.2354,200.5614,-290.3098,657.4009
3039.2157,-232.8416,229.7686,237.7936,200.4184,-304.3171,650.7694
3058.8235,-230.6996,233.2808,239.1982,199.5306,-302.1954,651.3445
3078.4314,-228.7263,244.7082,226.7912,200.4088,-292.4314,654.6731
3098.0392,-224.8736,246.2388,244.1440,205.5486,-317.1126,659.2845
3117.6471,-235.8469,250.7188,232.8582,201.4408,-280.3344,651.6895
3137.2549,-213.8634,242.2360,243.1428,198.5662,-301.2440,649.1304
3156.8627,-216.8170,244.6788,240.7975,199.4082,-292.5157,643.7504
3176.4706,-219.9251,251.2885,246.2161,200.5980,-303.1564,658.1463
3196.0784,-226.7467,248.6833,241.7985,214.4209,-278.4610,643.7817
3215.6863,-218.8573,248.2901,243.1227,204.5952,-288.1618,633.1327
3235.2941,-216.7916,261.7245,245.8831,212.3883,-298.4449,645.7505
3254.9020,-213.8996,261.3593,243.1125,212.5789,-291.1547,655.0682
3274.5098,-214.6158,247.6504,243.8009,213.3599,-314.5285,651.8128
3294.1176,-209.8068,260.3689,241.1200,211.6071,-298.0536,645.9910
3313.7255,-213.7393,254.6683,247.8854,207.3981,-276.6245,654.8602
3333.3333,-209.8208,258.3736,247.1672,216.6454,-309.0745,653.0660
3352.9412,-223.6649,260.6807,246.9047,204.3817,-299.6378,637.8776
3372.5490,-220.8592,262.4043,248.1482,214.6351,-280.8608,626.1163
3392.1569,-203.7663,259.6633,245.9232,214.3660,-291.6487,643.9393
3411.7647,-199.9112,254.3821,247.1472,210.6599,-291.0152,626.9443
3431.3725,-194.6722,259.6506,256.9453,215.3363,-294.7141,651.0787
3450.9804,-186.9603,260.4212,249.1201,222.6902,-305.9478,637.0338
3470.5882,-200.7048,260.6421,252.8800,215.3239,-276.7496,645.0806
3490.1961,-196.9209,259.4284,244.0455,219.6982,-301.7986,643.8932
3509.8039,-213.6535,259.6256,251.8983,209.3021,-281.7662,628.9606
3529.4118,-206.8825,261.4485,254.0571,215.6664,-286.8059,626.8467
3549.0196,-200.6662,260.6186,246.9513,216.2804,-277.6814,628.9926
3568.6275,-201.0648,264.4723,256.0315,216.7194,-306.7223,632.8457
3588.2353,-206.4846,262.6168,246.9596,215.2850,-273.8049,623.2079
3607.8431,-214.0486,264.4829,252.0585,213.7282,-271.7924,630.8799
3627.4510,-185.5021,262.6064,252.9141,213.2492,-291.8234,634.2219
3647.0588,-187.9182,263.4881,250.0688,214.7241,-270.6815,632.7877
3666.6667,-190.4529,263.6016,260.9605,211.2714,-270.8230,627.1440
3686.2745,-193.9896,264.5017,259.0921,211.7328,-269.7900,624.7909
3705.8824,-213.5606,263.5928,252.9277,215.2449,-278.8640,623.2947
3725.4902,-220.1573,264.5085,251.0459,214.7509,-270.6376,622.8305
3745.0980,-205.5464,262.5798,263.9470,213.2090,-283.8671,628.2730
3764.7059,-200.0734,268.4183,248.0641,209.7954,-272.5704,629.6963
3784.3137,-202.5038,269.4939,260.9774,214.2349,-275.8626,627.2194
3803.9216,-192.0924,271.4329,260.0624,211.7736,-284.7035,650.7751
3823.5294,-191.4634,269.4901,261.9741,209.1928,-268.9299,647.2723
3843.1373,-179.1417,271.4370,259.0661,214.7942,-236.5717,661.7402
3862.7451,-186.4781,269.4852,262.9699,213.1637,-259.8244,659.3566
3882.3529,-155.1658,276.4619,264.0161,211.8053,-260.6295,691.6528
3901.9608,-131.3487,278.5206,260.9932,213.1496,-263.9491,704.3912
3921.5686,-148.0504,271.4427,261.0381,213.8412,-215.7512,689.6899
3941.1765,-129.3855,275.5067,260.9972,215.1578,-229.9138,726.3804
3960.7843,-135.0973,271.4438,262.0251,213.8557,-234.6093,711.6375
3980.3922,-136.2876,269.4803,261.9920,215.1426,-222.9791,718.4336
4000.0000,-150.2419,274.4564,260.0389,214.8518,-185.6125,714.6317
4019.6078,-145.3471,294.4775,263.9775,213.1078,-192.8406,717.3770
4039.2157,-135.1305,268.4292,260.0364,221.8562,-199.7118,739.5944
4058.8235,-141.4389,271.4903,261.9980,213.0943,-179.8283,711.3642
4078.4314,-138.1712,267.4220,261.0253,210.8908,-204.6996,724.5020
4098.0392,-140.3482,272.4973,262.9900,214.1216,-192.8337,726.4537
4117.6471,-155.2581,280.4741,278.9744,213.9088,-227.6871,711.5691
4137.2549,-165.4072,281.5408,260.0176,212.0848,-200.8441,698.4686
4156.8627,-171.2644,275.4471,262.0141,212.8838,-194.7423,715.4346
4176.4706,-169.2848,276.5253,260.0177,213.0518,-213.8394,694.3906
4196.0784,-159.1745,271.4232,263.9963,216.9417,-236.5954,718.4376
4215.6863,-160.4099,271.5116,262.9902,207.0897,-171.7723,712.4907
4235.2941,-156.1586,280.4538,262.0156,217.9369,-216.6614,696.4597
4254.9020,-159.3230,295.5071,263.9785,210.0798,-231.8109,683.4243
4274.5098,-172.1610,278.4366,262.0174,219.9721,-217.7602,690.4207
4294.1176,-156.2856,291.6149,264.9678,217.0591,-186.9204,688.3879
4313.7255,-167.1975,292.4854,261.0278,216.9788,-219.7273,711.5219
4333.3333,-162.3301,290.6207,265.9565,219.0122,-197.7399,695.4990
4352.9412,-169.3675,293.4767,262.0209,213.9854,-204.7902,693.4269
4372.5490,-164.2680,292.6408,261.9888,215.9953,-201.8326,694.4249
4392.1569,-163.3209,293.4648,277.0025,213.9955,-228.8807,708.5010
4411.7647,-159.2922,292.6548,259.0104,220.0310,-190.7504,693.5651
4431.3725,-145.1720,294.3425,266.9865,214.9863,-206.7961,724.4371
4450.9804,-157.3409,294.5652,265.9424,215.9798,-241.6694,695.5050
4470.5882,-188.1880,295.3324,260.0524,214.9935,-214.8416,649.4901
4490.1961,-185.2203,295.5819,262.9648,214.0087,-236.6596,660.4001
4509.8039,-149.2869,294.3131,272.0616,214.9997,-235.8915,661.5504
4529.4118,-139.1813,299.6139,274.9627,214.0013,-267.6387,688.3986
4549.0196,-164.2003,303.3362,267.9929,214.0258,-231.7932,663.4905
4568.6275,-160.3625,301.6404,266.9181,216.9975,-270.6523,662.5500
4588.2353,-160.3092,301.3128,270.0901,217.0374,-241.7917,665.4323
4607.8431,-160.3620,299.6481,271.9773,218.9549,-253.7102,688.3901
4627.4510,-158.3626,302.3001,266.0225,209.0124,-229.9036,656.6088
4647.0588,-160.3652,300.6676,263.9300,235.9917,-244.5694,665.5571
4666.6667,-169.3828,301.2783,273.0773,218.0332,-265.9260,653.5979
4686.2745,-169.2261,303.6978,272.9539,226.9737,-289.6336,676.5353
4705.8824,-173.2700,303.2672,269.0102,232.0208,-260.0976,657.4818
4725.4902,-181.3345,306.7286,267.8808,227.9507,-248.6342,655.4212
4745.0980,-160.2943,296.2180,267.0360,230.0592,-244.0849,664.5973
4764.7059,-155.1896,313.7779,272.9368,229.9710,-249.4729,675.4393
4784.3137,-160.2890,321.1949,274.0939,227.0536,-223.9502,658.5726
4803.9216,-171.1900,314.8024,270.9447,228.9327,-260.5020,660.3613
4823.5294,-166.3325,304.2128,270.1375,230.0565,-282.0804,655.5654
4843.1373,-165.3616,302.7696,266.8617,228.9357,-251.3639,652.3839
4862.7451,-156.1642,317.2482,276.0930,231.0374,-240.0534,659.4545
4882.3529,-168.3985,317.8544,273.9006,230.9579,-251.3341,655.3866
4901.9608,-164.1536,320.2416,273.1288,229.0140,-255.0409,654.5127
4921.5686,-179.2150,320.7743,274.8817,228.9370,-222.4705,650.4222
4941.1765,-180.1339,316.2050,279.0860,234.0381,-247.2659,656.6783
4960.7843,-180.3085,304.8371,279.8279,231.9459,-274.2577,644.3801
4980.3922,-186.1732,310.1586,281.0754,230.0451,-282.1945,639.6746
5000.0000,-189.3993,308.8749,276.8470,230.9700,-251.2545,622.4048
5019.6078,-201.2884,323.0818,276.1273,232.0025,-279.1843,618.5777
5039.2157,-200.4378,317.9337,279.8131,228.9537,-293.2856,602.3655
5058.8235,-191.1160,324.0670,271.1793,228.0091,-277.2582,598.5584
5078.4314,-199.3707,319.9605,280.7953,236.9923,-286.3244,604.2969
5098.0392,-200.1786,323.0431,275.1526,231.0072,-288.3395,597.7063
5117.6471,-200.4725,318.9755,274.8396,234.9761,-305.3757,597.3925
5137.2549,-202.1046,324.0284,277.1436,230.0177,-295.3035,596.6414
5156.8627,-200.4895,325.9130,275.8218,228.9756,-262.2049,605.3478
5176.4706,-185.2269,323.0054,282.2196,231.9716,-266.2803,626.5898
5196.0784,-201.3697,321.9143,277.7945,228.9897,-291.2307,603.3979
5215.6863,-211.1438,321.9818,277.1620,230.9741,-286.2538,599.6808
5235.2941,-218.4641,321.9319,276.7948,227.0385,-294.2430,595.4158
5254.9020,-208.0977,320.9598,281.1349,235.9878,-287.3596,591.7266
5274.5098,-200.5458,320.9452,292.7549,242.0153,-289.2374,596.2634
5294.1176,-187.1122,323.9557,284.2243,229.9683,-288.4637,595.6171
5313.7255,-197.5405,324.9792,289.7750,228.0444,-273.1723,586.3460
5333.3333,-197.0340,321.9291,291.1703,229.9561,-299.3239,595.6301
5352.9412,-200.5869,321.9826,282.8288,247.0649,-283.1262,593.2252
5372.5490,-198.9563,321.9136,286.2238,238.8992,-281.3495,592.6279
5392.1569,-198.4530,321.9978,275.7730,244.0741,-308.0367,601.1800
5411.7647,-211.0347,321.8988,277.1979,242.9292,-278.5500,579.7197
5431.3725,-212.5254,322.0121,284.7984,233.1102,-285.0370,570.1541
5450.9804,-212.0880,324.8976,286.2362,242.9151,-268.3785,583.8268
5470.5882,-209.5232,323.0298,289.7463,241.0986,-305.1755,588.2325
5490.1961,-225.0301,322.8757,279.1937,242.8997,-259.5122,563.8132
5509.8039,-223.5958,323.0426,289.7402,247.1227,-294.1001,571.2014
5529.4118,-220.0384,323.8670,290.2114,249.8743,-306.5731,583.8592
5549.0196,-212.5986,323.0539,288.7436,244.1360,-261.1315,567.3103
5568.6275,-207.9095,325.8636,292.1996,245.8695,-274.4985,569.6584
5588.2353,-212.6242,323.0651,282.7922,244.1514,-263.0659,571.1724
5607.8431,-215.8796,322.8399,296.2776,246.8375,-299.4477,567.7369
5627.4510,-232.7467,324.0799,286.7537,242.1457,-260.0142,557.1626
5647.0588,-233.7942,323.8341,289.2329,241.7937,-272.5850,556.7656
5666.6667,-227.8030,324.0896,295.7798,251.1744,-279.0722,561.2366
5686.2745,-223.8253,323.8237,300.2488,243.7998,-271.5211,561.7385
5705.8824,-214.6485,325.1021,293.7936,249.2245,-268.8669,565.0952
5725.4902,-212.7727,325.8238,299.2605,250.7771,-273.4867,559.8187
5745.0980,-231.7496,326.1150,301.7202,252.2449,-267.9887,565.0782
5764.7059,-234.7933,324.8110,304.2181,249.7791,-277.6160,534.8531
5784.3137,-225.7239,325.1187,309.7569,253.2435,-282.9346,541.1573
5803.9216,-225.6874,324.8038,311.2697,251.7845,-279.5795,539.8217
5823.5294,-207.8118,325.1248,310.7453,253.2588,-284.8693,543.0820
5843.1373,-211.8273,324.7983,312.2630,253.7338,-278.7303,542.8532
5862.7451,-211.9450,326.1332,308.7621,249.2889,-263.8254,531.0060
5882.3529,-214.6104,324.7925,307.3062,249.7301,-255.5443,533.8233
5901.9608,-215.8615,322.1225,317.7936,251.2693,-254.9258,537.0245
5921.5686,-207.6687,321.7730,307.3048,256.7057,-294.5773,543.9584
5941.1765,-212.8617,323.1314,318.7840,252.3241,-247.9774,530.1180
5960.7843,-219.7451,323.7778,306.3157,247.6775,-257.7345,534.9290
5980.3922,-218.9407,322.1311,311.7359,251.2972,-259.8934,536.1312
6000.0000,-231.6057,324.7780,311.2693,251.7086,-241.6972,528.9136
6019.6078,-225.8823,325.1477,310.7473,248.3063,-267.9055,538.0557
6039.2157,-228.5551,324.7737,311.2654,250.6554,-259.7020,530.8678
6058.8235,-230.8785,326.1561,313.7231,249.3589,-262.9125,530.9332
6078.4314,-231.5536,325.7743,308.2906,256.6520,-277.7025,530.8843
6098.0392,-231.9866,325.1552,315.7079,256.3619,-260.9526,524.0252
6117.6471,-228.5016,324.7667,315.2269,254.6182,-269.6896,524.0096
6137.2549,-230.9345,321.1408,319.7860,255.3341,-270.9212,520.9936
6156.8627,-230.4230,322.7556,317.2044,258.6521,-287.6898,533.0709
6176.4706,-222.0991,322.1464,322.7628,249.3914,-276.7647,517.9615
6196.0784,-226.5045,321.7484,318.3025,254.5992,-266.6718,519.9506
6215.6863,-230.9856,322.1493,320.7828,248.3604,-272.8561,509.9769
6235.2941,-230.3704,321.7462,319.2915,258.6335,-282.7191,507.0453
6254.9020,-216.0983,328.1755,318.8037,254.3780,-287.8090,497.8989
6274.5098,-215.4335,322.7493,321.2701,255.6232,-292.6995,496.9415
6294.1176,-221.0938,325.1647,322.7721,253.4002,-304.9324,499.8195
6313.7255,-217.3554,325.7600,321.2643,258.6215,-295.7366,496.9544
6333.3333,-211.1743,326.1707,322.7784,257.3932,-323.7881,500.8819
6352.9412,-228.3556,332.7897,321.2592,258.6161,-308.7561,502.1412
6372.5490,-230.2151,325.1686,321.7897,254.3928,-305.7851,497.8500
6392.1569,-229.4163,324.7524,325.2206,259.5955,-310.7090,500.0044
6411.7647,-229.1528,325.1695,319.8125,259.4236,-329.8522,503.8633
6431.3725,-241.2832,335.7974,323.2323,251.6165,-298.7844,484.0840
6450.9804,-228.3073,331.1970,319.8190,255.3820,-316.8410,501.9087
6470.5882,-224.4059,332.7840,321.2452,260.5717,-310.7159,504.1321
6490.1961,-234.1640,334.2117,318.8307,262.4326,-305.7772,498.8763
6509.8039,-236.2718,325.7501,323.2225,261.6093,-320.6945,494.2404
6529.4118,-234.1834,322.1626,319.8263,259.4278,-293.8517,494.7686
6549.0196,-235.3898,327.7567,322.2286,259.5880,-298.7984,501.1510
6568.6275,-236.3625,333.2103,320.8203,261.3899,-323.7642,501.8582
6588.2353,-240.3428,332.7762,322.2247,260.5720,-309.8635,502.2429
6607.8431,-245.2437,332.2111,322.8059,263.4097,-314.8663,498.8258
6627.4510,-226.2759,321.7234,324.2046,260.5748,-325.6986,500.1088
6647.0588,-233.3738,324.1804,320.8246,258.3800,-317.6842,495.7908
6666.6667,-240.3062,323.7293,318.2570,261.6194,-345.8586,505.2971
6686.2745,-240.3038,323.1792,319.8354,259.4158,-302.7254,479.8357
6705.8824,-230.1349,321.7161,321.2279,257.5787,-319.8464,489.1632
6725.4902,-229.2994,327.2007,322.8101,259.4092,-326.7883,493.8162
6745.0980,-229.2560,326.7351,322.2179,258.6259,-349.7659,496.2896
6764.7059,-230.3927,322.1820,320.8270,258.3622,-307.7054,497.6734
6784.3137,-242.2125,324.7225,321.2278,258.6324,-319.8475,499.3243
6803.9216,-234.2936,329.2156,318.8444,259.3946,-314.8623,498.7299
6823.5294,-243.2796,331.7491,316.1642,259.6226,-311.8265,496.3263
6843.1373,-232.3596,332.2329,321.8167,260.3695,-344.7797,501.7299
6862.7451,-241.1061,332.7486,323.2122,260.6131,-298.8216,499.3589
6882.3529,-245.3409,333.2420,317.8526,261.3422,-315.7259,498.6975
6901.9608,-235.2584,331.7389,319.2475,260.6230,-314.8646,503.2518
6921.5686,-253.3487,329.2300,320.8258,261.3321,-316.8106,482.5296
6941.1765,-248.2137,332.7378,323.2130,261.6738,-313.7849,481.3000
6960.7843,-231.3185,332.2484,319.8324,261.3213,-344.7711,486.6045
6980.3922,-240.2061,332.7323,322.2249,258.6803,-288.8598,486.2700
7000.0000,-234.3539,328.2367,318.8367,262.3503,-317.6671,483.5740
7019.6078,-229.1735,330.7179,324.2108,260.6564,-315.7471,494.4703
7039.2157,-241.4926,334.2685,322.7983,261.2979,-304.8706,473.6516
7058.8235,-240.1863,321.6731,323.2241,259.6863,-302.7442,470.3650
7078.4314,-243.4482,334.2747,319.8185,261.2858,-322.8592,487.6342
7098.0392,-245.1501,321.6662,323.2313,261.7216,-293.8610,481.3636
7117.6471,-245.4006,323.2333,321.7936,261.2725,-301.8250,506.5718
7137.2549,-237.1476,329.6942,324.2282,262.7169,-320.7472,494.5123
7156.8627,-243.4624,333.2830,320.7961,258.2555,-295.7524,492.5590
7176.4706,-241.0332,324.6660,320.2707,259.7246,-321.8403,485.4792
7196.0784,-242.3868,326.2596,324.7531,261.2472,-329.7823,483.4999
7215.6863,-227.1996,325.6628,320.2779,260.7201,-325.7473,486.3499
7235.2941,-231.3731,326.2657,321.7725,263.2561,-314.8177,501.5753
7254.9020,-245.9954,325.6573,324.2505,261.7732,-317.7375,494.5490
7274.5098,-265.5288,326.2717,320.7728,262.2606,-322.8323,487.5585
7294.1176,-256.1483,325.6514,323.2682,261.7864,-312.7556,474.5345
7313.7255,-249.5390,326.2785,322.7458,263.2296,-318.7092,500.4674
7333.3333,-253.1170,325.6442,321.2959,261.7995,-314.9347,482.5153
7352.9412,-243.4913,325.2777,321.7441,262.2348,-301.7918,503.4708
7372.5490,-250.0907,324.6371,320.3145,261.8109,-296.9433,496.5229
7392.1569,-260.5682,331.3095,324.7053,262.2236,-328.6744,502.3904
7411.7647,-245.1160,332.6662,324.2909,263.7878,-291.9578,505.5755
7431.3725,-251.4942,333.3224,321.7193,265.2152,-296.7970,491.3968
7450.9804,-247.0586,332.6602,326.2820,264.8392,-298.9034,492.4507
7470.5882,-242.4128,333.3272,319.7276,261.1591,-300.6960,498.4969
7490.1961,-252.0313,332.6558,322.3293,267.7973,-311.9161,492.4565
7509.8039,-240.4685,333.3320,322.6887,270.1608,-294.6161,488.3695
7529.4118,-242.0898,331.6473,329.2786,260.8179,-303.8982,504.5184
7549.0196,-242.4147,332.3311,325.6510,259.1728,-300.6879,496.3346
7568.6275,-233.0102,350.6129,329.2919,270.8220,-316.9120,506.4682
7588.2353,-237.4418,344.3851,328.6108,258.1233,-280.7277,496.3283
7607.8431,-239.0630,333.6499,322.3679,260.8364,-293.9442,507.5503
7627.4510,-242.4154,334.3432,325.6233,262.1571,-303.7003,498.4747
7647.0588,-243.1665,334.6501,325.3552,261.8868,-306.9643,500.4471
7666.6667,-236.5790,335.3529,328.5833,263.1297,-301.7375,499.3334
7686.2745,-241.0065,340.6715,327.3510,265.8845,-321.9326,500.4522
7705.8824,-247.3840,334.3520,322.6230,271.0913,-295.6582,499.3285
7725.4902,-247.0621,332.6343,329.3442,263.8728,-315.0027,500.4536
7745.0980,-242.4121,337.3659,321.6209,269.1174,-284.5936,499.3281
7764.7059,-244.0399,335.6452,326.3831,261.9169,-315.8822,496.5749
7784.3137,-247.3796,337.3669,332.6201,266.1044,-315.5754,492.4373
7803.9216,-237.9846,354.6159,325.4070,260.8848,-302.8947,487.5391
7823.5294,-230.5218,354.3293,329.5225,267.0802,-321.6272,500.4016
7843.1373,-248.1505,353.6100,323.4365,272.9077,-315.9143,481.5114
7862.7451,-246.5143,355.3333,322.5720,266.0916,-350.6586,483.3824
7882.3529,-245.1232,345.6867,322.4587,270.8920,-331.9791,499.6080
7901.9608,-246.5089,332.3456,329.4960,261.0597,-316.5992,497.3817
7921.5686,-244.0457,338.6573,328.4191,266.9105,-318.9926,499.6093
7941.1765,-230.5110,333.3503,329.4825,272.0896,-306.6069,500.3940
7960.7843,-230.0003,354.6152,332.5073,278.9341,-325.0852,497.4599
7980.3922,-230.5044,348.3004,332.5550,268.0377,-300.5141,496.3043
8000.0000,-253.1283,351.6046,332.5176,271.9498,-302.1167,500.4754
8019.6078,-245.4123,345.3972,325.4963,258.0365,-312.4210,499.3188
8039.2157,-251.1870,352.6122,323.4993,264.9613,-296.0681,510.5985
8058.8235,-252.5407,351.3061,329.4500,274.0384,-295.4906,500.3981
8078.4314,-248.1676,354.6263,329.4555,267.9103,-289.1497,530.6248
8098.0392,-247.3490,351.3004,323.4931,277.0402,-279.4258,527.3217
8117.6471,-245.1453,346.5941,328.4727,267.9130,-284.1888,509.5202
8137.2549,-253.3915,352.3020,329.4330,284.0287,-294.3583,508.3716
8156.8627,-251.2024,351.6232,324.5149,270.9207,-292.2236,510.5953
8176.4706,-251.4433,355.3091,326.4537,276.0532,-299.3380,502.3438
8196.0784,-254.2365,353.6362,329.4760,275.9479,-300.0512,505.6337
8215.6863,-241.4940,353.2939,329.4199,272.0657,-303.4294,501.4889
8235.2941,-245.1641,357.6600,328.4905,273.9270,-306.1433,498.5247
8254.9020,-258.3431,356.2995,321.4852,274.0292,-276.3102,486.4193
8274.5098,-244.0870,353.6508,327.5040,272.9452,-298.1459,502.6138
8294.1176,-246.4543,357.2973,330.5110,275.0678,-299.2618,502.3606
8313.7255,-240.1990,354.6624,331.5824,265.9553,-302.2909,486.4560
8333.3333,-238.4529,358.2938,334.4727,273.0451,-301.4066,501.5060
8352.9412,-242.1474,357.6819,320.5717,268.9592,-303.1764,491.6215
8372.5490,-240.3919,356.2770,328.4146,275.0680,-326.3124,505.3908
8392.1569,-251.2313,355.6817,323.5464,271.9622,-296.2631,473.5242
8411.7647,-233.4689,358.2766,328.4138,273.0483,-315.2340,491.3972
8431.3725,-228.1120,357.6993,330.4845,275.9447,-318.1827,485.5798
8450.9804,-236.4923,358.2674,330.5074,273.0503,-316.2849,484.5102
8470.5882,-246.0510,357.7091,331.5831,276.9278,-335.3456,496.5616
8490.1961,-253.3468,357.2524,321.4794,282.0655,-291.3251,494.4195
8509.8039,-261.1858,356.7151,323.5407,268.9526,-297.4362,497.4148
8529.4118,-260.4749,361.2596,328.4213,283.0497,-289.1194,499.3799
8549.0196,-244.1127,363.7554,328.4921,272.9377,-290.3179,505.5967
8568.6275,-249.4467,365.2668,330.5189,281.0292,-301.2284,506.4911
8588.2353,-251.2512,362.7617,324.5207,277.9612,-279.5033,508.6075
8607.8431,-253.3340,363.2480,337.4623,266.0658,-288.1971,505.4181
8627.4510,-261.2001,362.7717,329.4691,270.9116,-288.4164,498.4807
8647.0588,-247.2778,363.2372,326.4572,271.0363,-297.0594,508.4390
8666.6667,-244.1287,362.7832,325.4958,276.9190,-270.4485,504.5043
8686.2745,-250.3001,363.2258,320.5206,272.0748,-296.1660,503.4896
8705.8824,-230.0835,362.7947,323.5037,275.9375,-298.4482,505.5785
8725.4902,-234.3039,363.2149,337.4927,274.0406,-306.1020,504.5697
8745.0980,-236.1356,362.8053,324.4828,277.9582,-291.5456,502.5622
8764.7059,-247.2713,363.2035,319.5526,273.0614,-293.9300,495.5279
8784.3137,-253.2130,362.8160,323.4801,275.9323,-308.4897,492.4346
8803.9216,-263.4794,365.2016,326.5030,275.0855,-298.0120,500.4839
8823.5294,-265.0995,364.8358,327.4316,277.9531,-291.6174,492.4346
8843.1373,-237.3246,365.1907,329.4894,285.0826,-309.0327,499.4093
8862.7451,-246.0838,365.8500,328.4089,274.9460,-287.5297,499.5348
8882.3529,-243.3748,365.1807,325.5406,282.0808,-322.0169,508.4608
8901.9608,-249.1137,365.8593,328.3912,289.9075,-315.7426,493.4998
8921.5686,-241.4270,365.1718,330.6245,272.0887,-320.9053,485.4180
8941.1765,-263.1634,364.8648,324.4084,277.9437,-337.6644,473.4678
8960.7843,-253.3090,365.1620,328.5508,276.0787,-304.8379,476.5941
8980.3922,-257.1132,365.8788,328.3551,284.9342,-326.6356,480.5725
9000.0000,-264.3326,366.1566,327.5771,282.0885,-323.8842,471.4270
9019.6078,-244.1474,366.8929,328.3354,294.9290,-316.6946,495.4311
9039.2157,-267.3575,367.1522,329.5802,272.0932,-304.7754,471.4287
9058.8235,-246.0962,366.9010,331.3990,282.9106,-299.8114,493.4922
9078.4314,-250.2824,368.1483,327.6162,277.0623,-303.8817,475.5178
9098.0392,-251.2836,364.9005,331.3783,280.8876,-309.8133,481.4337
9117.6471,-254.3938,366.1321,327.6364,278.1031,-309.7030,473.5756
9137.2549,-253.2282,369.9288,329.2653,283.8902,-311.8046,470.4512
9156.8627,-263.4766,364.1147,329.6396,283.0731,-310.7535,468.4007
9176.4706,-259.2862,375.8499,327.2624,275.9157,-304.9030,469.3664
9196.0784,-261.3200,381.0700,330.7607,280.0702,-301.6212,465.5971
9215.6863,-263.1784,370.9458,326.2510,279.9015,-311.8762,455.3622
9235.2941,-259.3781,381.0648,330.7815,279.0883,-312.6495,469.4727
9254.9020,-261.2329,382.8911,336.2512,285.9094,-311.8999,472.3750
9274.5098,-263.4844,378.0470,330.8014,283.0765,-301.5683,469.4739
9294.1176,-266.2024,379.8826,329.1827,281.9222,-288.9497,479.4785
9313.7255,-255.4931,381.0561,332.8056,292.0902,-305.6588,481.5283
9333.3333,-261.2299,380.8898,326.1860,278.9171,-313.0476,471.5124
9352.9412,-264.3563,386.0743,334.8117,279.0908,-308.6612,467.5272
9372.5490,-262.3085,380.8928,335.1931,281.9209,-285.9725,465.4854
9392.1569,-264.3585,385.0677,330.8690,279.0925,-291.5101,467.5242
9411.7647,-258.2013,381.8979,331.2079,277.9320,-300.9538,470.4426
9431.3725,-262.4155,385.0670,322.8508,286.0854,-279.5645,463.4289
9450.9804,-241.1227,381.8993,321.1652,280.8768,-295.1210,466.5704
9470.5882,-230.4305,382.0539,328.8181,279.0952,-281.4951,467.5207
9490.1961,-235.2851,385.9143,328.0825,284.9198,-329.1812,469.3687
9509.8039,-247.2922,384.0640,324.8734,279.0969,-300.5496,470.5359
9529.4118,-242.1969,380.8934,334.1189,279.8917,-294.0901,468.5094
9549.0196,-243.4051,383.0607,326.8750,289.0948,-315.4724,464.5068
9568.6275,-235.2728,393.9480,329.0339,283.8775,-294.1189,464.4234
9588.2353,-232.3882,389.0869,328.8773,277.0777,-298.3170,466.4423
9607.8431,-226.1934,386.9173,328.0226,291.9084,-287.2033,473.4758
9627.4510,-227.4186,385.0696,333.9622,288.1125,-319.3172,493.5698
9647.0588,-230.0807,388.9252,325.0314,279.8903,-305.2310,476.5009
9666.6667,-231.3129,382.0593,327.9209,286.0906,-289.3664,467.5048
9686.2745,-232.2366,386.9124,337.0195,288.9028,-297.2346,470.4753
9705.8824,-219.4260,392.1067,328.9287,283.0887,-324.2513,474.3944
9725.4902,-245.2043,385.9046,334.0287,275.9006,-282.2963,467.4619
9745.0980,-241.4740,389.0964,332.0289,291.1198,-296.2571,468.3594
9764.7059,-244.1182,385.9001,324.9833,288.9023,-321.3463,466.6107
9784.3137,-255.5229,385.0840,322.0220,286.0935,-282.3525,459.5236
9803.9216,-247.1416,383.8869,329.9236,279.8857,-305.3288,461.4472
9823.5294,-251.4210,389.1060,334.0410,294.1264,-289.2678,465.5476
9843.1373,-247.1404,387.9004,332.0016,279.8842,-290.3961,465.5415
9862.7451,-241.4771,387.1009,326.0157,289.1010,-308.3197,469.4239
9882.3529,-252.1038,387.8940,325.9323,287.9141,-307.3291,454.5676
9901.9608,-250.3413,385.0969,334.0658,289.1031,-288.1275,464.4655
9921.5686,-238.0573,380.8583,330.9869,287.9124,-297.3889,463.6139
9941.1765,-247.3187,388.1154,330.0002,292.1082,-283.1135,456.4907
9960.7843,-246.0522,386.8797,335.9335,290.9153,-278.3313,462.5450
9980.3922,-256.3929,382.0973,325.0544,279.1114,-292.1917,452.3975
10000.0000,-263.1205,378.8399,326.8967,286.8683,-270.3304,469.4430
10019.6078,-243.4276,387.1228,329.0254,288.1284,-290.2268,475.4407
10039.2157,-245.1893,382.8534,334.9280,292.8723,-266.4584,461.4720
10058.8235,-241.4791,381.1003,331.1228,291.1364,-284.9925,466.3920
10078.4314,-263.1215,381.8435,335.9149,286.8611,-288.3664,456.5285
10098.0392,-247.3146,382.1137,330.0268,286.1130,-300.1579,454.3299
10117.6471,-258.1521,385.8534,332.9372,291.8842,-288.3844,468.5877
10137.2549,-261.3669,383.1241,324.0836,290.1020,-283.0110,469.3992
10156.8627,-260.1004,382.8316,323.9046,289.8585,-286.4514,470.5280
10176.4706,-261.3591,383.1301,324.0843,290.1075,-282.9878,469.4036
10196.0784,-260.0980,382.8263,323.9049,289.8538,-286.4728,470.5337
10215.6863,-261.3536,383.1377,324.0846,290.1116,-282.9669,469.3996
10235.2941,-260.1087,382.8197,323.9048,289.8484,-286.4971,470.5282
10254.9020,-261.3518,383.1416,324.0827,290.1157,-282.9509,469.3990
10274.5098,-260.1114,382.8133,323.9067,289.8432,-286.5133,470.5330
10294.1176,-261.3499,383.1480,324.0805,290.1231,-282.9246,469.3978
10313.7255,-260.1112,382.8098,323.9095,289.8381,-286.5399,470.5346
10333.3333,-261.3488,383.1536,324.0772,290.1282,-282.9052,469.3969
10352.9412,-260.1179,382.8041,323.9131,289.8329,-286.5614,470.5298
10372.5490,-261.3469,383.1556,324.0724,290.1316,-282.8912,469.3982
10392.1569,-260.1177,382.8025,323.9198,289.8287,-286.5738,470.5347
10411.7647,-261.3407,383.1581,324.0656,290.1379,-282.8654,469.3971
10431.3725,-260.1211,382.8022,323.9263,289.8224,-286.5994,470.5371
10450.9804,-261.3389,383.1591,324.0580,290.1430,-282.8470,469.3924
10470.5882,-260.1288,382.7982,323.9343,289.8170,-286.6169,470.5356
10490.1961,-261.3346,383.1622,324.0496,290.1481,-282.8340,469.3937
10509.8039,-260.1313,382.7980,323.9440,289.8106,-286.6285,470.5378
10529.4118,-261.3279,383.1620,324.0388,290.1556,-282.8126,469.3987
10549.0196,-260.1410,382.7958,323.9550,289.8038,-286.6454,470.5313
10568.6275,-261.3232,383.1644,324.0276,290.1613,-282.8040,469.4000
10588.2353,-260.1442,382.7940,323.9658,289.7971,-286.6551,470.5284
10607.8431,-261.3165,383.1669,324.0168,290.1681,-282.7892,469.4035
10627.4510,-260.1484,382.7915,323.9773,289.7907,-286.6707,470.5275
10647.0588,-261.3083,383.1680,324.0051,290.1729,-282.7788,469.4054
10666.6667,-260.1562,382.7910,323.9895,289.7860,-286.6769,470.5245
10686.2745,-254.3852,384.1727,332.0312,291.2191,-297.7356,463.3810
10705.8824,-246.1167,383.7953,340.9618,288.7968,-281.6944,442.5219
10725.4902,-260.4249,381.1585,334.9904,292.2086,-293.8253,450.4640
10745.0980,-248.2893,388.8186,341.9668,291.7936,-313.7928,448.5490
10764.7059,-239.2331,381.1559,344.9983,298.2236,-271.7036,442.5036
10784.3137,-266.2371,387.8175,347.0456,296.7557,-270.6540,440.5735
10803.9216,-241.3872,385.1722,347.9587,299.2138,-297.7167,444.4470
10823.5294,-242.2554,388.8240,349.0414,299.7533,-289.7317,442.5042
10843.1373,-246.3454,386.1736,353.8918,293.2112,-298.8065,464.4875
10862.7451,-239.2423,397.8659,342.0066,294.7801,-292.7598,441.4149
10882.3529,-258.2222,388.1765,340.8825,303.2128,-271.7076,427.4524
10901.9608,-267.3477,388.8303,342.0220,301.7635,-290.8145,436.4531
10921.5686,-249.3480,384.1562,339.8762,294.2664,-283.8470,437.5883
10941.1765,-241.2059,391.8489,342.0382,299.7326,-299.7007,448.5022
10960.7843,-258.1971,393.1911,342.9438,297.2198,-258.9163,438.4635
10980.3922,-261.3190,382.8129,337.0978,294.7570,-280.8360,436.4277
11000.0000,-255.3759,387.1603,340.8358,289.2531,-294.9080,437.6153
11019.6078,-259.3820,385.8307,340.0869,306.7685,-273.6733,438.5704
11039.2157,-245.2056,385.1466,343.9045,296.2495,-281.9099,443.4455
11058.8235,-241.2388,395.8791,343.1846,296.7096,-280.8168,434.4653
11078.4314,-245.1967,394.1795,344.8815,299.2594,-275.8531,442.5968
11098.0392,-241.2496,398.8976,344.1897,302.7138,-285.7895,443.4977
11117.6471,-253.1818,385.1355,338.8090,301.2869,-271.7414,441.5347
11137.2549,-236.2909,385.8435,341.1222,296.6997,-274.7257,444.3447
11156.8627,-236.3121,394.1694,342.8679,309.2659,-302.9654,438.5349
11176.4706,-234.3567,392.8789,337.1738,309.6940,-298.7854,438.5144
11196.0784,-240.1920,393.1596,340.7612,307.3060,-297.7733,429.5037
11215.6863,-260.3026,392.8860,350.1820,298.7117,-293.7818,422.3449
11235.2941,-261.1447,394.1599,338.7649,300.2632,-291.9362,412.5089
11254.9020,-267.4431,384.8562,345.2398,303.7326,-293.7650,409.4056
11274.5098,-273.2404,389.1342,339.7435,308.2989,-288.9228,408.6505
11294.1176,-292.3109,396.9096,337.2121,301.7034,-300.6838,389.3550
11313.7255,-294.1954,397.1649,335.7668,299.2923,-326.8861,390.5784
11333.3333,-302.4733,388.8789,333.2595,302.6807,-285.7026,382.2303
11352.9412,-299.1505,388.1241,328.7091,302.3035,-301.9767,382.6308
11372.5490,-290.3817,396.9158,333.2703,304.6975,-309.5289,382.2113
11392.1569,-294.1691,396.1549,337.7275,306.2915,-326.9369,376.6169
11411.7647,-302.5021,388.8834,336.2542,307.6997,-322.5160,364.3088
11431.3725,-302.1557,398.1611,340.6908,307.3340,-323.0555,351.6564
11450.9804,-325.4146,388.8875,331.3090,310.7033,-317.5062,356.3257
11470.5882,-322.2423,383.0928,341.6724,299.3033,-362.9645,350.6019
11490.1961,-313.5397,385.8759,333.3009,303.7103,-278.4597,360.1819
11509.8039,-296.0831,383.0915,334.7251,307.3361,-294.0503,385.7245
11529.4118,-304.4723,383.8683,341.2378,305.6723,-310.5203,370.2812
11549.0196,-305.1502,383.0910,344.7389,303.2956,-325.0734,356.6751
11568.6275,-320.4705,383.8695,345.3193,306.7094,-318.5129,347.2204
11588.2353,-327.1885,384.0959,342.7513,301.3325,-301.0363,331.7119
11607.8431,-306.4354,386.8801,343.3422,311.6773,-299.4146,344.1823
11627.4510,-317.0229,387.1096,341.6430,304.3376,-293.0362,355.8516
11647.0588,-313.5760,384.8698,343.3481,307.6903,-301.3395,357.0868
11666.6667,-311.1751,385.1033,348.6862,308.3260,-333.1653,351.7828
11686.2745,-322.4437,384.8669,341.2619,310.6941,-313.4548,342.2072
11705.8824,-320.0327,384.1026,348.6809,317.3397,-350.1039,358.9068
11725.4902,-326.5598,384.8619,342.2569,296.6530,-300.4247,351.0174
11745.0980,-313.1080,387.1199,343.7220,324.3322,-331.2650,356.7738
11764.7059,-296.5255,385.8614,342.2589,315.6607,-352.4271,359.1844
11784.3137,-326.0614,383.1097,346.6935,304.3426,-308.3134,337.8461
11803.9216,-320.5255,383.8445,349.3083,304.6806,-337.4350,347.0993
11823.5294,-327.1335,388.1404,344.7109,302.3203,-318.3241,348.8507
11843.1373,-308.4348,384.8391,346.3347,303.6995,-355.3923,358.0570
11862.7451,-321.0675,389.1551,345.7019,300.2974,-311.2075,341.9859
11882.3529,-323.5765,383.8230,345.3430,304.6815,-321.3176,350.9261
11901.9608,-319.9731,387.1573,348.6770,305.3250,-356.3340,351.9176
11921.5686,-319.4848,381.8031,343.3589,303.6988,-311.3143,353.0531
11941.1765,-311.9659,386.1662,351.6509,305.3269,-347.2656,353.0162
11960.7843,-306.5275,382.7928,350.2961,311.6706,-342.2811,353.8967
11980.3922,-314.9752,383.1688,349.6716,306.3104,-337.3215,359.9301
12000.0000,-309.5709,384.7852,352.2756,314.6733,-330.1100,365.0736
12019.6078,-314.0972,383.1854,348.6848,302.3253,-312.4251,353.9206
12039.2157,-308.5134,380.7487,343.3502,302.6531,-335.0609,351.9107
12058.8235,-316.0224,384.2085,347.6966,300.3040,-327.4122,353.0847
12078.4314,-294.6948,386.7552,351.2759,303.6929,-331.9921,365.0280
12098.0392,-293.9577,386.2397,342.7477,304.3487,-320.5132,363.0143
12117.6471,-286.7164,384.7241,343.3398,307.6787,-337.1578,365.0060
12137.2549,-295.0204,383.2494,348.7007,303.3091,-321.6344,365.1869
12156.8627,-300.5691,383.6944,348.2881,302.6515,-334.0868,365.8469
12176.4706,-295.8656,387.2927,339.6773,304.3491,-306.4854,379.2070
12196.0784,-296.6952,384.6732,340.2425,303.6924,-313.0314,373.7971
12215.6863,-287.8491,389.3271,347.7242,312.3224,-304.5632,385.0401
12235.2941,-287.6413,383.6424,346.2907,300.6847,-303.0233,391.8689
12254.9020,-287.8260,385.3378,341.6758,311.3447,-298.5253,399.0612
12274.5098,-295.6587,384.6169,342.2074,304.6678,-299.9508,382.8043
12294.1176,-294.9312,383.3576,338.7120,299.3312,-297.6999,386.1608
12313.7255,-284.6622,385.5937,339.2242,295.6485,-310.9684,382.7828
12333.3333,-281.7220,381.3780,340.7034,299.3339,-300.7714,382.0880
12352.9412,-291.8269,379.5378,336.2403,300.6712,-310.9354,376.7299
12372.5490,-273.6977,381.4081,332.7846,292.3482,-319.6670,378.2296
12392.1569,-257.7090,380.5096,342.1763,298.6468,-307.8670,399.7541
12411.7647,-253.7789,381.4439,342.8182,297.3207,-296.7238,410.1263
12431.3725,-227.9155,380.4719,340.1819,296.6207,-315.8475,435.7032
12450.9804,-230.6195,384.4936,336.7724,304.3721,-239.7442,426.2939
12470.5882,-213.9020,396.5043,338.1884,302.6257,-266.8145,465.8396
12490.1961,-160.7735,396.5821,331.8283,302.3535,-222.8641,523.2249
12509.8039,-132.8859,394.4572,347.2072,301.6415,-223.6431,558.6475
12529.4118,-110.5975,396.6188,338.7780,302.3571,-183.8753,598.3992
12549.0196,-94.8854,395.4250,335.1910,303.6592,-182.6336,596.7534
12568.6275,-95.6467,396.6559,340.7725,301.3798,-177.8386,605.3049
12588.2353,-102.0542,395.3856,344.2079,299.6086,-193.6540,601.6928
12607.8431,-93.4443,396.6959,344.8616,303.3501,-170.9372,632.2432
12627.4510,-69.8900,395.3471,341.1110,302.6069,-168.6891,661.7625
12647.0588,-52.5607,398.7441,349.8305,303.3556,-156.8828,665.4204
12666.6667,-61.0699,397.3143,338.1243,303.6416,-159.5448,657.6600
12686.2745,-56.4059,398.7840,344.8873,303.3619,-192.0413,658.3268
12705.8824,-56.1437,394.2611,344.1681,295.6043,-158.4267,662.6027
12725.4902,-41.4459,404.7386,340.8281,300.3646,-186.0084,654.4611
12745.0980,-46.0316,397.2333,340.0792,291.6091,-157.5235,664.7473
12764.7059,-59.3362,398.8657,338.8603,304.4169,-198.1823,655.3350
12784.3137,-64.2363,396.1879,340.0651,299.5758,-147.5102,636.7423
12803.9216,-56.2650,414.8649,337.8832,303.3848,-166.1379,658.3563
12823.5294,-63.2066,403.0639,341.0410,303.6112,-152.4534,648.5781
12843.1373,-65.2919,397.9463,343.9551,304.4335,-140.1664,656.4233
12862.7451,-63.2590,394.0940,348.0728,298.5752,-197.2890,632.6349
12882.3529,-93.1192,397.9876,343.9719,291.4405,-177.2716,620.4680
12901.9608,-94.2182,398.0699,342.0001,293.5990,-177.3095,621.6468
12921.5686,-82.2605,396.0192,345.9699,291.4493,-209.1814,601.3033
12941.1765,-94.2746,407.9612,343.0858,304.5664,-213.2599,629.6077
12960.7843,-91.0667,396.0595,339.9274,295.4458,-179.2976,593.3378
12980.3922,-97.3548,395.9808,355.0763,298.5493,-188.2909,597.7289
13000.0000,-91.0063,398.1088,343.0241,299.4409,-215.3300,595.5027
13019.6078,-114.4880,397.9495,344.0482,291.5482,-171.1212,582.6448
13039.2157,-89.0059,398.1469,347.0049,293.4423,-206.2617,600.4617
13058.8235,-95.5232,405.8349,347.0060,301.5352,-190.1589,597.7156
13078.4314,-95.8667,398.1841,343.0558,291.4855,-223.4358,578.4993
13098.0392,-129.5124,398.8796,347.9830,292.5121,-229.1340,569.4980
13117.6471,-126.9295,398.2208,355.0752,299.4694,-235.4097,561.4913
13137.2549,-108.6077,396.8354,344.9931,296.4896,-217.1598,577.6773
13156.8627,-91.8576,396.2465,350.0226,297.4553,-196.4364,598.5372
13176.4706,-128.7689,411.7542,342.9965,301.5083,-229.0377,569.4898
13196.0784,-160.7460,413.2418,346.0739,298.5042,-245.4749,525.5287
13215.6863,-158.8670,413.7300,347.9375,295.4891,-250.8913,528.5726
13235.2941,-123.7274,413.2740,352.0349,293.4875,-213.6499,552.4490
13254.9020,-112.8926,415.7085,355.9618,302.4706,-224.8264,569.4908
13274.5098,-129.7184,415.3115,354.0314,300.4883,-243.6212,542.3286
13294.1176,-159.8527,401.6194,346.9175,295.4696,-268.7945,525.5544
13313.7255,-181.5283,395.3655,342.0427,291.5438,-269.6812,501.4098
13333.3333,-175.0378,412.6404,343.9296,288.4675,-235.7965,504.6637
13352.9412,-123.5497,396.3944,353.0694,304.5540,-178.6623,540.3888
13372.5490,-154.1303,411.6121,355.9175,299.4351,-216.8997,532.6647
13392.1569,-195.4665,407.3539,352.0937,292.5459,-286.6718,486.3275
13411.7647,-196.9802,391.6151,345.8807,293.4747,-234.8485,470.6429
13431.3725,-173.3652,396.4391,351.1171,294.5773,-262.8636,501.4014
13450.9804,-152.0742,393.6034,347.8507,303.4606,-241.7457,524.7053
13470.5882,-126.4118,409.4025,352.1228,300.5374,-277.8655,534.3467
13490.1961,-183.2535,410.5479,351.8014,289.4119,-249.7241,479.6954
13509.8039,-202.4395,404.3969,343.2161,292.5726,-298.9408,458.3145
13529.4118,-223.2869,392.5673,346.8309,293.4482,-279.5985,471.5196
13549.0196,-175.3683,398.4958,351.1597,300.5546,-256.9206,518.4008
13568.6275,-150.2846,414.5387,353.7556,303.4350,-223.6165,531.6108
13588.2353,-158.2488,416.4722,352.1643,305.5901,-253.0687,509.3480
13607.8431,-163.3065,410.5124,351.7584,289.3861,-269.5330,504.6880
13627.4510,-183.2717,397.5096,353.1687,291.6149,-271.1173,500.2994
13647.0588,-166.3748,398.5661,351.7467,289.3810,-250.4011,504.6989
13666.6667,-158.1507,401.5316,353.1813,289.5989,-226.0617,529.3718
13686.2745,-124.4883,416.5287,351.7345,304.3970,-214.3714,540.6720
13705.8824,-164.1680,409.4564,345.2629,295.6127,-246.0636,508.4656
13725.4902,-164.5164,408.4938,350.7322,290.4063,-294.3241,502.5523
13745.0980,-180.9868,395.5066,351.2206,292.6159,-253.2635,486.2789
13764.7059,-149.4221,412.5135,352.7048,299.3570,-268.2605,501.7002
13784.3137,-150.0368,410.4557,351.2321,292.6220,-229.2351,513.4156
13803.9216,-124.6008,406.4930,352.6930,305.3604,-246.3242,519.5812
13823.5294,-159.9512,397.5045,350.2509,304.6444,-234.2660,496.3907
13843.1373,-153.5961,414.5357,353.6734,295.3603,-284.2209,480.6049
13862.7451,-156.0320,415.4608,352.2445,297.5999,-258.3791,503.2758
13882.3529,-127.6884,410.5296,354.7643,301.3655,-245.1487,502.5800
13901.9608,-148.8686,413.4396,354.2364,303.6124,-253.4306,504.3496
13921.5686,-116.6905,403.5134,352.6632,302.3446,-278.2825,514.6476
13941.1765,-156.8476,415.4329,353.2539,299.6274,-248.4862,503.2612
13960.7843,-158.6399,411.5646,349.6794,312.3377,-250.0585,497.6407
13980.3922,-164.8250,414.4106,354.2551,298.6469,-270.4203,500.2377
14000.0000,-157.5749,411.5840,353.6353,303.3813,-246.1180,477.6199
14019.6078,-155.9483,414.3897,356.3550,304.6584,-272.4026,476.3269
14039.2157,-159.7497,411.6060,356.7086,302.3374,-254.1101,481.7256
14058.8235,-165.8786,405.3281,356.3643,305.6413,-243.3829,453.2725
14078.4314,-166.6755,413.6380,354.7177,310.3687,-264.0427,459.7646
14098.0392,-179.9217,403.2948,359.3438,310.6105,-255.5661,455.2072
14117.6471,-162.7857,395.6981,354.7115,307.3654,-254.9056,467.7406
14137.2549,-165.8733,396.3485,359.3509,300.6143,-262.5292,470.2746
14156.8627,-191.7468,398.7397,350.6286,301.3546,-231.0284,453.7502
14176.4706,-177.7609,398.3271,356.3845,292.6418,-273.6186,462.2927
14196.0784,-172.7263,415.7312,356.6798,300.3723,-273.9228,480.6813
14215.6863,-197.8630,399.3002,351.3247,296.6264,-206.6586,462.2864
14235.2941,-206.6511,400.7001,352.6005,290.3795,-265.8702,445.7992
14254.9020,-213.8659,399.2663,352.3224,302.6332,-252.6497,442.2523
14274.5098,-218.7468,396.8289,353.5842,299.3366,-257.8197,429.6531
14294.1176,-203.9376,407.1525,353.3188,301.6474,-245.7393,448.2712
14313.7255,-213.7590,409.8121,352.5887,297.3788,-266.9074,436.7710
14333.3333,-229.8872,403.0966,350.3503,296.6175,-263.7474,429.3108
14352.9412,-231.6752,410.8555,353.5746,298.3628,-266.8930,409.6456
14372.5490,-227.9687,411.0916,352.3385,300.6011,-271.7832,411.2084
14392.1569,-217.6087,411.8985,354.6687,299.3465,-263.8390,414.8222
14411.7647,-216.9733,411.0486,355.4260,298.6328,-265.7241,414.2142
14431.3725,-219.5303,408.9274,355.6569,298.3695,-281.8207,412.6770
14450.9804,-218.0763,415.0256,352.3470,299.6110,-269.6387,418.2990
14470.5882,-232.4695,411.9844,358.6267,293.4074,-297.8530,400.8423
14490.1961,-212.9217,413.9765,350.3671,291.6281,-254.6868,421.3053
14509.8039,-212.5530,413.0324,354.6598,303.4089,-232.8068,429.7080
14529.4118,-215.1180,409.9148,355.4363,293.5873,-273.7642,421.2974
14549.0196,-223.5294,415.0859,353.5539,293.4200,-276.8243,403.8755
14568.6275,-240.0130,411.8781,352.3579,295.6032,-283.7323,406.2165
14588.2353,-234.5097,411.1154,349.5852,291.4045,-257.7474,397.8517
14607.8431,-215.2018,412.8362,353.3518,302.5864,-251.6450,429.2516
14627.4510,-211.3372,411.1602,353.5484,294.4167,-237.8013,424.7848
14647.0588,-228.2159,413.7943,353.3539,296.5709,-260.7394,416.1070
14666.6667,-278.2891,403.1731,348.5916,291.4200,-226.7566,400.8879
14686.2745,-260.2496,407.7223,352.3649,296.5631,-254.6617,390.2525
14705.8824,-262.2468,408.2398,354.6462,303.4454,-204.8738,419.8495
14725.4902,-215.3457,415.7104,352.3656,301.5809,-205.6519,444.0856
14745.0980,-218.3177,413.3088,359.6006,298.4278,-224.8313,431.9205
14764.7059,-269.4290,408.6326,349.3942,291.5764,-222.7644,411.1282
14784.3137,-288.2855,411.3477,350.5696,292.4274,-253.9005,397.9010
14803.9216,-271.4325,416.6219,348.4036,297.5190,-243.5524,394.1060
14823.5294,-257.1071,411.3930,354.6429,301.4473,-211.8702,422.8900
14843.1373,-251.3956,413.5627,351.3767,300.5172,-214.7002,432.2141
14862.7451,-269.1474,413.4485,352.5500,293.4833,-248.9606,410.8419
14882.3529,-300.5137,401.4659,354.3522,295.5398,-263.6700,379.2304
14901.9608,-269.0886,401.4412,352.5490,301.4650,-288.0108,408.9087
14921.5686,-256.4827,413.4732,353.3602,295.5314,-214.6540,401.1929
14941.1765,-239.8549,415.5450,360.5884,302.4540,-254.8666,423.7736
14960.7843,-253.7330,414.4340,354.3510,301.5321,-240.6403,407.2152
14980.3922,-274.8019,414.5844,351.5596,294.4903,-291.9710,385.8788
15000.0000,-294.6482,411.3783,351.3762,292.5085,-269.4371,374.0427
15019.6078,-253.7714,416.6350,354.6450,294.4991,-252.1195,399.8828
15039.2157,-244.7916,418.3642,355.4484,294.5213,-231.4546,411.0760
15058.8235,-251.7562,423.7070,354.6458,293.5267,-261.0507,408.9356
15078.4314,-275.7646,414.3067,354.3467,293.4692,-256.3444,372.0923
15098.0392,-294.6979,412.7001,354.6474,290.5335,-264.1208,362.8533
15117.6471,-291.8253,417.2792,353.3536,294.5008,-262.3804,362.1807
15137.2549,-267.6186,413.7431,359.6028,295.5123,-255.0578,377.9302
15156.8627,-251.0428,417.2404,362.3837,295.4728,-293.3369,395.9889
15176.4706,-271.6586,410.7682,358.6129,291.5353,-255.0997,366.9537
15196.0784,-282.0122,414.1904,359.4093,297.4292,-293.2918,366.0508
15215.6863,-287.5843,418.8400,351.5659,289.5212,-280.2988,351.8817
15235.2941,-271.0596,412.1454,360.3996,289.4460,-291.2886,376.1664
15254.9020,-251.4249,413.8533,357.6246,293.5753,-248.2705,387.8503
15274.5098,-264.2090,416.1291,353.3483,295.4462,-270.1967,360.0125
15294.1176,-296.3111,412.8816,355.6451,291.5616,-289.2958,353.8275
15313.7255,-277.2402,415.0951,352.3560,292.4322,-297.2478,353.9786
15333.3333,-260.3727,416.9274,352.5631,291.5695,-254.4486,366.9648
15352.9412,-227.3825,427.0054,358.4096,297.3940,-266.1970,388.0003
15372.5490,-250.1519,425.9955,355.6498,298.5703,-298.5073,365.8920
15392.1569,-269.3709,425.0802,356.4260,290.3942,-312.9703,353.1130
15411.7647,-274.0833,409.9532,352.5679,300.6003,-277.5284,353.8323
15431.3725,-265.3274,418.0241,358.4070,297.3776,-286.8957,359.1436
15450.9804,-250.0370,412.9897,354.6617,302.5718,-275.6340,368.9064
15470.5882,-240.5338,428.9351,358.4030,294.4224,-292.9124,372.0609
15490.1961,-263.1594,415.0211,357.6373,296.5726,-326.6359,363.9564
15509.8039,-285.5423,416.9756,352.3469,291.4082,-287.8690,346.0010
15529.4118,-274.9891,419.0572,354.6660,295.5983,-291.7915,352.9729
15549.0196,-261.6096,416.9566,356.4184,298.3913,-301.9056,358.0608
15568.6275,-268.0211,415.0582,353.5664,296.5903,-312.6647,350.8159
15588.2353,-270.7363,424.9736,359.3910,303.3498,-313.7682,359.1397
15607.8431,-293.9044,430.0292,351.5862,287.6427,-297.7611,341.9867
15627.4510,-289.5860,411.8999,354.3242,303.3443,-306.7769,353.1147
15647.0588,-271.8146,424.1319,359.6267,304.6392,-299.7710,360.9329
15666.6667,-258.7321,412.8894,362.3615,302.3502,-292.6261,365.1765
15686.2745,-228.7575,428.0515,362.6016,305.6324,-312.8373,388.9279
15705.8824,-241.7021,424.9262,361.3693,289.3417,-303.6162,383.0583
15725.4902,-269.7758,408.0923,355.6650,291.6570,-282.9856,365.0187
15745.0980,-261.8457,434.8447,358.3946,292.3390,-316.5655,359.1544
15764.7059,-268.6621,422.1606,364.5865,302.6437,-294.1023,376.8513
15784.3137,-257.7791,423.9000,360.3755,299.3196,-293.5345,371.0057
15803.9216,-261.7102,427.0770,362.6059,301.6719,-334.0497,369.9500
15823.5294,-285.9181,425.9005,360.3740,294.3410,-284.3736,365.1912
15843.1373,-269.6747,426.1942,360.6246,294.6891,-292.2648,392.9844
15862.7451,-260.0214,425.8938,365.3279,295.3141,-268.2766,398.1399
15882.3529,-262.7299,426.1988,364.5919,294.6975,-285.1745,384.7930
15901.9608,-277.9924,426.7816,361.3604,295.3067,-287.2947,383.0687
15921.5686,-283.6629,428.1013,357.6554,293.7231,-299.3250,357.8666
15941.1765,-295.0934,416.8480,359.3766,300.2658,-285.2861,379.1974
15960.7843,-258.5702,419.1759,357.6580,291.7102,-262.3163,389.9451
15980.3922,-264.0000,425.8834,361.3544,300.2563,-266.1493,387.1709
16000.0000,-270.6532,427.0996,363.6083,299.6934,-273.4307,379.8145
16019.6078,-272.0165,426.7747,356.3968,293.2553,-273.0267,377.0565
16039.2157,-280.5708,429.1114,351.6065,292.7136,-268.5044,375.9329
16058.8235,-289.9742,426.7737,351.3299,305.2622,-246.0855,362.2062
16078.4314,-293.5215,425.2042,359.6479,292.7247,-301.5168,352.8795
16098.0392,-302.0927,424.8799,358.3741,293.2327,-304.1285,334.2158
16117.6471,-288.5359,424.1946,354.6957,292.7351,-289.6535,353.7337
16137.2549,-275.0898,425.8867,358.3717,296.2263,-276.9714,357.0515
16156.8627,-263.4477,418.1671,359.6540,297.7729,-261.7386,375.9111
16176.4706,-260.1915,428.7922,360.3504,304.2462,-292.9650,366.1010
16196.0784,-269.4908,428.0934,354.7010,302.7535,-317.7216,345.7563
16215.6863,-276.1879,416.8580,358.3654,298.2277,-301.8025,329.0674
16235.2941,-272.5088,428.0870,353.6030,304.7863,-292.8444,350.7018
16254.9020,-261.0618,425.9064,357.3712,302.2037,-295.8920,356.2162
16274.5098,-264.5088,429.0797,357.6813,300.8090,-300.6996,352.8444
16294.1176,-266.0359,426.8085,351.3101,301.2111,-290.8602,367.2117
16313.7255,-298.4409,427.0623,362.6388,301.8020,-285.7903,330.8685
16333.3333,-277.0569,426.8186,356.3745,302.1824,-290.8026,357.1002
16352.9412,-280.5004,427.0537,356.6954,301.8145,-288.8810,341.8450
16372.5490,-272.0854,426.8267,354.2790,302.1700,-326.7398,357.1078
16392.1569,-260.4043,427.0430,354.7152,301.8254,-277.8720,344.8494
16411.7647,-264.0862,426.8373,354.2762,302.1593,-300.6746,358.1954
16431.3725,-265.3745,427.0341,353.6174,301.8379,-287.0245,341.8289
16450.9804,-262.1323,426.8453,355.3719,302.1450,-317.5381,357.1259
16470.5882,-262.5766,427.0255,364.6359,301.8517,-277.1017,345.6956
16490.1961,-246.9960,426.8552,361.3131,301.1494,-296.4644,359.2843
16509.8039,-240.5374,427.0129,361.6681,301.8647,-292.1040,359.6917
16529.4118,-246.9790,426.8656,359.3264,302.1188,-289.4776,352.1904
16549.0196,-262.5966,427.0022,355.7260,302.8604,-304.0711,349.7788
16568.6275,-256.0461,425.9837,358.3305,300.0836,-327.3795,357.1457
16588.2353,-263.4780,426.0979,363.6571,300.9080,-283.0841,351.7070
16607.8431,-251.0572,425.9966,353.2610,298.1053,-271.4003,360.1712
16627.4510,-262.6283,426.0868,361.6806,302.8872,-265.1244,360.7465
16647.0588,-267.0279,426.0093,360.3057,301.0968,-280.2485,352.2136
16666.6667,-277.5584,426.0735,358.7108,299.8968,-318.2886,352.7749
16686.2745,-275.0146,426.0228,363.2741,298.0760,-268.2904,353.2868
16705.8824,-262.6656,426.0583,358.7146,299.9117,-270.1981,366.7690
16725.4902,-238.8968,426.0340,363.2686,300.0274,-264.3316,365.3551
16745.0980,-258.5758,426.9423,364.6685,303.9702,-296.2644,363.7547
16764.7059,-290.9641,426.9368,351.2581,301.0534,-268.1909,329.1684
16784.3137,-281.5128,426.0392,353.6623,305.9472,-297.3877,347.8105
16803.9216,-260.0390,426.0524,356.3174,301.0397,-274.2235,357.1656
16823.5294,-238.5191,426.0285,355.7599,302.9586,-280.5199,390.6759
16843.1373,-255.9048,426.0653,367.3265,299.0028,-263.1166,359.3234
16862.7451,-283.7093,426.0205,356.7564,298.9860,-314.3836,338.7709
16882.3529,-288.9548,426.0724,358.2883,302.9741,-323.1350,338.2096
16901.9608,-262.7719,426.0085,353.6798,299.9822,-292.5314,360.7377
16921.5686,-219.9842,426.0821,369.2942,303.9991,-286.0198,405.1894
16941.1765,-227.7814,425.9996,364.6985,307.0475,-229.4751,396.7085
16960.7843,-250.8613,426.0934,359.2667,289.9450,-280.9995,353.2837
16980.3922,-288.7597,425.9902,356.7760,297.0078,-330.5424,332.7461
17000.0000,-294.9275,426.1020,357.2766,293.9759,-297.0128,319.2466
17019.6078,-240.8085,425.9792,366.8056,307.0729,-221.5289,391.7592
17039.2157,-215.7910,426.1116,362.2260,319.9639,-230.8484,430.1584
17058.8235,-215.7620,425.9711,366.8117,309.0522,-227.6286,418.6896
17078.4314,-236.7260,426.1215,355.2815,302.9044,-246.8607,394.1881
17098.0392,-287.7625,425.9608,352.7220,299.0692,-302.6773,348.6990
17117.6471,-296.7851,426.1293,358.2471,301.9094,-271.7612,351.1018
17137.2549,-256.8844,425.9541,364.7323,306.0725,-263.6821,384.6749
17156.8627,-239.6974,426.1376,365.1786,303.9185,-266.7458,394.1670
17176.4706,-232.9194,425.9450,358.7919,302.1001,-226.6322,395.6730
17196.0784,-235.7825,426.1440,360.2164,300.9008,-268.8881,387.2592
17215.6863,-267.9604,425.9395,362.7628,302.1122,-294.7381,361.8741
17235.2941,-268.6072,426.1495,354.1529,300.8881,-264.7400,359.2471
17254.9020,-231.8951,425.9352,360.7875,309.1159,-252.7021,391.8235
17274.5098,-237.6718,426.1533,368.2421,309.8321,-254.7452,392.1840
17294.1176,-238.8339,425.9305,362.7769,313.1126,-266.8192,400.8862
17313.7255,-250.6160,426.1578,360.1957,304.8535,-266.6420,394.1048
17333.3333,-257.0122,425.9262,360.8013,297.1186,-295.8972,384.7548
17352.9412,-264.6425,426.1619,363.1622,317.8425,-266.6161,362.2122
17372.5490,-252.0624,425.9225,362.7899,316.1390,-278.7937,371.8514
17392.1569,-261.5944,426.1666,359.1914,312.8047,-300.6354,384.1635
17411.7647,-255.9736,425.9177,367.8622,306.1528,-278.8096,359.8108
17431.3725,-263.5171,426.1714,356.2112,299.7945,-274.6028,365.1905
17450.9804,-263.9930,425.9158,357.8476,297.1494,-287.9319,363.9232
17470.5882,-274.5196,426.1740,364.1336,314.8087,-287.5943,363.0135
17490.1961,-271.1407,425.9130,358.8457,307.2118,-255.8640,377.9479
17509.8039,-267.5867,426.1762,363.1360,315.7835,-288.6596,384.9553
17529.4118,-267.0533,425.9086,368.8725,310.1657,-281.0241,385.9388
17549.0196,-263.4590,426.1802,356.1935,305.7802,-296.6808,384.0709
17568.6275,-277.0110,425.9071,354.8917,311.2143,-271.9188,360.9850
17588.2353,-262.5770,426.1814,364.1175,314.7848,-292.5561,364.0154
17607.8431,-240.0681,425.9067,365.7987,321.2174,-299.0241,393.9652
17627.4510,-250.4606,426.1805,364.1129,301.7777,-255.6972,379.9218
17647.0588,-275.0943,425.9059,362.8300,302.2148,-282.9808,376.1201
17666.6667,-297.3443,426.1816,365.1000,300.7898,-277.5931,360.9415
17686.2745,-271.2123,424.8998,352.8112,302.2206,-287.9746,376.1509
17705.8824,-242.4337,426.1810,371.1528,324.7612,-312.7208,391.9194
17725.4902,-221.0789,440.8579,372.8566,314.2424,-336.9669,388.0289
17745.0980,-202.4343,436.1115,364.1017,310.7754,-328.5610,388.8713
17764.7059,-234.0549,434.8331,365.8118,302.2272,-333.9193,380.0927
17784.3137,-238.3040,426.1774,362.1172,298.7537,-341.5826,365.7948
17803.9216,-237.0863,426.8003,368.8968,310.2035,-317.8589,371.0838
17823.5294,-228.3569,430.0821,368.1740,312.7355,-318.6200,386.8658
17843.1373,-228.2292,429.8150,362.8411,307.2578,-360.9912,389.2084
17862.7451,-267.4687,430.0803,365.0893,314.7559,-293.6953,378.8640
17882.3529,-262.1681,429.8137,359.8682,310.2059,-337.9993,363.1863
17901.9608,-264.4367,430.0788,365.0886,307.7625,-328.6153,382.7025
17921.5686,-252.2328,429.8157,367.9081,309.2249,-324.9717,385.1895
17941.1765,-249.3077,430.0761,364.0971,313.7701,-342.7303,378.7859
17960.7843,-244.2383,429.8188,364.8240,309.2261,-356.8099,368.2149
17980.3922,-241.3072,430.0728,363.1069,304.7578,-361.8396,375.7378
18000.0000,-260.2257,429.8233,363.8322,304.2551,-336.8354,389.3568
18019.6078,-258.3888,430.0689,365.0902,305.7407,-302.9003,383.6693
18039.2157,-259.1400,429.8266,364.8217,310.2039,-290.8430,388.3176
18058.8235,-264.4480,430.0645,367.1852,302.7391,-308.7869,386.6425
18078.4314,-287.2347,429.8305,355.8990,305.2327,-303.8176,385.3431
18098.0392,-283.4661,430.0614,364.1045,301.7607,-303.8356,380.5768
18117.6471,-273.1830,428.8296,355.8959,313.2022,-300.7403,386.4566
18137.2549,-269.4226,431.0610,368.1839,325.7427,-323.8239,388.5116
18156.8627,-255.2388,437.8731,372.8503,304.2422,-280.7495,388.4321
18176.4706,-270.5135,428.0437,367.1977,301.7675,-305.0068,372.5341
18196.0784,-295.2147,426.8299,350.8197,300.1940,-305.6343,356.5972
18215.6863,-262.5219,430.0497,355.1987,301.7720,-315.0269,384.3437
18235.2941,-274.0300,428.8430,364.7997,302.2105,-268.5036,381.6155
18254.9020,-250.4261,431.0478,362.1449,308.7697,-294.0635,388.4018
18274.5098,-263.2139,428.8472,365.7838,310.1777,-290.5515,381.6501
18294.1176,-280.4797,428.0304,356.2057,302.7660,-291.0953,362.3052
18313.7255,-267.0944,426.8433,357.8462,308.2085,-283.3268,361.6598
18333.3333,-262.5511,430.0347,355.2244,309.7642,-274.2499,382.2999
18352.9412,-238.1225,447.9379,360.8093,304.2150,-274.3719,387.7538
18372.5490,-261.4840,443.0856,366.1366,319.8246,-296.2138,387.2171
18392.1569,-271.1738,437.8990,362.7832,313.1638,-284.2736,356.7787
18411.7647,-299.5398,436.0514,358.2162,305.7915,-305.3908,352.2935
18431.3725,-267.0479,445.9409,361.7826,313.1567,-294.1793,367.8009
18450.9804,-247.4709,446.0904,367.2556,307.8210,-272.2877,387.1463
18470.5882,-246.9324,446.9484,365.7368,318.1754,-298.2207,379.8988
18490.1961,-262.6191,445.0826,363.1916,311.8155,-292.5270,355.2337
18509.8039,-276.9513,443.9411,362.7529,308.1714,-318.0975,353.8781
18529.4118,-283.6021,439.0520,365.1844,309.8006,-299.5399,351.1055
18549.0196,-262.0177,444.9492,358.7784,314.1740,-277.9090,365.9761
18568.6275,-259.6345,446.0779,360.2394,311.8315,-271.6462,375.1915
18588.2353,-268.9136,442.9456,365.7050,309.1380,-308.8407,359.9798
18607.8431,-297.4776,446.0727,357.2786,305.8308,-332.6477,347.1642
18627.4510,-300.0096,431.9039,355.7809,315.1382,-305.9343,344.9371
18647.0588,-280.6469,446.0671,353.2169,313.8709,-289.8091,360.0526
18666.6667,-246.8211,446.9736,368.7627,314.1471,-259.6679,396.8716
18686.2745,-247.6076,447.0648,363.2505,308.8521,-290.9819,386.0771
18705.8824,-263.0036,443.9660,356.7470,309.1114,-292.7445,357.0633
18725.4902,-262.7609,445.0511,354.2336,313.8887,-332.9165,350.9426
18745.0980,-251.9577,442.9691,358.7172,306.0968,-350.5441,342.0146
18764.7059,-228.6417,456.9848,361.2921,314.8808,-344.0613,356.9431
18784.3137,-208.9257,461.9454,370.7083,318.1054,-323.5669,385.1164
18803.9216,-222.6160,466.0161,368.3531,310.9034,-349.1390,362.9482
18823.5294,-254.9384,440.9729,358.6913,316.0744,-358.3676,353.0532
18843.1373,-259.8148,461.9942,357.3549,321.8900,-348.1594,354.9529
18862.7451,-253.8351,447.0025,357.6864,310.0562,-322.2794,354.1553
18882.3529,-235.8516,459.9799,361.3328,312.8853,-325.2735,362.8953
18901.9608,-263.7501,452.0295,357.6733,316.0567,-335.1875,351.1692
18921.5686,-257.7059,449.0392,357.3803,324.9109,-369.3776,349.7298
18941.1765,-287.7129,458.9520,353.5880,310.0415,-322.0905,325.1344
18960.7843,-264.8641,447.0284,357.3918,305.9073,-323.5124,351.8611
18980.3922,-236.6847,452.0343,354.6757,326.0380,-320.0398,364.1338
19000.0000,-230.7414,452.0489,362.3607,306.9557,-326.6460,364.7641
19019.6078,-257.6279,464.9820,358.6259,313.0295,-359.8307,343.2589
19039.2157,-288.9029,442.0010,355.4365,317.9438,-328.6964,318.8732
19058.8235,-286.7782,454.9451,349.5844,310.0166,-327.8668,326.2641
19078.4314,-254.9959,471.0065,356.4389,309.9189,-312.7421,356.7617
19098.0392,-251.7394,464.9951,354.6374,315.0346,-316.7199,356.2172
19117.6471,-249.8302,465.9803,356.4525,304.9585,-318.9047,348.7823
19137.2549,-265.5501,470.0211,358.5890,311.0403,-329.6271,327.1545
19156.8627,-271.8969,449.0132,352.3895,314.9625,-343.9416,319.6944
19176.4706,-259.6937,453.0642,356.5945,316.0029,-343.4016,338.1440
19196.0784,-249.8768,456.9284,356.4749,318.9552,-311.0936,347.6804
19215.6863,-238.4891,460.9950,356.5845,309.0058,-325.3049,354.3110
19235.2941,-247.9506,447.9964,359.4585,320.0001,-310.3205,349.6106
19254.9020,-263.5405,443.0339,353.4917,321.0192,-326.2953,333.2160
19274.5098,-255.9672,444.9799,355.5035,320.9857,-285.2678,328.7089
19294.1176,-241.4764,456.9874,361.5230,321.0161,-302.1405,343.3448
19313.7255,-212.9763,455.9107,364.4304,318.9674,-297.4959,354.7643
19333.3333,-229.5690,466.0316,355.5686,321.0116,-289.0439,356.2724
19352.9412,-260.9807,441.9562,359.4835,317.0067,-295.4185,329.7762
19372.5490,-271.4769,449.0744,354.5712,321.0094,-283.9676,326.3406
19392.1569,-268.1289,452.9977,355.5250,320.9948,-286.6148,321.5952
19411.7647,-254.6015,448.0758,366.5676,318.9859,-281.9241,340.3428
19431.3725,-255.1752,463.9282,359.4946,321.9803,-283.6625,348.7338
19450.9804,-257.3979,456.0042,360.5063,322.9684,-291.8181,340.3392
19470.5882,-295.1800,446.9609,356.5263,317.9951,-307.8121,324.6100
19490.1961,-257.3819,458.0199,359.5111,322.9671,-301.7076,351.3213
19509.8039,-262.1251,459.8978,356.5294,321.9839,-268.8692,336.6765
19529.4118,-260.3945,457.0222,360.5008,320.0189,-286.6627,346.3654
19549.0196,-275.1045,455.8756,359.5027,321.0031,-262.0132,337.7618
19568.6275,-295.3951,439.0608,356.5363,320.0163,-272.4960,332.3575
19588.2353,-287.2243,456.8757,354.4369,320.0214,-267.9421,319.6734
19607.8431,-277.4442,457.0320,365.4561,321.9807,-269.6034,333.2135
19627.4510,-272.1028,461.8915,359.5042,324.9910,-259.1223,329.8069
19647.0588,-280.4560,448.1108,357.5272,317.9941,-290.5647,316.1964
19666.6667,-287.2416,446.9318,357.5193,321.0036,-287.1576,320.7648
19686.2745,-289.3134,454.0313,352.4651,321.9815,-276.4089,307.3575
19705.8824,-291.1382,455.8526,362.4714,322.9669,-292.2013,327.6674
19725.4902,-265.3195,456.0472,360.5083,321.0013,-272.2332,328.2354
19745.0980,-287.2492,448.9267,357.5110,320.0182,-265.1580,319.7145
19764.7059,-292.3334,464.0893,362.4959,324.9898,-263.2897,329.2956
19784.3137,-294.1703,454.8331,357.5058,320.9983,-253.2872,330.7130
19803.9216,-289.3056,458.0705,363.4919,324.0102,-263.2407,327.1261
19823.5294,-290.0652,457.8387,360.4726,320.0129,-246.3987,326.8537
19843.1373,-291.4647,457.0737,359.5361,320.0275,-258.2026,324.0961
19862.7451,-287.2562,456.8268,354.4070,321.9727,-264.4435,319.7650
19882.3529,-295.3559,457.0814,353.4883,321.0130,-258.1573,324.0734
19901.9608,-293.0935,459.8320,366.3991,321.9695,-257.3313,338.7369
19921.5686,-292.3296,446.1544,362.5295,325.0035,-245.1071,329.2215
19941.1765,-274.0694,460.8279,361.4340,322.9490,-280.5749,353.8367
19960.7843,-291.4698,456.0942,356.5937,321.0199,-263.0606,333.0748
19980.3922,-303.2414,453.7892,363.4035,322.9444,-257.4162,322.8469
20000.0000,-294.5015,452.1972,354.6257,322.9890,-258.0312,337.1435
20019.6078,-259.1431,466.8369,360.4141,321.9577,-239.4603,355.8235
20039.2157,-247.3947,469.1679,367.6371,322.0117,-272.9626,366.1902
20058.8235,-272.1062,469.8419,359.4062,322.9353,-261.6064,361.0193
20078.4314,-287.3872,470.1796,365.5605,320.0511,-249.9457,378.0070
20098.0392,-268.2016,469.8328,362.3650,322.9312,-277.6832,397.0182
20117.6471,-270.5401,471.1934,364.5865,322.0195,-228.8827,394.1298
20137.2549,-259.1159,470.8275,367.4133,321.9441,-232.6182,394.8937
20156.8627,-273.3633,460.1558,360.6397,321.0431,-262.8904,383.9717
20176.4706,-282.0124,454.7485,359.3539,321.9383,-249.7748,391.0514
20196.0784,-287.4214,471.2133,369.6885,323.0133,-254.8408,388.0360
20215.6863,-291.0755,468.7985,360.3275,321.9319,-238.7357,394.0979
20235.2941,-291.5461,468.2124,365.6334,325.0433,-245.9376,389.9391
20254.9020,-300.1429,468.7881,365.2614,326.9506,-256.7470,387.0168
20274.5098,-313.6019,469.2276,363.6716,322.0455,-238.7752,378.9247
20294.1176,-294.0717,468.7771,364.2509,325.9057,-241.8009,399.1132
20313.7255,-297.4041,469.2387,373.7150,323.0336,-229.8660,400.8652
20333.3333,-300.1065,468.7659,362.2448,324.9169,-223.8217,413.1480
20352.9412,-318.6097,469.2500,366.8002,324.0787,-234.8499,409.8652
20372.5490,-321.0546,468.7545,364.2048,321.9038,-216.6734,401.1187
20392.1569,-336.5679,469.2616,363.7388,327.0917,-241.7834,387.8665
20411.7647,-335.9467,468.7428,365.1740,325.8844,-206.7043,412.1381
20431.3725,-334.6363,469.2734,373.7830,328.0819,-239.8185,423.8028
20450.9804,-335.0595,468.7308,372.1987,324.8943,-243.7814,422.2981
20470.5882,-334.6606,469.2854,371.8240,325.0842,-239.8199,423.7655
20490.1961,-335.0408,468.7187,372.1749,324.8869,-243.7802,422.3336
20509.8039,-334.6840,469.2974,371.8480,325.0918,-239.8293,423.7236
20529.4118,-335.0200,468.7061,372.1507,324.8784,-243.7708,422.3720
20549.0196,-334.7014,469.3101,371.8711,325.1008,-239.8283,423.6922
20568.6275,-334.9947,468.6937,372.1289,324.8702,-243.7696,422.4119
20588.2353,-334.7310,469.3231,371.8939,325.1081,-239.8380,423.6474
20607.8431,-334.9696,468.6806,372.1049,324.8619,-243.7619,422.4510
20627.4510,-334.7567,469.3375,371.9173,325.1147,-239.8442,423.6045
20647.0588,-334.9441,468.6653,372.0822,324.8562,-243.7528,422.4934
20666.6667,-334.7810,469.3512,371.9396,325.1225,-239.8493,423.5681
20686.2745,-334.9160,468.6527,372.0591,324.8462,-243.7471,422.5358
20705.8824,-334.8102,469.3643,371.9615,325.1295,-239.8597,423.5257
20725.4902,-334.8892,468.6407,372.0379,324.8393,-243.7300,422.5705
20745.0980,-334.8371,469.3764,371.9831,325.1388,-239.8799,423.4926
20764.7059,-334.8632,468.6272,372.0169,324.8314,-243.7138,422.6060
20784.3137,-334.8631,469.3895,372.0040,325.1467,-239.8938,423.4579
20803.9216,-334.8359,468.6143,371.9947,324.8208,-243.6971,422.6435
20823.5294,-334.8896,469.4024,372.0259,325.1552,-239.9158,423.4156
20843.1373,-334.8105,468.6014,371.9738,324.8117,-243.6732,422.6820
20862.7451,-334.9150,469.4152,372.0446,325.1649,-239.9366,423.3761
20882.3529,-334.7856,468.5887,371.9569,324.8050,-243.6496,422.7197
20901.9608,-334.9390,469.4257,372.0641,325.1698,-239.9613,423.3416
20921.5686,-334.7612,468.5786,371.9361,324.7977,-243.6268,422.7563
20941.1765,-334.9700,469.4372,372.0822,325.1767,-239.9814,423.3005
20960.7843,-334.7343,468.5669,371.9188,324.7927,-243.6096,422.7946
20980.3922,-334.9900,469.4490,372.1003,325.1838,-240.0011,423.2637
21000.0000,-367.5578,474.5808,378.8394,320.7993,-187.6520,434.8947
21019.6078,-379.9741,476.4911,382.1392,332.1826,-148.9696,465.2224
21039.2157,-412.7081,473.5647,385.8684,338.7562,-168.5423,447.8501
21058.8235,-445.0565,476.5005,384.1374,333.2339,-104.9828,459.1572
21078.4314,-456.5601,477.5719,382.8806,339.7880,-128.4091,457.7918
21098.0392,-445.9433,482.4247,382.1691,341.2179,-105.0051,451.1552
21117.6471,-453.5087,483.4770,382.8683,348.7928,-124.4839,443.8275
21137.2549,-453.1008,477.5262,376.1238,337.2371,-124.9874,434.1049
21156.8627,-474.6669,477.5515,376.7992,332.7800,-125.5363,425.9817
21176.4706,-481.0036,480.5508,373.1626,343.2539,-145.1709,426.9656
21196.0784,-464.4784,498.5196,380.8630,343.7498,-94.5176,426.0152
21215.6863,-458.1186,496.5187,380.2220,349.2722,-119.1777,445.0270
21235.2941,-444.5740,499.5132,381.8434,349.7507,-130.4768,451.0253
21254.9020,-442.1472,499.5417,379.1296,347.2565,-141.1067,449.0884
21274.5098,-445.4155,498.5004,381.8354,345.7565,-196.3499,431.0277
21294.1176,-445.1957,499.5504,379.1375,339.2356,-152.1885,415.8964
21313.7255,-442.3683,498.4922,382.8186,351.6998,-177.2441,435.1479
21333.3333,-410.2029,499.5580,380.2465,351.2602,-162.1975,446.8763
21352.9412,-435.4292,498.4854,377.7468,348.7469,-186.3203,415.1501
21372.5490,-443.0778,499.5628,376.1768,345.2549,-210.1400,421.0036
21392.1569,-435.4075,498.4795,370.8050,346.7211,-155.2882,413.0241
21411.7647,-419.1056,499.5682,380.2547,346.3005,-193.2593,416.8849
21431.3725,-391.2978,498.4745,379.8318,350.7013,-162.1915,440.1877
21450.9804,-411.1302,499.5730,372.2197,344.2826,-182.2329,412.7672
21470.5882,-421.3216,498.4697,372.7804,343.7039,-207.2498,391.1093
21490.1961,-404.2341,499.5760,371.2284,352.2631,-229.3162,395.7274
21509.8039,-387.3695,498.4669,377.7371,352.7134,-176.2159,411.1646
21529.4118,-380.2580,499.5801,378.1682,353.3075,-193.3595,422.8409
21549.0196,-373.3079,498.4630,382.8034,351.6683,-198.0777,412.2585
21568.6275,-406.2081,499.5833,364.1783,350.3076,-196.4345,386.8574
21588.2353,-413.2801,498.4601,362.7627,347.6764,-215.1674,391.1679
21607.8431,-400.1711,499.5858,362.1926,353.3160,-175.4411,399.7627
21627.4510,-360.3091,498.4585,376.7546,350.6777,-187.1631,418.3286
21647.0588,-362.3637,499.5872,360.2059,349.3324,-195.4205,403.8369
21666.6667,-379.3161,498.4573,373.7862,347.6692,-220.9485,400.2530
21686.2745,-396.3135,499.5849,362.1808,348.2967,-239.4671,378.8363
21705.8824,-397.2400,498.4581,360.7991,347.6640,-228.9363,379.3747
21725.4902,-366.2827,501.5938,364.1541,348.3004,-225.6262,395.6260
21745.0980,-366.3125,486.4094,364.7739,347.6624,-184.8872,394.2526
21764.7059,-363.2753,475.5878,369.2105,348.3016,-228.6993,393.6697
21784.3137,-370.1964,491.4341,364.7812,347.6612,-254.8842,371.2170
21803.9216,-382.3109,477.5940,360.1714,349.3412,-216.5903,369.7499
21823.5294,-389.2008,479.4969,362.8089,353.6703,-186.9942,378.3410
21843.1373,-386.4243,474.5778,365.1157,355.2939,-182.5789,386.7555
21862.7451,-385.2973,478.4971,363.8129,347.6610,-186.9630,381.3696
21882.3529,-386.4398,479.5942,362.1299,348.3021,-242.6712,362.6197
21901.9608,-400.1997,477.4991,360.8525,347.6608,-190.8342,349.2851
21921.5686,-395.3112,476.5740,362.1161,349.3423,-203.6796,351.6292
21941.1765,-395.2122,475.4979,362.8494,352.6887,-193.8260,357.2649
21960.7843,-379.3257,476.5674,364.0846,353.3273,-185.7234,365.6231
21980.3922,-382.2391,475.5037,364.8467,352.6898,-219.8117,357.2692
22000.0000,-377.3979,476.5603,364.0671,354.3067,-217.8430,360.6533
22019.6078,-381.1524,475.5109,358.9159,351.6535,-204.8222,356.4161
22039.2157,-358.3821,476.5527,359.0966,355.2845,-189.9048,367.5440
22058.8235,-349.1540,475.5195,352.8762,352.6979,-177.6830,384.4226
22078.4314,-323.3758,476.5468,368.1095,349.3310,-208.7978,385.6335
22098.0392,-322.1372,474.5193,362.9137,346.6903,-216.6718,373.4391
22117.6471,-324.4696,475.5320,365.0072,352.2728,-225.9678,353.5328
22137.2549,-287.1136,479.5508,362.9304,349.7015,-251.5402,364.4019
22156.8627,-267.4122,475.5252,365.9835,355.2710,-232.9316,386.7000
22176.4706,-259.2228,482.4599,362.9491,355.7137,-247.6079,381.4203
22196.0784,-260.5042,489.4649,363.9831,351.2815,-252.0499,385.6219
22215.6863,-265.0566,488.4953,360.9828,352.7145,-259.4966,358.3734
22235.2941,-263.5349,477.5142,368.0404,351.2735,-286.9895,383.6806
22254.9020,-255.1088,479.5808,355.0547,352.7211,-241.4584,387.4492
22274.5098,-255.5371,477.5000,367.0327,354.2726,-241.9409,380.6723
22294.1176,-248.1873,494.5495,362.0113,354.6960,-259.4154,392.4006
22313.7255,-258.3606,478.4898,359.9656,354.2591,-263.0054,379.5920
22333.3333,-261.1513,475.5921,367.0945,354.7087,-260.4671,382.2767
22352.9412,-264.4157,476.4661,363.9111,352.2254,-259.1281,383.6848
22372.5490,-252.0621,485.5403,358.0834,357.7231,-257.4072,392.4022
22392.1569,-255.5619,479.4641,364.8839,362.2697,-282.1409,391.6542
22411.7647,-259.1911,477.6284,362.0666,364.7260,-256.2905,365.4792
22431.3725,-289.5012,474.4294,355.9460,354.2255,-287.1595,340.6136
22450.9804,-270.2060,474.6296,361.0931,359.7705,-281.4028,360.3089
22470.5882,-259.4629,479.4343,361.8739,353.2298,-263.1370,364.7409
22490.1961,-259.1765,480.5644,369.1514,355.7963,-298.2746,384.4257
22509.8039,-253.4170,499.3930,364.8281,354.1985,-241.2736,378.7412
22529.4118,-261.1175,478.6797,362.1225,356.7914,-285.2325,365.4674
22549.0196,-267.4747,476.3926,364.8107,359.2119,-274.2656,354.6213
22568.6275,-247.0595,476.6861,366.1043,357.7878,-273.2741,365.4679
22588.2353,-245.4339,477.3832,362.8106,361.1601,-253.2709,367.5476
22607.8431,-269.0989,477.7048,357.2019,359.8267,-272.1567,359.4371
22627.4510,-274.4038,469.3325,364.7744,353.1696,-284.3090,347.7353
22647.0588,-271.0416,466.6732,361.1841,356.8396,-277.1038,351.2484
22666.6667,-238.5302,470.3193,358.8120,363.1473,-256.3829,363.6767
22686.2745,-247.0416,473.7217,359.2177,354.8363,-284.2186,359.4309
22705.8824,-253.4498,480.3474,361.7690,355.0970,-308.4575,336.5449
22725.4902,-248.1147,479.7627,364.1904,355.8952,-310.1924,331.4298
22745.0980,-259.5104,479.3273,365.7151,351.0913,-307.4173,329.6543
22764.7059,-251.9949,479.7766,367.2912,364.8701,-302.1277,332.2852
22784.3137,-228.6127,478.3086,356.7793,365.0536,-284.4751,357.6589
22803.9216,-247.0126,475.7742,360.2586,359.9210,-328.9654,335.2954
22823.5294,-260.6152,478.2940,357.7551,350.0690,-275.6281,323.6339
22843.1373,-248.9504,472.7737,357.2998,352.9503,-312.0154,333.3555
22862.7451,-250.4645,478.2817,365.6695,354.0354,-285.6358,325.5757
22882.3529,-254.9911,476.8037,363.2603,360.9431,-297.8892,327.3223
22901.9608,-230.5864,466.2191,362.6835,363.0278,-277.6547,351.6389
22921.5686,-237.9147,468.7776,366.2464,363.9685,-292.8567,340.2401
22941.1765,-252.6371,468.2180,355.7299,357.9818,-308.7016,306.6316
22960.7843,-254.9811,469.7928,355.3598,359.0194,-313.8440,298.2406
22980.3922,-265.6089,472.2259,363.6459,357.9618,-300.7217,322.5754
23000.0000,-237.8991,473.8210,358.3452,361.0053,-290.8134,321.2794
23019.6078,-247.4618,472.2146,359.6692,360.9442,-298.8254,315.6888
23039.2157,-245.0246,467.8032,361.3298,357.0397,-306.8033,323.2114
23058.8235,-265.6260,472.2065,359.6585,357.9178,-312.7482,298.6785
23078.4314,-251.9279,466.8074,363.3237,360.0674,-293.7532,326.2252
23098.0392,-242.5095,472.1962,353.5899,358.9348,-294.8013,319.7863
23117.6471,-240.0347,472.8421,359.3708,358.0680,-285.6847,324.2817
23137.2549,-256.5660,473.1925,354.6786,361.9164,-303.9548,313.7601
23156.8627,-273.9578,472.8494,352.3338,354.1034,-299.5134,287.2351
23176.4706,-261.5440,473.1870,352.5785,363.8591,-307.9127,300.6244
23196.0784,-246.9319,472.8578,360.3817,364.1215,-264.5573,321.2617
23215.6863,-227.6189,473.1781,365.5647,363.8357,-279.1317,322.5948
23235.2941,-241.9528,467.8430,360.3880,364.1450,-296.5898,321.2568
23254.9020,-263.7210,470.1618,355.6460,357.8037,-298.0500,300.6319
23274.5098,-249.9435,469.8540,356.4328,361.1627,-291.5405,300.3600
23294.1176,-246.6535,470.1590,356.6290,363.7914,-291.1686,316.7879
23313.7255,-236.9655,469.8572,353.3556,365.1713,-278.4799,306.3899
23333.3333,-247.5285,467.1443,362.5695,363.7670,-321.1383,303.6495
23352.9412,-247.9829,465.8385,353.3617,362.2491,-265.4225,302.2966
23372.5490,-244.7274,458.1046,359.5887,358.7762,-280.2135,301.7110
23392.1569,-229.8179,469.8565,358.4364,365.2162,-276.2077,309.1874
23411.7647,-226.5771,468.1471,358.5892,358.7563,-282.2245,310.7549
23431.3725,-235.0013,468.8519,355.4697,365.2359,-286.1163,300.3534
23450.9804,-233.7162,469.1523,352.5256,363.7060,-291.3976,290.7268
23470.5882,-245.8017,468.8503,354.3739,362.3085,-317.0605,299.2761
23490.1961,-230.6974,469.1561,355.6050,364.6693,-295.3573,303.6485
23509.8039,-229.7977,468.8482,368.4748,367.2965,-285.1270,301.2165
23529.4118,-224.6514,470.1615,355.5997,364.6482,-296.5072,302.7873
23549.0196,-227.8467,458.8013,360.4406,357.3200,-293.9541,302.2910
23568.6275,-231.5727,457.1102,356.5856,365.6696,-305.6755,304.7256
23588.2353,-263.9356,455.7831,360.4449,361.3253,-304.0809,295.1826
23607.8431,-259.6720,457.1160,357.5732,365.6534,-265.6248,322.6034
23627.4510,-260.9047,456.7811,352.4093,365.3282,-263.9151,293.2459
23647.0588,-245.6296,457.1229,369.5719,366.6193,-274.5744,295.6797
23666.6667,-254.8490,456.7737,350.4324,366.3835,-292.9090,297.3336
23686.2745,-261.6250,457.1292,356.5736,364.5805,-306.7185,286.6328
23705.8824,-262.8401,456.7653,353.4085,365.3610,-282.8807,268.2650
23725.4902,-246.7147,457.1383,360.5348,364.5650,-283.7912,294.6021
23745.0980,-245.7625,456.7569,362.4424,362.4288,-287.8101,295.1850
23764.7059,-247.5844,457.1486,359.5374,364.5488,-314.8524,284.6891
23784.3137,-267.8056,456.7469,351.4338,363.4255,-296.6382,254.2679
23803.9216,-262.7131,457.1590,355.5702,366.5595,-309.9309,255.6134
23823.5294,-261.9693,458.7442,357.4923,366.4417,-285.5145,285.2814
23843.1373,-245.6380,461.1880,361.5173,375.5617,-298.9371,288.7788
23862.7451,-252.8927,458.7320,361.4563,363.4484,-298.4626,269.3454
23882.3529,-265.7384,458.1877,358.5434,369.5413,-310.0550,258.6234
23901.9608,-260.8872,454.7017,356.5005,363.4577,-289.5111,272.3668
23921.5686,-262.7131,458.2011,352.4881,367.5117,-297.1092,266.5900
23941.1765,-251.8064,445.7610,357.4920,371.4377,-294.4359,289.3857
23960.7843,-247.5834,464.2409,356.5617,365.5403,-298.2543,268.7386
23980.3922,-243.8160,458.6894,361.4563,372.4844,-301.3160,262.2516
24000.0000,-257.7403,456.2217,359.5344,368.5366,-294.1927,258.6095
24019.6078,-241.8711,454.6570,366.4125,374.4587,-293.2360,275.3960
24039.2157,-242.6091,448.3141,360.5255,372.5141,-300.3210,290.6952
24058.8235,-238.8496,453.6370,357.4921,367.4740,-278.2205,276.2597
24078.4314,-234.6075,458.2615,360.5259,375.5128,-291.2699,292.6304
24098.0392,-231.9368,456.6339,366.4118,376.4928,-292.2586,268.2944
24117.6471,-231.5768,457.2734,364.4916,379.4953,-291.3233,274.7496
24137.2549,-229.7803,456.6176,365.4189,380.4836,-293.0743,288.3330
24156.8627,-230.7049,457.2899,360.5293,382.4963,-297.4461,277.5443
24176.4706,-234.9766,456.6009,367.5098,373.4954,-295.1890,288.3349
24196.0784,-231.5616,457.3067,357.5581,371.5156,-303.5686,289.6000
24215.6863,-230.8800,471.6487,360.4590,385.5172,-302.0763,292.4315
24235.2941,-234.5794,455.3150,361.5250,380.4684,-289.5259,293.6871
24254.9020,-220.9471,460.5844,365.4112,378.5254,-298.9942,292.4372
24274.5098,-218.5756,457.3406,360.5362,379.4873,-299.5451,294.5417
24294.1176,-233.9241,458.5587,359.4618,382.5117,-303.0662,302.3498
24313.7255,-229.5885,459.3662,356.5752,377.5234,-296.5547,291.7384
24333.3333,-227.8809,458.5409,363.4214,375.5192,-291.9691,291.3703
24352.9412,-225.6844,459.3829,365.4984,387.5196,-302.6737,287.6379
24372.5490,-228.9682,458.5244,360.4436,371.4717,-299.9434,292.4541
24392.1569,-229.5567,455.3821,365.5027,380.4731,-290.8000,288.7086
24411.7647,-214.9304,463.5291,366.3861,367.4817,-325.9216,293.3207
24431.3725,-218.5231,461.4239,360.5517,379.4929,-278.6997,301.6263
24450.9804,-212.9972,454.4737,364.3985,378.5140,-247.8338,319.3866
24470.5882,-210.5107,458.4281,363.5315,380.4806,-261.8252,325.5290
24490.1961,-221.8707,446.5347,366.3743,382.4971,-282.7021,322.4082
24509.8039,-231.4588,453.5336,362.5482,381.5243,-249.9329,320.5714
24529.4118,-225.9970,446.5165,360.4196,371.4553,-263.8140,323.2725
24549.0196,-207.4517,456.4506,362.5547,380.4902,-259.9376,325.5179
24568.6275,-221.0440,449.5139,360.4128,383.4655,-261.6155,325.4297
24588.2353,-230.5581,447.5382,362.5627,381.5410,-257.7993,318.6223
24607.8431,-229.0591,445.4823,359.4144,362.4823,-296.6992,305.4070
24627.4510,-232.4850,446.5479,368.6273,373.5173,-253.9309,300.5294
24647.0588,-221.0839,447.4772,356.4317,376.4546,-256.5620,320.4831
24666.6667,-237.4409,442.5441,359.6068,370.5221,-263.9308,299.6635
24686.2745,-218.0753,458.4000,358.4049,386.4412,-302.7163,308.4305
24705.8824,-222.5039,453.6042,355.6519,372.5545,-257.8729,299.6612
24725.4902,-212.0469,459.3920,366.3259,376.4355,-289.6989,308.4330
24745.0980,-214.4892,453.6159,365.5713,381.5761,-294.0920,296.6428
24764.7059,-210.1317,458.3760,356.4045,383.4158,-320.6846,299.3868
24784.3137,-208.4112,455.5243,361.6165,371.5916,-314.0488,289.5374
24803.9216,-211.2314,459.3686,359.3684,384.3875,-330.6371,307.3628
24823.5294,-208.3916,459.5525,361.6269,375.5882,-289.9962,298.5817
24843.1373,-208.2307,458.3539,355.3917,384.3750,-300.4969,317.4820
24862.7451,-211.3985,459.5614,360.6470,381.6104,-299.9786,322.4835
24882.3529,-217.1148,458.3470,360.3348,384.3614,-304.6021,299.3935
24901.9608,-205.3193,459.5696,372.6656,380.5825,-306.0594,327.6564
24921.5686,-205.2505,458.3384,365.2781,383.3685,-291.5838,313.3943
24941.1765,-211.3461,459.5762,364.6394,382.6169,-313.0100,294.4874
24960.7843,-227.3255,458.3329,357.3343,384.3369,-321.4957,290.3465
24980.3922,-212.4056,459.5807,366.7471,383.6132,-342.0623,288.6731
25000.0000,-217.1865,458.3267,366.2388,384.3244,-327.5641,289.4885
25019.6078,-197.2517,459.5864,357.7324,381.6609,-304.9850,320.5503
25039.2157,-207.2685,458.3234,369.3080,383.3280,-312.6079,301.3320
25058.8235,-232.2446,447.6501,361.7112,382.6591,-326.0107,289.5388
25078.4314,-227.3942,464.3473,359.2719,384.2934,-307.6310,296.3748
25098.0392,-202.1790,457.5865,370.7560,382.6727,-301.0720,315.5968
25117.6471,-176.4080,454.2993,363.2213,388.3243,-288.5575,327.3921
25137.2549,-180.1076,457.5906,370.7721,383.6693,-278.0844,324.6459
25156.8627,-199.3405,456.3060,371.2447,385.3049,-303.5308,298.3158
25176.4706,-204.2954,458.5967,361.7571,379.6963,-304.9603,288.6756
25196.0784,-196.3388,457.3097,368.2554,382.2871,-291.6172,299.3906
25215.6863,-196.0558,446.6564,365.7386,385.7201,-283.0449,328.5277
25235.2941,-190.3070,462.3321,364.1640,385.2768,-252.6070,322.4336
25254.9020,-205.1099,449.6683,366.8571,385.7346,-297.9915,321.6390
25274.5098,-217.3447,464.3420,365.1380,381.2178,-290.5613,296.3708
25294.1176,-205.0950,458.5930,363.7903,384.7654,-286.0559,308.4999
25313.7255,-184.5168,454.3020,366.1116,391.2577,-316.5910,333.4104
25333.3333,-160.1134,459.5940,367.8831,386.7434,-266.9545,335.6427
25352.9412,-183.4605,457.3187,369.1775,398.2365,-290.5972,325.4390
25372.5490,-201.1589,457.5811,362.8356,385.7736,-296.8524,311.5211
25392.1569,-226.4933,437.3489,365.0853,383.2005,-286.7245,289.4676
25411.7647,-195.9534,461.5931,365.8256,393.7610,-312.8675,309.5869
25431.3725,-180.4778,460.3423,370.1334,392.2010,-261.5952,327.3694
25450.9804,-185.9928,457.5697,375.8656,388.8047,-263.8512,320.5788
25470.5882,-203.6284,456.3309,368.1326,388.2013,-298.6803,299.3653
25490.1961,-216.0187,458.5677,360.9061,402.7992,-290.9332,288.7040
25509.8039,-217.4802,456.3373,363.0487,388.1878,-264.6656,279.3342
25529.4118,-195.8979,458.5590,373.9192,396.8044,-281.7953,305.7213
25549.0196,-183.5650,456.3454,372.0619,397.1305,-256.6777,325.4265
25568.6275,-180.9684,457.5478,368.9814,397.8579,-300.8388,327.6879
25588.2353,-207.5754,458.3633,361.0326,391.1648,-255.8430,297.4225
25607.8431,-218.9929,450.6197,355.0120,385.8539,-285.8543,289.5724
25627.4510,-198.5149,455.3578,362.0053,394.0987,-276.8958,298.2814
25647.0588,-183.9639,458.5341,361.9694,392.8572,-264.7919,309.6063
25666.6667,-178.6450,456.3734,368.0417,394.0869,-288.8528,327.3530
25686.2745,-183.9473,458.5229,368.0467,395.8740,-258.6910,324.6854
25705.8824,-178.6620,453.3700,371.9875,389.1047,-270.8896,318.3015
25725.4902,-188.9035,458.5123,364.9811,390.9170,-278.5995,294.5363
25745.0980,-187.5355,457.4001,360.9561,390.0744,-286.9691,297.4109
25764.7059,-198.8295,457.4961,365.0008,394.9167,-301.5431,303.5912
25784.3137,-201.5988,469.4642,364.9012,391.1019,-235.8381,295.2502
25803.9216,-199.9006,448.5556,366.0116,394.9285,-247.5247,315.6528
25823.5294,-215.6558,452.5153,367.9639,390.0514,-259.9365,305.3705
25843.1373,-211.9967,465.5016,361.0751,398.9257,-282.6174,317.5923
25862.7451,-200.7520,448.5132,356.9334,397.0321,-251.0784,325.3997
25882.3529,-215.8776,459.4627,358.1197,394.9478,-252.4460,302.7321
25901.9608,-212.6464,457.4539,364.8443,397.0239,-248.9494,313.3396
25921.5686,-216.9499,457.4414,362.1029,394.9561,-263.4696,296.7029
25941.1765,-214.5948,456.4632,363.8374,397.0153,-261.1252,299.3414
25960.7843,-216.9465,449.5059,357.1635,396.9297,-274.4834,293.6856
25980.3922,-217.6256,459.4906,355.8896,398.0471,-264.2048,290.2973
26000.0000,-209.8136,456.4098,359.1637,394.9717,-262.5186,296.6998
26019.6078,-196.6609,454.4824,362.8106,397.0013,-252.0970,300.4246
26039.2157,-207.8669,444.4545,357.1997,394.9777,-266.3758,298.6363
26058.8235,-203.7953,460.5228,361.7997,396.9961,-247.1572,304.3065
26078.4314,-227.9671,446.4486,359.2002,394.9835,-260.2641,305.7390
26098.0392,-211.7916,456.5201,358.8084,398.0294,-272.1286,298.2801
26117.6471,-205.9238,458.3744,362.1920,402.9616,-281.2543,314.5622
26137.2549,-182.6086,454.5264,360.7742,396.0029,-292.3270,302.3835
26156.8627,-181.9345,459.3637,365.1812,395.9761,-300.3019,293.6666
26176.4706,-180.6652,456.5504,361.7495,395.0162,-344.3988,294.4157
26196.0784,-193.8230,458.3441,366.1876,404.9931,-298.3119,287.6335
26215.6863,-182.6049,462.5907,359.7530,405.9906,-317.3373,301.3118
26235.2941,-154.9260,472.3940,367.3029,408.9819,-327.1038,308.5169
26254.9020,-176.7629,456.5772,373.7253,392.0056,-336.4582,300.4600
26274.5098,-185.8385,457.3150,360.2715,401.0112,-317.0898,290.6347
26294.1176,-201.6132,456.5908,364.6777,395.9909,-324.3578,291.4247
26313.7255,-196.8662,458.3050,367.3329,395.9844,-341.1147,290.6179
26333.3333,-193.6121,456.6045,372.7043,395.9908,-307.4909,301.3462
26352.9412,-185.8471,469.3388,367.3457,401.0118,-320.0409,293.6237
26372.5490,-199.6549,457.6231,362.6707,401.0171,-355.4438,298.3414
26392.1569,-213.9548,469.3247,363.2840,395.0041,-305.0421,286.5074
26411.7647,-197.6998,465.6716,363.6476,395.9896,-329.4675,292.5349
26431.3725,-183.9223,470.3151,362.3085,395.0040,-308.0367,298.5565
26450.9804,-186.6659,469.7017,371.6732,396.9730,-326.6894,301.3806
26470.5882,-194.9541,469.2980,368.3782,401.0100,-301.9202,300.4808
26490.1961,-199.6230,461.6799,354.7021,398.9993,-273.6222,317.5504
26509.8039,-217.0101,446.2979,364.3153,394.9966,-249.8443,306.4962
26529.4118,-214.5254,468.7226,360.6366,405.9936,-261.7421,303.5630
26549.0196,-217.0253,454.2088,366.3069,393.9531,-256.7435,301.5271
26568.6275,-214.5131,458.6937,362.6084,399.0063,-259.8279,300.5609
26588.2353,-218.9822,457.2094,356.4075,397.9940,-273.8322,300.4374
26607.8431,-211.6897,455.6923,361.6074,398.0269,-291.7369,313.4990
26627.4510,-214.8875,457.1982,365.3370,392.9634,-268.8065,310.5432
26647.0588,-206.4924,453.6951,364.5729,415.0190,-308.9038,318.4695
26666.6667,-222.0334,463.2136,367.4359,391.9761,-270.7147,296.5264
26686.2745,-229.6039,457.7216,363.5754,398.0373,-288.7884,299.5351
26705.8824,-220.9660,457.1782,356.4296,399.9443,-275.6618,300.3842
26725.4902,-227.6455,459.7382,363.5679,398.0421,-279.9387,302.5690
26745.0980,-219.0364,459.1775,363.3754,398.9566,-288.6279,304.4594
26764.7059,-221.5762,458.7438,366.6449,395.0449,-279.9757,306.6841
26784.3137,-224.0257,459.1682,365.3645,397.9663,-267.5620,304.4367
26803.9216,-211.6167,458.7524,362.5632,396.0348,-254.8620,319.6239
26823.5294,-225.9855,459.1613,366.3637,394.9535,-293.5492,297.3094
26843.1373,-230.4042,458.7604,358.5901,410.0252,-250.9962,297.6775
26862.7451,-220.1677,459.1534,366.3712,405.9223,-272.4818,311.2879
26882.3529,-228.4426,458.7697,366.6225,407.0327,-256.0203,310.6198
26901.9608,-209.1599,459.1461,366.3771,398.9194,-254.4487,328.2807
26921.5686,-219.5597,458.7772,364.5243,395.0826,-300.0658,312.5829
26941.1765,-235.1101,459.1389,365.3906,396.8878,-271.5446,289.2749
26960.7843,-228.4063,458.7840,365.5122,398.0968,-288.1728,297.7470
26980.3922,-218.0547,459.1323,362.4174,402.8860,-266.5261,327.3714
27000.0000,-220.3919,469.8378,361.5473,409.0859,-281.0496,327.7041
27019.6078,-226.0655,469.1693,364.4015,395.8837,-258.4703,310.3392
27039.2157,-222.3210,467.8351,369.5845,395.1155,-286.0725,301.6667
27058.8235,-219.1681,461.1292,360.4376,395.8709,-293.3433,301.2682
27078.4314,-208.4765,458.8019,379.6049,409.1097,-276.1293,313.7481
27098.0392,-200.1623,456.1008,368.4777,405.8553,-271.4084,319.3452
27117.6471,-222.2917,458.8065,374.5396,395.1393,-245.1585,304.7251
27137.2549,-212.2806,459.1091,375.4156,401.8556,-286.3394,323.2038
27156.8627,-231.3556,458.8107,361.5438,396.1340,-270.3362,304.7393
27176.4706,-216.1883,459.1044,374.4246,398.8374,-267.2330,323.1845
27196.0784,-219.4540,458.8153,370.5740,401.1753,-260.3874,324.7888
27215.6863,-232.1907,459.1004,378.3896,409.8020,-281.2984,309.1704
27235.2941,-228.3051,458.8195,362.5350,390.1528,-260.4178,293.7915
27254.9020,-255.3281,458.0935,363.4122,410.8292,-279.3233,289.1239
27274.5098,-253.3703,458.8250,368.5924,398.1960,-260.4380,293.8010
27294.1176,-219.2466,470.1396,370.4578,409.7757,-258.2767,311.0787
27313.7255,-213.3763,465.8589,375.5329,412.1922,-256.3337,325.9117
27333.3333,-229.1873,467.1240,369.4641,393.7585,-267.1468,311.0646
27352.9412,-223.3151,466.8663,372.5618,411.2223,-255.2654,303.9554
27372.5490,-218.1740,468.1266,370.4523,409.7505,-260.2001,323.1094
27392.1569,-223.3112,466.8679,373.5571,410.1948,-262.4375,308.9183
27411.7647,-232.2297,467.1184,369.4567,409.7352,-261.2660,322.0196
27431.3725,-230.2175,466.8703,369.5956,407.2050,-261.3617,323.7971
27450.9804,-236.3383,467.1158,371.4352,406.7163,-253.2318,294.0133
27470.5882,-244.2659,466.8728,367.6185,406.2368,-249.4548,291.9278
27490.1961,-227.2660,467.1124,365.3733,406.7025,-265.1434,316.1878
27509.8039,-230.2178,466.8757,364.5383,408.2733,-252.4978,311.9595
27529.4118,-217.3261,467.1100,368.4531,395.7129,-259.0617,317.0453
27549.0196,-213.3564,466.8760,369.6100,405.2766,-253.3718,312.8266
27568.6275,-214.3012,467.1100,373.4020,415.6943,-248.2170,311.0085
27588.2353,-218.3295,466.8774,377.5453,405.2898,-250.3399,321.0126
27607.8431,-225.3240,467.1082,374.3871,407.7085,-261.2244,319.1904
27627.4510,-217.2469,466.8795,374.5795,408.3051,-260.5293,305.9373
27647.0588,-205.2222,467.1059,375.3704,412.6666,-291.1443,302.1783
27666.6667,-206.2255,466.8818,378.5521,410.2816,-286.3266,294.9534
27686.2745,-214.3001,467.1036,376.3507,408.6658,-309.1419,299.1647
27705.8824,-216.3881,466.8837,378.5631,415.3199,-301.5042,295.8081
27725.4902,-225.3146,467.1024,376.3406,409.6387,-270.1176,296.1565
27745.0980,-215.3114,466.8844,379.6743,419.3191,-274.3932,298.8180
27764.7059,-226.1728,467.1010,380.4058,407.6627,-276.2030,294.0095
27784.3137,-230.2315,466.8876,380.6754,412.3374,-272.4331,290.8375
27803.9216,-232.2177,467.0981,384.3591,408.6357,-287.0568,286.0496
27823.5294,-228.2937,466.8917,375.6213,409.3399,-278.4889,281.7813
27843.1373,-221.1845,467.0946,379.2804,410.6512,-288.1538,293.1701
27862.7451,-226.3587,466.8952,380.7009,407.3267,-259.3991,293.8275
27882.3529,-236.3061,467.0906,378.2762,414.6292,-250.2295,292.1078
27901.9608,-249.2775,466.8989,375.6490,391.3865,-234.4538,292.9477
27921.5686,-246.2365,467.0882,371.3246,406.5887,-251.1143,293.2007
27941.1765,-243.4540,466.9018,374.6717,415.3768,-242.2292,297.8847
27960.7843,-229.1496,467.0857,379.2364,416.6328,-245.2957,300.1124
27980.3922,-229.4215,466.9038,372.7077,412.3790,-238.3016,295.7065
28000.0000,-224.1598,467.0837,377.2381,415.5862,-225.1558,294.1084
28019.6078,-241.3261,466.9064,375.6973,413.3666,-262.3306,284.6973
28039.2157,-233.2240,467.0807,371.2747,413.6174,-242.3182,293.2740
28058.8235,-226.4293,467.9116,372.7378,427.4105,-243.2231,295.6523
28078.4314,-195.1670,469.0869,373.2422,427.5968,-267.2774,293.3065
28098.0392,-206.3434,466.9125,385.7507,429.3767,-285.2460,293.6862
28117.6471,-218.0606,475.1071,377.1876,427.5954,-295.2733,277.1831
28137.2549,-215.4400,469.9308,381.8036,428.3941,-286.0890,268.6688
28156.8627,-216.0989,474.0983,382.2362,435.5687,-283.3878,284.3215
28176.4706,-194.4909,476.9653,383.8048,424.4082,-281.0633,290.6024
28196.0784,-203.1122,463.0463,384.2000,437.5904,-301.4154,292.3235
28215.6863,-200.5604,463.9139,382.8311,439.3728,-295.1215,283.6794
28235.2941,-198.1239,469.0662,383.1886,429.6182,-292.5613,269.3105
28254.9020,-219.6027,473.9622,382.8501,427.4110,-287.0657,276.5346
28274.5098,-217.1187,465.0435,381.1873,436.6094,-284.5692,284.4294
28294.1176,-196.4951,477.9848,382.8722,431.3957,-297.0077,295.4484
28313.7255,-212.9944,480.9954,384.1389,427.5987,-267.4730,273.4865
28333.3333,-202.5693,477.9903,383.8828,435.3805,-288.0844,275.5912
28352.9412,-201.9543,468.0451,387.0930,440.6022,-277.4870,282.5706
28372.5490,-204.5323,467.9549,383.9019,424.3980,-299.9680,264.3493
28392.1569,-193.9293,470.0492,383.1093,445.6357,-291.6184,284.5587
28411.7647,-192.6661,469.9667,381.9406,448.3686,-268.9268,303.4991
28431.3725,-212.9335,470.0447,385.0685,445.6429,-241.5780,282.6638
28450.9804,-216.6828,469.9728,385.9277,442.3536,-283.8482,270.2829
28470.5882,-217.8836,470.0380,383.0622,441.6038,-267.6342,261.6046
28490.1961,-184.7138,469.9796,385.9489,444.3685,-262.7771,296.2999
28509.8039,-181.9805,467.0180,385.0262,444.6177,-254.6669,300.6367
28529.4118,-202.6761,466.9736,382.9963,442.3365,-251.8994,270.1880
28549.0196,-213.9457,467.0126,384.0124,444.6257,-289.8313,273.7633
28568.6275,-219.7727,466.9784,381.0358,443.3678,-274.8394,269.2751
28588.2353,-229.9163,470.0201,380.0245,439.6669,-282.7151,268.8633
28607.8431,-191.6938,472.0052,384.0331,449.3092,-266.7747,293.1331
28627.4510,-178.8895,470.0147,382.9757,443.6631,-250.8887,303.8022
28647.0588,-215.7077,470.0033,380.0904,448.3145,-291.6620,276.0634
28666.6667,-195.7324,470.0070,382.9528,437.6675,-278.9008,276.9327
28686.2745,-199.7287,470.0113,382.0958,447.3172,-300.7267,294.1044
28705.8824,-196.7915,469.9992,382.9317,444.6736,-249.8866,289.9082
28725.4902,-203.8487,470.0219,381.1272,449.2700,-262.5368,283.9367
28745.0980,-209.7466,469.9881,379.9338,444.6849,-277.0208,289.9548
28764.7059,-196.7366,470.0297,378.0660,448.2736,-237.5743,276.9894
28784.3137,-198.7057,469.9808,377.8175,444.6994,-298.0804,286.9938
28803.9216,-195.6691,470.0376,385.1380,450.2829,-266.5900,293.9550
28823.5294,-198.6877,469.9727,381.8717,449.7372,-274.0493,289.2026
28843.1373,-214.7008,469.0414,386.1503,448.2479,-305.5851,285.9364
28862.7451,-215.7567,470.9689,374.8000,445.7647,-258.0327,261.2493
28882.3529,-211.9045,470.0538,377.1427,444.2448,-273.4792,264.7770
28901.9608,-197.8076,465.9394,372.7953,453.7546,-298.1570,282.1886
28921.5686,-182.7289,469.0572,380.2510,443.2470,-263.4924,281.7481
28941.1765,-181.8026,468.9456,379.8224,444.7591,-300.1217,266.3034
28960.7843,-178.8513,472.0772,380.2719,447.2155,-305.5332,265.7611
28980.3922,-179.6380,469.9417,381.7832,444.7768,-302.0953,263.3313
29000.0000,-194.8491,471.0809,376.2173,444.1921,-287.5129,255.5926
29019.6078,-181.7930,473.9510,378.6790,449.8221,-303.2053,273.2860
29039.2157,-191.8281,474.1022,380.3119,441.1707,-301.3694,273.6380
29058.8235,-188.7071,468.9212,381.7426,447.8162,-314.0559,286.4687
29078.4314,-188.8061,470.0926,383.3046,444.1569,-301.3590,258.5169
29098.0392,-179.6277,469.9181,380.7321,451.8222,-315.1441,275.5271
29117.6471,-184.9129,470.0982,374.2936,449.1065,-329.3318,273.5537
29137.2549,-192.8141,469.9138,381.7045,448.8368,-313.1939,259.4135
29156.8627,-184.9085,469.1006,382.3500,446.1412,-315.4524,262.5311
29176.4706,-172.7193,475.9307,381.6878,449.8957,-318.1811,271.5109
29196.0784,-177.7741,476.1401,382.3672,451.0895,-317.4081,283.3806
29215.6863,-196.7079,475.9226,379.6893,446.9121,-312.1093,269.6175
29235.2941,-211.9196,468.1121,379.2986,446.1002,-295.5117,257.4986
29254.9020,-206.6550,468.8858,369.6527,448.8969,-303.2165,266.6400
29274.5098,-188.7858,468.1186,373.3680,449.0263,-319.3667,285.4613
29294.1176,-188.7256,468.8806,384.6136,447.9355,-290.1945,283.6865
29313.7255,-197.8539,468.1232,383.4064,448.0224,-319.3841,265.4008
29333.3333,-213.8066,470.8838,379.6435,446.9754,-339.1758,249.6908
29352.9412,-199.7911,470.1379,369.4337,453.0277,-351.4839,266.2317
29372.5490,-203.8755,469.8753,386.5683,443.0102,-305.1196,255.7509
29392.1569,-182.7067,470.1411,375.3921,450.0009,-313.5604,263.1869
29411.7647,-196.7521,469.8719,382.5918,444.0143,-326.9982,261.8098
29431.3725,-208.8460,470.1447,379.3687,447.9576,-336.5584,253.2557
29450.9804,-223.7822,469.8666,377.5156,448.0214,-326.9772,228.6666
29470.5882,-212.7249,470.1504,380.4803,449.9590,-308.6105,239.2329
29490.1961,-197.8660,469.8596,381.5789,449.0257,-282.9495,264.6554
29509.8039,-205.7899,470.1558,375.4253,449.9376,-291.5005,249.1186
29529.4118,-215.8212,471.8634,370.5565,444.0764,-300.0533,262.7393
29549.0196,-223.7069,455.0948,378.4066,448.8756,-327.5110,239.1946
29568.6275,-230.7618,465.8342,365.4827,447.1015,-306.0932,234.7567
29588.2353,-209.6373,467.1516,361.4518,448.8570,-286.5717,260.2823
29607.8431,-198.7997,468.8440,383.5399,445.0992,-288.9341,257.8157
29627.4510,-196.6378,469.1613,380.5080,455.8858,-291.5911,288.2697
29647.0588,-205.9529,468.8436,376.4886,447.1418,-286.9481,253.7373
29666.6667,-224.7103,469.1646,380.5090,446.8523,-298.5681,254.2312
29686.2745,-232.9984,468.8385,371.5309,453.1703,-299.9202,248.7913
29705.8824,-196.5869,469.1678,373.4642,441.8049,-282.7729,259.1720
29725.4902,-214.8698,468.8352,380.5605,449.1476,-309.8601,255.9083
29745.0980,-226.6003,469.1711,368.5085,443.8071,-307.7422,256.1523
29764.7059,-236.0787,468.8336,371.5318,446.2214,-318.7058,230.9310
29784.3137,-230.4610,469.1721,369.4966,450.7795,-339.8696,245.1664
29803.9216,-209.0952,468.8328,374.5073,445.1997,-284.8530,247.9442
29823.5294,-226.5403,470.1782,371.4780,448.7368,-300.8910,239.1308
29843.1373,-232.0345,467.8268,371.5360,448.2243,-317.7630,241.9140
29862.7451,-230.3970,468.1690,376.4303,448.7159,-292.9088,244.0893
29882.3529,-214.1254,455.7769,381.5615,447.2637,-293.6554,262.8062
29901.9608,-200.5414,459.1297,374.4434,449.7360,-285.8017,261.1033
29921.5686,-217.1891,457.7861,373.5285,458.2598,-291.6555,263.8752
29941.1765,-233.3590,459.1284,374.4356,447.6964,-293.0031,245.1711
29960.7843,-217.2203,454.7752,367.5882,448.2824,-299.6285,255.9005
29980.3922,-210.4125,456.1136,376.4104,445.7110,-288.9275,262.1982
30000.0000,-209.2570,464.8192,369.5790,452.2891,-282.4551,262.7845
30019.6078,-222.2652,469.1689,378.3840,447.6585,-279.0052,268.2351
30039.2157,-226.1581,470.8465,375.5364,455.3100,-271.5698,258.8929
30058.8235,-225.2553,470.1713,373.4153,449.6642,-298.1252,243.2669
30078.4314,-235.2657,465.8270,370.5936,444.3492,-294.5049,224.8559
30098.0392,-215.2774,466.1515,375.3844,447.6262,-286.0283,258.1425
30117.6471,-218.2281,467.8379,375.5636,452.3378,-269.3123,261.8834
30137.2549,-238.1556,456.1056,362.3746,448.5915,-239.2496,260.3046
30156.8627,-241.3875,458.8018,367.6495,452.3541,-244.3265,256.7010
30176.4706,-231.2035,456.1050,368.4174,455.6240,-249.2767,255.1564
30196.0784,-234.2888,456.7940,372.6202,445.3781,-233.2169,255.8205
30215.6863,-235.2757,457.1065,370.3831,450.5833,-249.3267,258.1883
30235.2941,-246.4309,456.7970,374.6184,453.4244,-245.3117,237.7082
30254.9020,-255.1264,457.1049,375.3212,442.5958,-266.2788,238.1791
30274.5098,-250.3504,456.7995,374.6369,448.4111,-285.1628,240.7077
30294.1176,-240.1796,457.1009,382.3510,447.5515,-268.2677,258.2315
30313.7255,-249.5174,456.8031,380.7143,446.4588,-258.2386,251.6645
30333.3333,-248.1473,457.0938,383.3211,447.5377,-260.5052,246.4087
30352.9412,-256.4655,456.8078,380.7344,442.4289,-248.2253,253.5777
30372.5490,-243.1452,457.0892,386.2730,451.5121,-255.3464,265.3880
30392.1569,-229.4814,455.8090,376.6823,454.4586,-255.1151,259.5831
30411.7647,-231.0123,467.1283,384.2676,447.5121,-287.4775,227.2914
30431.3725,-234.4844,469.8741,380.7795,449.4420,-286.0822,237.5906
30450.9804,-227.9548,468.1277,382.2632,450.5097,-273.4272,227.3180
30470.5882,-231.4889,468.8744,383.7742,450.4895,-287.9873,231.5324
30490.1961,-216.0364,469.1273,380.2598,449.5191,-284.5207,232.5150
30509.8039,-222.6557,468.8791,381.8145,448.4761,-297.0600,236.4560
30529.4118,-232.8681,469.1226,377.1520,446.5056,-296.6980,229.5276
30549.0196,-226.5707,469.8882,384.8112,449.4650,-273.8242,229.5392
30568.6275,-222.9022,459.0745,383.1866,445.5186,-269.6343,238.3864
30588.2353,-198.7106,457.8418,385.8269,448.4869,-288.9664,264.4022
30607.8431,-190.8894,456.0564,389.1074,457.4739,-252.7581,261.4579
30627.4510,-195.7131,456.8422,382.8785,446.5271,-288.9309,228.4048
30647.0588,-256.7889,457.0561,383.1342,445.5070,-290.7357,226.5941
30666.6667,-232.6891,456.8471,382.9062,445.4956,-311.8774,231.3946
30686.2745,-223.9207,456.0467,384.0975,444.4592,-245.6730,231.5763
30705.8824,-201.8012,457.8564,385.9068,453.5320,-257.8591,268.4055
30725.4902,-203.7988,462.0676,384.0710,461.4993,-265.8727,260.6857
30745.0980,-230.7791,463.8875,389.8986,448.5097,-304.8747,231.3289
30764.7059,-256.7363,465.0756,382.0610,455.4862,-303.8411,215.7016
30784.3137,-222.7981,464.8948,382.9878,446.5488,-264.7395,232.3813
30803.9216,-216.7361,472.1000,383.0263,451.4391,-272.8612,242.6519
30823.5294,-184.7739,467.9152,396.0096,450.5374,-286.6114,264.2254
30843.1373,-193.8125,469.0820,385.9735,445.4866,-299.7715,246.7736
30862.7451,-202.7292,467.9203,389.9782,463.5399,-302.6305,241.3634
30882.3529,-202.8818,469.0770,384.9555,453.4583,-307.8164,255.6316
30901.9608,-196.6843,468.9295,390.0047,447.5334,-306.7299,265.2414
30921.5686,-197.6852,469.0721,381.9562,449.4734,-287.8938,262.7674
30941.1765,-200.7955,468.9345,388.0470,452.5021,-299.5487,259.1826
30960.7843,-206.7568,469.0674,384.9046,453.4606,-292.0352,257.8436
30980.3922,-216.8016,468.9393,384.1069,450.5356,-304.7283,251.1826
31000.0000,-194.6488,469.0606,391.9272,459.4725,-287.9413,260.8871
31019.6078,-185.8954,471.9575,388.0980,469.5434,-254.6191,278.0757
31039.2157,-209.7740,468.0514,383.8633,453.4646,-299.0181,267.8087
31058.8235,-233.8749,470.9580,386.1400,449.4924,-297.5299,257.1586
31078.4314,-232.6855,466.0380,382.8478,450.4614,-291.0178,253.8363
31098.0392,-234.7414,466.9447,387.1530,449.4897,-322.6559,259.0676
31117.6471,-231.8211,467.0373,385.7984,449.4839,-284.9694,261.8342
31137.2549,-226.7429,466.9501,383.2107,459.5390,-283.6034,262.0568
31156.8627,-228.7952,467.0325,392.8256,449.4883,-317.0819,257.9878
31176.4706,-230.8466,466.9550,386.2062,451.5019,-282.4939,258.1534
31196.0784,-228.7991,467.0279,385.7565,451.4590,-285.0262,259.9477
31215.6863,-229.7629,466.9596,383.2528,450.5123,-257.5407,272.9852
31235.2941,-217.7793,467.0234,382.7635,469.4956,-265.1080,292.9250
31254.9020,-222.8379,467.9684,386.2472,448.4815,-295.4507,286.9600
31274.5098,-216.7048,464.0060,397.7210,461.5286,-239.1177,294.8883
31294.1176,-212.8901,469.9815,383.2906,450.4957,-257.4866,294.0444
31313.7255,-227.7382,467.0143,388.6748,466.5057,-257.1360,292.1089
31333.3333,-228.8783,455.9245,383.3062,447.4826,-295.4031,292.9445
31352.9412,-208.7206,457.9731,393.7256,460.5053,-277.1017,291.0604
31372.5490,-218.7108,470.9922,397.3086,459.4923,-258.3046,294.8598
31392.1569,-228.8310,469.0171,387.6533,450.5163,-262.1706,275.1456
31411.7647,-252.8547,453.9228,385.3197,458.4433,-283.4190,261.8860
31431.3725,-244.8362,468.0086,395.6755,461.5605,-304.2632,282.0586
31450.9804,-233.8201,455.9340,396.3466,466.4665,-236.3378,287.9264
31470.5882,-223.8822,456.9586,391.6979,464.5163,-234.2682,307.0645
31490.1961,-246.7750,458.9504,389.3125,459.4647,-265.3617,286.8270
31509.8039,-242.9192,457.9582,386.6201,460.5398,-274.1920,292.2222
31529.4118,-247.6276,458.9567,393.3961,460.4359,-259.2566,281.8542
31549.0196,-242.9319,465.9883,393.6581,456.5631,-267.2892,296.1145
31568.6275,-222.7594,465.9899,399.3528,459.4440,-262.2527,305.9631
31588.2353,-245.7500,466.9883,399.5960,468.5922,-298.3344,297.2091
31607.8431,-246.7374,466.9995,387.3570,469.4276,-238.1457,287.8544
31627.4510,-240.7948,466.9820,393.6430,466.5816,-271.4886,293.1304
31647.0588,-225.7599,468.0074,396.3919,460.4035,-253.0709,301.8379
31666.6667,-219.8448,467.9821,398.5934,462.6050,-264.3723,302.1906
31686.2745,-233.7417,455.9621,396.3963,466.4008,-260.1837,312.8061
31705.8824,-256.8163,456.9304,394.6253,450.6007,-253.5731,289.2874
31725.4902,-264.6344,460.9877,395.4087,468.3506,-257.9750,290.8230
31745.0980,-246.8901,454.9167,398.5899,457.6029,-266.6278,293.1742
31764.7059,-236.7368,459.9890,396.3994,452.3351,-257.0668,300.7199
31784.3137,-231.9927,458.9291,407.6183,463.6235,-273.6094,310.1985
31803.9216,-232.6143,458.9892,409.3949,465.3244,-252.0323,294.6831
31823.5294,-260.9716,458.9235,394.6241,456.6434,-250.6788,290.1751
31843.1373,-248.5950,458.9943,395.4081,466.3530,-243.9602,302.8559
31862.7451,-259.0367,458.9197,403.6552,465.6683,-236.6402,290.1869
31882.3529,-249.6647,458.9988,407.4105,465.3014,-271.8677,304.7839
31901.9608,-256.0186,458.9158,412.5785,459.6709,-238.6456,286.3223
31921.5686,-255.7033,459.0022,403.3325,463.3260,-268.7703,287.7646
31941.1765,-275.0530,450.9875,403.6631,466.6723,-246.7308,288.2687
31960.7843,-263.6928,461.0157,405.4196,471.2890,-257.6586,292.7064
31980.3922,-264.0356,456.8972,406.6413,461.7135,-259.7881,293.2307
32000.0000,-266.4977,455.9989,401.3409,472.3198,-261.7228,288.8251
32019.6078,-275.0667,456.8925,397.6149,466.6916,-251.8181,291.2932
32039.2157,-275.5645,457.0081,395.3878,462.3142,-242.5945,268.7975
32058.8235,-277.0171,456.8872,407.6445,464.6788,-221.9606,285.2667
32078.4314,-265.6168,457.0142,405.4000,470.2781,-246.6490,294.6383
32098.0392,-278.9707,456.8813,409.6359,470.6974,-267.9926,283.3294
32117.6471,-274.4724,457.0197,406.3820,461.2555,-257.4118,282.7903
32137.2549,-286.9713,456.8754,399.6230,472.7279,-246.1704,266.3192
32156.8627,-295.6475,457.0257,405.3832,469.2777,-266.4502,268.7914
32176.4706,-262.1195,456.8702,405.6888,470.7149,-264.2253,288.2858
32196.0784,-266.4686,457.0294,403.2829,473.2564,-232.3536,290.7619
32215.6863,-261.0407,456.8657,409.6619,471.7636,-258.2147,296.2523
32235.2941,-296.5125,457.0364,396.3343,470.2433,-226.2193,279.7769
32254.9020,-296.9172,456.8600,397.6700,468.7673,-266.3049,267.1783
32274.5098,-291.5436,457.0406,394.3389,467.2314,-251.2953,268.7988
32294.1176,-272.0617,456.8544,395.7015,467.7346,-249.4605,291.2969
32313.7255,-297.5962,457.0457,397.2988,473.2335,-275.0780,267.7251
32333.3333,-293.0245,456.8492,396.7068,468.7810,-243.4583,260.2805
32352.9412,-301.4888,457.0504,396.2925,465.1955,-253.1147,263.6362
32372.5490,-275.9474,456.8437,400.6871,479.7657,-268.4561,284.1800
32392.1569,-273.6127,457.0569,409.2708,476.2249,-248.0590,290.7739
32411.7647,-259.9530,456.8379,403.7850,470.7578,-276.5480,293.2202
32431.3725,-285.5074,457.0623,404.3003,474.1966,-243.0011,276.7780
32450.9804,-267.9423,456.8327,401.7095,473.7670,-272.7143,275.3399
32470.5882,-277.5166,457.0675,408.2482,470.2060,-253.7755,273.7723
32490.1961,-257.9940,456.8277,404.8087,469.7846,-248.7182,281.1455
32509.8039,-263.6939,457.0715,413.1866,475.2276,-238.7443,288.8568
32529.4118,-288.8915,454.8142,404.8268,472.7934,-244.6699,261.3202
32549.0196,-277.5327,458.0808,411.1867,469.2159,-259.7068,260.8718
32568.6275,-278.9362,458.8285,405.8358,473.7785,-245.8193,263.2507
32588.2353,-287.7027,459.0892,402.1400,471.1782,-239.6987,263.6809
32607.8431,-276.9834,458.8234,413.7816,470.7755,-270.8069,274.2184
32627.4510,-277.5547,459.0941,401.1310,475.2215,-225.5558,272.7406
32647.0588,-286.0475,458.8188,397.8300,469.7949,-256.9843,258.2700
32666.6667,-276.6971,459.0985,399.1323,471.1753,-267.5541,259.8346
32686.2745,-275.0179,458.8141,402.8033,469.7946,-276.9857,253.0811
32705.8824,-257.6883,459.1034,406.1614,476.2039,-297.4206,262.8688
32725.4902,-271.9812,458.8094,406.8966,473.7803,-283.1121,245.0960
32745.0980,-267.6422,459.1079,404.1627,469.2132,-292.3788,246.9487
32764.7059,-288.8256,459.8094,396.8915,469.7935,-277.0913,236.0326
32784.3137,-271.7592,458.1079,399.0802,474.1826,-294.4943,256.8781
32803.9216,-264.8266,469.8484,404.9463,468.8095,-232.2645,258.1964
32823.5294,-264.6400,465.1420,397.0811,471.1796,-253.2624,262.9235
32843.1373,-275.8343,467.8359,402.8718,471.8124,-266.1270,248.0579
32862.7451,-292.7461,466.1497,408.0793,476.2095,-304.3853,229.9903
32882.3529,-278.8458,453.7745,406.9610,476.7782,-290.2310,233.1810
32901.9608,-247.5849,458.1171,415.0035,476.2121,-256.2162,261.8849
32921.5686,-226.9676,456.7834,410.9408,475.7939,-260.3519,266.1077
32941.1765,-263.8089,471.1762,410.0285,475.2324,-270.2734,247.0446
32960.7843,-297.8470,453.7668,399.9443,478.7939,-241.3010,233.1316
32980.3922,-290.6176,449.1973,412.9886,473.2148,-262.2287,225.9679
33000.0000,-277.9525,456.7769,412.9515,476.7675,-231.3500,244.0911
33019.6078,-259.7207,459.1312,410.0020,477.2052,-254.1831,274.0189
33039.2157,-256.7659,458.7827,404.0462,472.7789,-250.4518,261.9397
33058.8235,-272.6950,449.2016,408.9955,470.2160,-257.1987,251.0010
33078.4314,-293.9273,447.8452,399.9871,468.7887,-281.4679,236.9290
33098.0392,-289.7762,448.1996,406.0079,459.2418,-282.1176,229.0622
33117.6471,-265.8256,448.8474,406.0579,464.7402,-219.4747,247.0240
33137.2549,-256.7183,447.1971,408.9681,473.2283,-243.0895,263.9745
33156.8627,-252.8479,471.8334,407.0616,472.7676,-254.3822,269.8302
33176.4706,-266.6658,455.1208,405.9824,473.2326,-289.2625,250.0004
33196.0784,-284.8282,456.7682,404.1003,466.7540,-268.4730,219.8414
33215.6863,-265.8107,455.1230,401.8935,470.2318,-262.1709,248.0840
33235.2941,-228.8471,454.7593,409.0688,473.7411,-258.2773,268.9219
33254.9020,-237.7146,461.1485,409.9219,466.2479,-244.1824,264.0435
33274.5098,-253.9130,450.8539,415.0264,469.7522,-271.2766,259.8555
33294.1176,-279.8650,461.1485,408.9209,470.2378,-264.1395,217.1176
33313.7255,-272.7174,453.7557,410.0800,475.7581,-285.3532,227.7377
33333.3333,-261.7118,453.2235,404.9466,468.2182,-255.2721,250.0943
33352.9412,-214.7910,456.7693,412.0708,469.7466,-243.2747,275.7369
33372.5490,-211.7832,454.1146,417.9322,471.2250,-290.2016,259.1699
33392.1569,-255.8566,454.7624,412.0807,464.7176,-261.2322,229.8391
33411.7647,-258.6780,457.1262,411.8666,465.2198,-300.2131,218.2795
33431.3725,-246.7900,457.7774,406.1427,467.7184,-283.3097,224.6355
33450.9804,-232.7343,459.1322,415.9319,479.2622,-278.3601,260.3027
33470.5882,-229.7162,459.7913,411.1093,473.7247,-284.1373,262.7319
33490.1961,-230.7810,443.1711,408.8744,469.2692,-275.3652,239.2252
33509.8039,-250.9071,458.7898,408.1440,469.7349,-298.1851,231.6928
33529.4118,-238.7694,456.1129,406.8835,465.2283,-287.3400,246.3598
33549.0196,-227.7932,458.7930,417.1825,465.7454,-291.1931,243.7249
33568.6275,-210.6586,446.1778,415.9052,472.2787,-270.4857,260.3897
33588.2353,-227.8046,452.8828,415.0981,469.7322,-265.9845,248.6512
33607.8431,-236.7961,455.1007,408.8492,470.2571,-296.5571,226.3886
33627.4510,-258.9427,456.7928,406.1845,469.7301,-298.0129,231.6076
33647.0588,-230.7291,468.1520,412.8063,473.2629,-289.6857,232.4464
33666.6667,-226.9728,463.8280,414.1197,467.7070,-296.8583,263.4583
33686.2745,-225.7368,468.1474,410.8183,473.2640,-253.5521,248.4101
33705.8824,-223.9703,466.8459,413.1342,469.7288,-289.8410,252.4456
33725.4902,-226.5816,467.1372,401.7822,472.2808,-281.8231,251.4546
33745.0980,-222.9101,466.8499,412.1487,478.7455,-252.6785,245.5321
33764.7059,-215.5330,467.1308,401.7766,467.2511,-262.8274,253.4172
33784.3137,-216.0190,466.8565,413.1458,476.7246,-273.6262,248.5253
33803.9216,-217.6684,467.1242,410.8007,475.2805,-297.8141,253.4441
33823.5294,-229.0159,466.8631,407.2059,472.7403,-272.6724,257.5424
33843.1373,-222.6110,467.1177,411.7851,473.2556,-277.0865,250.4554
33862.7451,-219.9652,466.8701,412.1682,475.7482,-275.4024,250.4127
33882.3529,-214.5840,468.1153,409.7960,474.2339,-284.1169,257.5884
33901.9608,-216.1054,465.8748,413.1659,476.7353,-265.3362,251.4650
33921.5686,-230.5497,467.1034,412.7622,474.2287,-275.1034,251.5801
33941.1765,-228.0272,457.8477,414.1632,476.7385,-300.3660,255.3196
33960.7843,-217.5486,459.0611,414.7388,477.2302,-261.3203,261.7260
33980.3922,-225.0256,458.8602,408.2229,476.7440,-273.1676,253.3610
34000.0000,-204.5502,459.0527,417.8154,476.2419,-275.2897,260.6717
34019.6078,-216.1998,458.8689,411.2036,475.7680,-306.2469,263.2482
34039.2157,-234.3435,459.0436,410.7585,477.2161,-248.5055,235.7041
34058.8235,-232.2333,457.8724,407.2462,473.7519,-259.0974,254.3945
34078.4314,-216.3639,457.0256,417.7990,480.2146,-259.6570,264.5875
34098.0392,-210.2200,470.9380,410.2280,477.7461,-262.0320,260.4111
34117.6471,-213.3037,476.0973,410.7437,477.2031,-298.5713,260.7272
34137.2549,-225.1752,458.8955,407.2617,479.7755,-270.8164,242.3001
34156.8627,-230.3445,459.0145,407.7608,474.1894,-277.8647,242.6485
34176.4706,-209.2197,458.9055,408.2610,480.7678,-260.7359,266.1911
34196.0784,-194.2062,459.0053,413.6996,477.1830,-279.9218,277.7708
34215.6863,-215.3128,458.9147,405.2966,481.8185,-249.5722,270.2637
34235.2941,-216.2111,458.9955,402.6790,479.1960,-257.0479,261.8466
34254.9020,-230.2666,458.9250,413.2343,476.8027,-264.4273,262.2806
34274.5098,-231.0833,457.9810,410.7088,478.1426,-277.1005,268.7507
34294.1176,-196.3761,457.9314,414.2335,479.8193,-247.4150,293.2812
34313.7255,-194.0823,471.0261,415.7665,473.1632,-238.1759,299.7772
34333.3333,-212.4149,467.9849,403.2294,470.8139,-251.2162,292.1899
34352.9412,-216.0862,469.0066,404.7441,473.1516,-280.3408,281.6941
34372.5490,-229.5251,469.0001,404.3417,470.8286,-261.2986,273.2304
34392.1569,-219.0699,468.9958,406.7162,475.1609,-268.3054,278.6899
34411.7647,-196.4984,474.0335,415.2537,479.8552,-266.1837,298.2032
34431.3725,-195.0378,476.0149,414.6340,471.1038,-276.4236,284.7272
34450.9804,-195.4599,471.0313,412.2916,472.8773,-299.0407,283.1188
34470.5882,-215.9627,471.9880,412.6410,475.1335,-287.5798,261.9061
34490.1961,-220.5707,470.0369,405.3631,477.8615,-292.8685,255.1155
34509.8039,-215.9221,469.9689,403.7118,477.0844,-271.6400,283.8803
34529.4118,-194.6765,470.0462,410.3297,479.8975,-260.9005,306.1513
34549.0196,-199.8884,469.9595,409.6473,479.0915,-253.7450,297.8815
34568.6275,-221.7329,470.0554,404.3957,477.8867,-276.6308,291.2834
34588.2353,-229.8891,469.9496,403.6870,472.0894,-279.8504,282.8135
34607.8431,-231.7163,470.0663,411.3445,476.9169,-266.5766,270.1713
34627.4510,-213.8594,470.9425,403.6762,477.0423,-286.8710,297.8909
34647.0588,-193.7128,479.1155,411.3564,478.9519,-281.4484,298.1643
34666.6667,-230.6789,464.9092,400.5806,478.0147,-292.1579,269.8998
34686.2745,-234.8156,474.1033,402.3363,476.9427,-298.4920,265.2125
34705.8824,-242.7465,466.9060,400.5681,477.0178,-298.0954,260.8542
34725.4902,-228.7953,469.0907,401.3591,476.9594,-313.3724,271.2477
34745.0980,-216.7787,469.9126,407.6041,480.9885,-270.2016,270.7575
34764.7059,-227.9620,474.1193,409.4089,472.9851,-295.2960,274.2620
34784.3137,-242.6838,466.8918,406.6007,476.9871,-302.3776,260.8499
34803.9216,-242.9038,468.1039,394.4468,473.9839,-272.2421,263.0623
34823.5294,-231.6323,468.8911,396.5641,483.9608,-276.4252,267.7413
34843.1373,-214.8347,469.1166,409.4396,476.0244,-264.1528,269.0946
34862.7451,-221.6634,468.8820,409.5425,475.9714,-267.3875,296.8118
34882.3529,-222.8582,472.1368,405.4897,480.0252,-297.0459,271.2520
34901.9608,-238.5003,467.8690,406.5538,479.9454,-257.4704,260.8402
34921.5686,-230.8743,469.1333,409.4694,480.0352,-293.0819,260.2745
34941.1765,-238.4779,470.8733,400.4837,479.9329,-287.4526,270.7415
34960.7843,-215.9832,472.1534,412.4569,480.0509,-278.9320,288.2800
34980.3922,-220.5211,474.8836,408.5066,479.9169,-275.5836,290.7614
35000.0000,-230.0488,469.1484,410.4903,478.0442,-285.8198,288.2927
35019.6078,-228.4990,469.8564,408.4925,476.8990,-276.7148,274.8138
35039.2157,-240.0031,469.1555,410.5050,479.0992,-262.7953,269.1379
35058.8235,-226.5383,474.8704,390.4175,478.9063,-272.6374,270.7117
35078.4314,-232.0220,466.1502,405.5632,477.0905,-265.7890,272.1630
35098.0392,-211.6167,468.8374,407.4726,478.8947,-244.7080,296.7570
35117.6471,-230.9544,468.1642,409.5401,477.0988,-260.7649,271.3093
35137.2549,-230.4090,476.8658,403.4936,475.8789,-258.8359,272.8417
35156.8627,-236.1456,475.2003,405.5920,476.1293,-267.6707,274.3366
35176.4706,-228.4575,469.8299,411.4078,477.8317,-255.8282,289.8434
35196.0784,-211.0786,470.1842,403.5124,478.1038,-269.8143,295.2408
35215.6863,-231.4786,465.8075,404.4561,475.8578,-278.8316,274.7535
35235.2941,-235.0712,471.1942,404.6251,478.1125,-325.7290,258.2154
35254.9020,-241.4192,474.8404,396.4062,474.8682,-284.9197,228.6495
