t,AF3,F7,F3,F4,F8,AF7,
0.0000,6893.2954,6957.9834,6744.4844,1275.2369,6894.2515,6838.6860
19.6078,7086.4946,6988.2715,7049.2231,1346.8942,7049.2251,7061.3413
39.2157,6960.2549,7476.4756,6064.4292,1232.3226,7513.8364,7357.4434
58.8235,4248.3105,2772.1907,429.2416,745.7458,4570.3193,5387.2549
78.4314,-686.7061,-4710.5317,-2409.2163,197.2107,-3409.7366,347.4562
98.0392,-3380.3926,-6354.1665,-2930.9629,71.6069,-6827.4092,-3567.6296
117.6471,-1785.8573,-3900.9905,-1131.9510,264.2831,-5433.2388,-1030.4987
137.2549,378.9734,1466.2040,726.1187,637.6853,-978.2616,2224.9917
156.8627,2192.3545,4220.0122,1956.0914,913.3351,3658.2012,4662.6904
176.4706,1405.3984,2382.6238,1126.2477,804.5778,1744.5811,3423.5273
196.0784,219.1725,28.6672,170.4539,628.2928,-1776.0773,1690.4354
215.6863,-308.7943,-1283.8284,-557.0464,457.5207,-3266.3909,907.9494
235.2941,-1372.8370,-2866.3862,-1075.3549,386.3033,-4914.8862,-611.5557
254.9020,-1087.9337,-1896.2124,-624.0552,423.4626,-4117.9258,8.1352
274.5098,4542.4443,6640.8799,4487.9033,1169.3911,6735.8027,6582.1089
294.1176,6912.9463,7041.4219,6575.5513,1275.5424,7085.7124,7041.7466
313.7255,6989.8760,7171.2104,6486.3047,1282.3776,7145.3203,7042.2490
333.3333,7083.0269,6940.1851,6391.5684,1240.5721,6997.2163,7047.6167
352.9412,6704.6479,7173.3916,5425.0630,1210.3635,7026.7949,6990.3608
372.5490,5154.7559,6005.8945,4240.2236,1139.5125,6537.7344,6565.4824
392.1569,6881.7412,6952.4541,6767.3037,1312.4182,6924.2231,6879.3530
411.7647,7010.7222,6878.0381,7014.3604,1385.8286,6966.3774,6997.2813
431.3725,6985.0835,7080.4004,7011.4346,1395.4015,6967.5669,6934.6719
450.9804,7085.6626,6988.1401,7134.3926,1340.8137,7010.0220,7035.0566
470.5882,7086.8057,7354.2520,6724.9414,1232.3459,7245.9048,7060.6899
490.1961,6614.5107,5179.0171,3936.0901,1108.8214,6525.6982,6639.9082
509.8039,1548.5293,-354.6393,1245.3804,652.2207,-399.5872,3158.5642
529.4118,3024.1816,4124.1714,2851.3167,889.8368,4031.1016,5404.5405
549.0196,5897.8442,6537.5669,5465.6855,1193.2218,6475.3906,6638.9585
568.6275,7039.9644,7017.0859,6887.0161,1302.9883,7179.2603,7081.5093
588.2353,7069.9146,7175.1304,6998.2759,1398.2039,7084.6079,6982.3643
607.8431,7012.9092,6875.5835,6974.2476,1522.0165,6963.1685,7005.4487
627.4510,6935.8613,7069.1992,6938.2056,1619.0651,6964.8921,6923.7822
647.0588,6978.3379,6844.6064,6975.1670,1603.1091,6947.7725,6992.2554
666.6667,6935.2012,7071.4097,6936.3369,1560.9095,6964.0093,6927.4150
686.2745,6978.4424,6847.5244,6975.6875,1501.1351,6945.7290,6992.0986
705.8824,6989.1885,7434.4907,7071.8096,1427.7706,7104.0430,6965.7881
725.4902,7299.7051,7094.6348,7281.4268,1353.2202,7417.7744,7428.1240
745.0980,4294.6206,-4384.0337,-1111.7601,263.5505,-118.7775,4533.5000
764.7059,-5871.5234,-7351.9009,-6030.2896,-287.7560,-7055.6504,-7237.7969
784.3137,-7470.8584,-7058.7910,-7327.3916,-356.5691,-7422.6670,-7399.5200
803.9216,-7104.2715,-7063.4312,-7090.5190,-333.6686,-6952.4854,-7025.0034
823.5294,-6964.1758,-6824.2764,-6970.0840,-290.6779,-6933.8467,-6967.1699
843.1373,-6915.8696,-7070.7769,-6904.6943,-293.4848,-6953.2705,-6906.1646
862.7451,-6962.0034,-6824.2139,-6890.3979,-225.7579,-6934.7578,-6969.6299
882.3529,-6935.1865,-7092.1934,-7091.5684,-269.3207,-6950.8467,-6918.6841
901.9608,-7135.9458,-7030.8916,-7050.0894,-241.9066,-7014.7295,-7129.0313
921.5686,-6804.8276,-6780.0078,-5686.1802,-115.1169,-6804.2646,-6852.4419
941.1765,-2669.6877,-1914.2314,-637.3868,163.9649,-6928.1670,-3539.3794
960.7843,-135.5695,2644.7200,954.3239,488.0145,-4884.6909,543.8858
980.3922,-7013.0923,-7096.5122,-6687.3672,-258.2553,-6883.8271,-7282.0591
1000.0000,-6956.8643,-7213.4951,-7029.0381,-349.8015,-6931.2798,-7016.6401
1019.6078,-7080.0000,-6809.7837,-7004.3232,-367.3673,-6925.2378,-7025.6279
1039.2157,-6911.0654,-7061.7764,-6913.6299,-320.6351,-6936.6836,-6904.8418
1058.8235,-6960.4780,-6811.5747,-6962.6763,-250.5883,-6926.8638,-6971.4150
1078.4314,-6912.8169,-7063.1069,-6912.4736,-213.4001,-6938.0596,-6906.0425
1098.0392,-6968.1011,-6824.6362,-6824.1226,-192.7696,-6927.5552,-6969.5435
1117.6471,-6920.6934,-7059.6519,-6701.5059,-171.2891,-6937.7476,-6909.3882
1137.2549,-7013.8804,-6847.5503,-6261.7207,-166.0445,-6930.2378,-7002.9912
1156.8627,-6670.5840,-6358.6875,-4946.2300,-128.1070,-7012.6724,-6843.0405
1176.4706,-5537.6611,-4785.4761,-3946.0544,-59.1954,-7118.9849,-6198.9917
1196.0784,-3785.9922,-2442.6892,-2345.4648,151.0008,-6551.8340,-4484.8359
1215.6863,906.6848,5993.4287,1602.3663,852.6664,3961.4219,2612.2456
1235.2941,3985.5178,7035.0610,4261.6758,1171.3943,6827.6270,6295.2959
1254.9020,6594.9653,7283.9116,6397.5439,1314.5227,7417.9160,7198.7295
1274.5098,7163.2388,6859.5181,7003.2061,1359.5627,7024.3281,7143.0903
1294.1176,6978.3462,7082.0103,6958.0469,1355.2784,6956.9526,6925.9224
1313.7255,6990.8696,6834.5068,7001.8022,1346.7809,6956.2725,6988.9668
1333.3333,6933.6460,7081.3159,6921.1831,1470.2151,6958.3896,6928.9131
1352.9412,6988.8511,6835.1479,6996.8491,1534.1324,6957.8252,6984.4214
1372.5490,6933.4502,7081.2163,6918.6685,1557.0305,6957.5049,6929.3301
1392.1569,7011.3599,6957.3584,7086.2266,1523.2629,6959.7319,6994.3052
1411.7647,7033.0269,7235.9629,7154.4248,1317.8177,7118.5591,7027.5322
1431.3725,6970.8760,5386.4565,5844.5620,1167.4586,7367.6973,6938.0757
1450.9804,2764.3601,-1198.8745,2036.6951,820.4722,2464.7634,3985.8279
1470.5882,3726.7922,3022.5532,3445.7424,936.6020,4556.2534,5286.7192
1490.1961,5677.5649,6644.8184,5125.9414,1187.4094,6987.6670,6875.7705
1509.8039,5591.0825,5713.7988,4832.5879,1186.8140,6865.6260,6662.9629
1529.4118,2433.8171,217.9727,1716.1570,824.1638,1109.9916,3274.3406
1549.0196,-1737.7356,-7185.5640,-3137.2747,-22.1483,-7161.2256,-2987.7642
1568.6275,-2800.0632,-5434.5781,-1629.0430,65.7574,-7159.5000,-3968.3818
1588.2353,1082.8945,2561.7300,1941.0461,603.0504,-1533.1616,2169.9861
1607.8431,5040.7446,7005.7373,5177.5605,1149.8534,6580.9761,6525.5938
1627.4510,6620.3374,7261.0801,6119.9819,1296.3242,7336.1943,7279.6533
1647.0588,6385.7461,6951.6904,5720.2241,1242.7063,7065.1045,6884.8784
1666.6667,5515.2954,5900.5181,4388.7588,1114.4480,6222.7959,6377.0000
1686.2745,5488.5737,6116.0679,5761.4814,1212.3995,6089.4502,6361.9673
1705.8824,6741.7183,6790.9468,6625.2891,1285.5819,6960.7861,6934.7383
1725.4902,6999.8164,7123.6563,6915.7881,1320.3684,7009.2734,6967.0430
1745.0980,7012.3340,6883.8267,7045.4985,1345.7789,6983.4004,7004.6807
1764.7059,6934.3965,7060.5552,6922.4604,1337.2024,6947.7158,6933.1079
1784.3137,6990.8540,6859.5747,7018.1221,1333.8422,6969.4272,6983.8286
1803.9216,6923.2593,7057.2837,6905.5068,1344.0950,6944.9780,6927.3955
1823.5294,6989.9922,6858.3945,7011.2427,1429.9506,6968.4702,6982.4937
1843.1373,6924.6914,7055.9165,6903.0581,1528.1495,6943.5015,6928.7158
1862.7451,6988.6240,6861.2725,7012.7505,1679.1400,6968.6079,6982.5054
1882.3529,6925.0518,7053.6045,6902.4673,1728.0662,6942.9639,6929.4878
1901.9608,6990.4204,6863.5112,7013.1699,1751.1957,6969.0913,6981.7837
1921.5686,6923.8691,7049.2178,6900.6357,1683.8959,6940.7583,6928.6646
1941.1765,6989.6899,6848.9199,7025.4331,1269.1477,6969.1650,6980.4844
1960.7843,6923.1099,6848.7280,6883.3042,1227.8114,6996.2749,6929.5244
1980.3922,7146.9653,7225.7700,7159.2681,1273.1990,7461.9106,7147.2017
2000.0000,7150.0181,6332.0601,6880.5737,1254.8571,7062.7988,7296.2168
2019.6078,6525.8672,1595.9000,5513.4106,1096.2444,3688.6179,6403.6631
2039.2157,2235.5085,-6638.4248,1697.6304,406.7204,-6712.2749,1936.2550
2058.8235,-7250.0596,-7177.5474,-7042.9971,-321.9027,-7179.3452,-7129.6719
2078.4314,-7120.8813,-6907.9751,-7211.4590,-360.2811,-6990.5469,-7257.7637
2098.0392,-7047.4395,-7031.4204,-6946.0698,-311.9591,-6935.5405,-6938.8853
2117.6471,-7010.7007,-6877.7026,-7102.5288,-224.2297,-6962.0776,-6972.8506
2137.2549,-7138.2856,-7019.3335,-6000.2480,-123.9797,-6930.9614,-6953.4854
2156.8627,-5134.2578,-6674.2202,-3322.0496,-52.2020,-6963.2354,-6800.1606
2176.4706,-3526.6226,-5988.9312,-1902.1785,39.8836,-6933.1328,-5530.6606
2196.0784,-1838.5732,-4288.7314,-619.0273,158.8797,-6976.8555,-3640.2314
2215.6863,-1127.6581,-3970.1411,-12.7622,257.9029,-6764.0186,-2615.6768
2235.2941,-1298.3778,-5302.6938,-830.0984,182.0326,-6925.9971,-3635.2185
2254.9020,-4185.9780,-6788.5645,-3069.9094,-68.1553,-6922.4551,-6564.5962
2274.5098,-3831.0059,-6486.8521,-2575.6758,-19.0017,-6982.6108,-6017.8140
2294.1176,-1146.6621,-2954.9001,94.4213,263.6560,-6761.9531,-2552.7056
2313.7255,122.9178,-481.7203,1073.8582,440.1461,-5608.9009,-387.0420
2333.3333,1490.8433,4339.1089,3235.2388,785.6585,-14.4028,1620.8265
2352.9412,3805.0793,6670.4175,4848.6362,1080.5204,5139.4697,4771.7183
2372.5490,4636.2061,5760.3003,4444.5171,1089.5476,4443.3647,5406.6558
2392.1569,4570.6943,6180.0952,4476.1348,1065.5995,5079.2378,5653.5137
2411.7647,6406.5693,6307.5186,5905.7979,1241.2983,6361.6875,6560.3818
2431.3725,4618.6064,4801.0854,4103.5884,1062.7211,4361.1284,5375.1519
2450.9804,3781.9495,3864.2151,3721.3733,943.0746,2572.2813,4485.5840
2470.5882,5304.6255,6697.2676,6298.5171,1258.0304,6600.1792,6228.6860
2490.1961,7050.2764,7015.7109,7066.2593,1366.8915,7140.3120,7050.2056
2509.8039,7068.4980,7184.4731,7067.2310,1375.3062,7109.2104,7043.6270
2529.4118,6863.7090,6569.0762,6524.9907,1257.7494,6772.7920,6834.5596
2549.0196,6338.6719,5721.9517,5590.4653,1180.5470,6131.6494,6455.1714
2568.6275,5608.9370,4760.1655,5070.9473,1112.4698,5189.0669,5943.2437
2588.2353,5883.2773,5703.6606,5424.5859,1155.8351,5770.1094,6288.5620
2607.8431,6384.3550,5946.5635,5574.8062,1194.1783,6289.8384,6692.9292
2627.4510,4688.2251,3578.8777,4140.6865,1027.9978,3421.9255,5107.0190
2647.0588,2197.2688,-803.6461,2414.4307,659.7205,-3113.5063,2016.0149
2666.6667,2536.4192,1015.4367,2785.4875,699.2479,-1386.7002,2679.8215
2686.2745,3586.3301,3495.4954,3775.2329,868.4594,1163.9994,4169.7456
2705.8824,4131.1816,4299.1729,4037.3748,967.5850,2667.4143,4839.8662
2725.4902,2772.3020,-2773.9509,1422.6045,556.1163,-4534.3022,2659.1221
2745.0980,-773.5105,-7197.1274,-2696.9829,-1.1782,-7266.4858,-2890.5513
2764.7059,-7065.9839,-7036.0801,-6971.8442,-241.3057,-6983.8848,-7099.6025
2784.3137,-7054.0825,-6891.6523,-7036.8472,-220.7808,-6940.2456,-6953.2988
2803.9216,-6987.0894,-6989.2749,-6604.2080,-171.6247,-6939.1963,-6954.3989
2823.5294,-6991.2744,-6916.9761,-6132.4775,-143.3527,-6932.6147,-6944.9556
2843.1373,-6771.8975,-7134.6938,-5424.7661,-130.9084,-6943.1914,-7075.6631
2862.7451,-6015.1094,-6919.4873,-3536.5854,-62.0321,-7018.3145,-6922.6133
2882.3529,-2130.1074,-937.8572,492.3809,377.5915,-5866.1641,-2112.3752
2901.9608,956.7082,3008.4355,1894.7640,635.3489,-2222.0112,796.1169
2921.5686,1551.5709,3332.2727,2151.6094,742.2584,-1284.3634,1566.8046
2941.1765,846.6887,1363.8630,1369.2454,650.8000,-2513.6692,460.4580
2960.7843,1354.3662,2421.5513,2032.4595,677.8414,-775.5037,1321.0146
2980.3922,3424.1855,5724.5596,4439.3853,1091.3805,4137.6831,4330.1724
3000.0000,3423.9897,4500.3472,2018.1011,984.4514,3642.7102,3870.8835
3019.6078,-493.3581,-3926.8354,-41.5940,416.7245,-6132.1626,-1752.0240
3039.2157,-1833.1887,-5528.3442,-989.3084,208.9373,-6935.7446,-3671.0122
3058.8235,-1412.7384,-3501.9707,-426.9673,303.1241,-6303.7192,-2848.7068
3078.4314,932.7813,1560.9930,1866.7163,604.4519,-1111.7092,843.3061
3098.0392,3791.0005,6160.3130,4166.6777,1050.6526,5096.2246,4846.1880
3117.6471,5590.6821,6713.6709,5258.5410,1216.0646,6950.3887,6341.4795
3137.2549,4896.7891,6123.0112,3965.2085,1098.1249,6342.5469,5679.3833
3156.8627,3030.2512,3413.6741,2993.3276,922.5836,3219.9651,3477.0723
3176.4706,3062.1309,3937.0146,3158.4771,939.5751,3484.0022,3630.6758
3196.0784,3811.3740,4972.3423,3866.5640,1029.0791,4861.0376,4761.4507
3215.6863,3756.1702,4750.8389,3666.1877,1030.0610,4679.1416,4616.6138
3235.2941,1328.0471,-685.8535,1519.6317,726.5469,-2306.6357,803.0289
3254.9020,-400.2329,-4661.2266,-870.1711,270.4585,-5773.7349,-1654.9916
3274.5098,-2820.1431,-6945.8799,-3621.7463,-96.9964,-7086.6372,-5561.2397
3294.1176,-6952.1333,-6915.4253,-6418.2222,-186.0258,-6886.3628,-6913.8442
3313.7255,-7047.6763,-7041.2212,-6980.9448,-243.5290,-7020.1484,-7092.6011
3333.3333,-6983.7939,-6878.6812,-7024.0166,-238.5229,-6890.7207,-6911.5825
3352.9412,-6973.3335,-7004.9033,-6921.4443,-198.9407,-6991.0967,-7008.0981
3372.5490,-6904.3896,-6871.8301,-6336.7939,-121.9283,-6884.4233,-6886.2500
3392.1569,-6953.1265,-7003.9165,-6471.7949,-155.3953,-6996.3594,-7013.3481
3411.7647,-6917.9004,-6868.0112,-6841.6299,-194.3701,-6878.6426,-6880.6997
3431.3725,-6986.7734,-7014.2261,-7003.5015,-274.9209,-7000.3159,-7018.4556
3450.9804,-7067.3267,-7163.1167,-7117.4204,-284.7562,-6922.5942,-6985.7705
3470.5882,-6716.7178,-6087.1631,-4702.3589,-87.4988,-7374.1240,-7083.0469
3490.1961,-1526.1608,3374.8018,616.8696,478.7240,-2467.4946,-1962.5929
3509.8039,3073.0249,7249.8154,4151.7388,1126.0322,7182.2368,4602.6113
3529.4118,5860.0693,7435.7065,6087.8271,1332.3978,7322.3369,7283.1235
3549.0196,6416.2935,6905.1660,5990.9595,1289.6133,7057.0483,6906.9077
3568.6275,6180.8232,6771.9600,5662.2979,1240.8917,7029.3828,6562.0747
3588.2353,6876.0010,6882.5747,6552.0137,1280.9670,6871.7661,6878.9810
3607.8431,7018.1636,7054.0151,6886.6299,1325.3252,7046.4014,7038.4512
3627.4510,6885.6382,6883.8408,6709.5967,1300.4459,6869.5820,6874.2314
3647.0588,6967.3682,7101.8589,6716.8340,1299.8287,7060.5420,7082.2056
3666.6667,6855.7603,6916.8345,6618.9844,1279.8868,6873.4375,6894.2915
3686.2745,6970.9888,7107.4497,6720.3975,1300.4636,7067.2734,7087.4414
3705.8824,6803.9219,6945.9937,6378.0425,1277.3523,7004.4668,6908.9844
3725.4902,-3819.2378,-7169.4331,-5212.5825,-162.1138,-7088.2148,-6268.5132
3745.0980,-7141.6567,-7094.2749,-6557.4800,-208.3128,-7100.3960,-7196.6318
3764.7059,-6852.9731,-6882.7773,-5709.0571,-139.5581,-6828.6118,-6898.5806
3784.3137,-5702.0278,-6729.2607,-4167.3906,-85.8574,-7049.6270,-6735.7520
3803.9216,-4633.9932,-6273.1196,-3091.8623,-25.0358,-6817.4365,-6260.9478
3823.5294,-6940.9102,-7062.4409,-6784.0093,-216.4103,-7055.5610,-7057.9634
3843.1373,-6989.4180,-6872.1563,-7025.8833,-216.4465,-6810.5933,-6861.7578
3862.7451,-7058.9873,-7085.1172,-7059.0942,-202.0143,-7062.5986,-7061.9219
3882.3529,-6982.9585,-6928.0811,-6100.6035,-127.9113,-6808.2266,-6863.7144
3901.9608,-6615.7227,-7021.5757,-5050.0576,-139.5799,-7204.3877,-7201.0137
3921.5686,-5802.3164,-6306.9673,-4125.2314,-81.3696,-7376.0889,-6784.4580
3941.1765,-964.5359,2136.8318,447.9847,568.9106,-1909.3107,-1330.1129
3960.7843,3149.8997,7502.7310,3926.6135,1115.3275,7577.6357,4806.9033
3980.3922,6501.3086,6979.7993,6847.0649,1370.4918,6928.7500,7212.2124
4000.0000,7164.1533,7179.2197,7235.7739,1435.8879,7278.2002,7214.3813
4019.6078,6902.4751,6811.0396,6900.4287,1416.9363,6807.0977,6817.4917
4039.2157,7040.4458,7110.4253,7054.6934,1430.4877,7115.0396,7099.4790
4058.8235,6865.7100,6802.9180,6747.9033,1258.3944,6799.2505,6817.8818
4078.4314,7039.5151,7118.1655,6708.1772,1287.1323,7124.9331,7104.2842
4098.0392,6872.1274,6796.6265,6826.6914,1289.9501,6793.2588,6814.6675
4117.6471,7053.1973,7135.8027,7044.5791,1347.6154,7133.1880,7115.5156
4137.2549,6939.2280,6832.0967,6703.3140,1281.4366,6801.0938,6824.0649
4156.8627,6970.3384,6871.4429,6422.4282,1282.2046,7253.0581,7067.5952
4176.4706,3191.7351,1185.2236,2642.1946,951.7984,4455.7407,3557.8577
4196.0784,685.0140,-4018.7698,625.7079,715.6201,-3043.8740,93.9577
4215.6863,-1773.5187,-6145.8003,-1311.8033,224.1969,-6053.0728,-3442.5464
4235.2941,-3245.7192,-6784.4204,-2480.2573,45.9972,-7072.6675,-5567.5068
4254.9020,-4029.5037,-6768.9399,-2641.5508,-18.3454,-7270.9805,-6118.4541
4274.5098,-2841.9353,-3252.4937,-547.6710,293.4568,-5540.8228,-4571.6348
4294.1176,70.7863,-2379.0891,121.1289,537.1619,-4662.7246,-1414.5852
4313.7255,-1954.2810,-5163.2285,-1216.4136,270.0729,-5777.8218,-3643.3220
4333.3333,-4591.0762,-6783.8916,-3748.0469,-78.2948,-7181.7310,-6672.3794
4352.9412,-6105.0552,-7114.9951,-4921.3960,-134.4555,-6868.9790,-6845.4087
4372.5490,-5793.4507,-6828.9917,-3375.9470,-81.7500,-7209.1265,-6817.2075
4392.1569,-3870.2766,-5566.2256,-2430.9380,23.0232,-6637.1274,-5600.0723
4411.7647,-3428.3770,-4797.7671,-1972.9304,120.7144,-6955.1357,-4863.7554
4431.3725,-1195.8749,-653.1282,10.3616,453.4690,-3798.3057,-1938.7823
4450.9804,1509.9678,4693.0400,2382.6833,826.4270,2409.5149,2221.2898
4470.5882,4791.2261,7478.3770,5096.7285,1225.0197,7674.4897,6539.1763
4490.1961,6395.6699,6825.2490,6181.4697,1290.0979,6923.1289,6874.5928
4509.8039,7078.7842,7254.5884,6690.9521,1313.4636,7274.6948,7226.9048
4529.4118,5090.0913,5592.3564,4579.0654,1154.6112,6189.9556,5801.6348
4549.0196,3802.4250,4716.1206,3528.4573,1082.7173,5753.1265,4881.8096
4568.6275,3552.5081,4696.6079,3520.6775,1033.1127,5322.5317,4597.4697
4588.2353,5163.9883,6998.6074,5065.8232,1211.1021,7176.8613,6462.0088
4607.8431,5697.3657,6778.9092,5357.1504,1230.7439,6976.2373,6579.0942
4627.4510,5316.6172,6757.4170,4884.1362,1219.4104,7296.8213,6545.8599
4647.0588,199.3042,-2831.5083,231.2326,604.3689,-2718.3179,-553.2449
4666.6667,-2415.1914,-6362.8691,-2691.1770,23.6549,-6626.0293,-4355.3750
4686.2745,-4787.9517,-7241.0601,-3740.5613,-98.0089,-7517.2139,-6709.1880
4705.8824,-4965.6826,-6454.3828,-3739.4055,-77.0779,-6729.5195,-6409.4722
4725.4902,-5464.8613,-7163.9639,-4170.0952,-120.3829,-7239.2119,-6958.9761
4745.0980,-5391.1709,-6410.6157,-4048.4097,-74.7564,-6693.6958,-6456.1611
4764.7059,-2114.6990,-3089.5999,-793.2313,278.3319,-6016.8203,-3365.7529
4784.3137,-1472.7091,-2129.3589,-514.3353,428.5858,-5127.1118,-2760.9631
4803.9216,-3289.4863,-6493.2769,-3287.7437,-19.9151,-7023.5771,-5236.3081
4823.5294,-6097.5435,-7136.4268,-4860.6226,-140.2603,-7140.6060,-6904.6904
4843.1373,-6111.8594,-6878.4282,-4562.6514,-141.1116,-7514.6348,-7093.4561
4862.7451,-2297.4143,-2155.8127,-593.7720,205.0116,-5028.6265,-3499.0786
4882.3529,3795.7498,6576.4722,3999.4324,1129.9314,6769.4189,5455.3945
4901.9608,2398.8643,4689.7300,1236.0950,846.3120,4408.1387,3109.1279
4921.5686,-488.6848,-1500.8413,-1134.5867,411.5994,-2527.1091,-1297.2188
4941.1765,-2273.1877,-5210.3589,-1900.8851,187.3902,-6388.8560,-4599.8218
4960.7843,-3300.9048,-5861.8584,-2235.2275,99.4169,-6999.8848,-5233.5352
4980.3922,-1746.2697,-2235.7307,-515.6238,317.4847,-4808.7012,-2686.5693
5000.0000,3588.6599,6671.8730,3918.5442,1108.4467,6897.1167,5160.7271
5019.6078,3984.8010,6568.9346,4006.6270,1163.6697,6779.9087,5552.8911
5039.2157,1203.4155,1435.2346,1146.0593,871.3229,1814.0992,1224.8035
5058.8235,-883.7339,-2289.8521,-226.0105,535.6425,-3233.2627,-1731.8137
5078.4314,-473.6650,2703.2239,1729.3179,759.2809,1486.2178,1386.5156
5098.0392,4320.9443,7305.2461,4664.0146,1172.8098,7280.4951,5936.0703
5117.6471,4416.4775,6227.8105,4108.0493,1155.2882,6737.4136,5623.9697
5137.2549,2707.9785,3626.5266,2529.3865,1018.8103,4929.4858,3321.7983
5156.8627,-1026.4711,-4036.4709,-865.5961,500.2133,-3934.6353,-2376.1331
5176.4706,-4831.8647,-6900.4697,-5722.8916,-184.3267,-7030.9131,-6264.8887
5196.0784,-7386.2061,-8109.0654,-6929.7603,-268.7912,-7901.5132,-7657.0166
5215.6863,-6582.0952,-6355.8032,-4976.2759,-111.4604,-6947.1421,-6887.6284
5235.2941,2178.8311,6767.7666,3326.0273,951.3161,4341.5078,3313.7104
5254.9020,6589.3179,7658.7847,6745.7148,1376.4734,7787.7847,7796.0459
5274.5098,6130.0469,7097.0264,5587.5186,1265.5297,7571.3105,6719.5444
5294.1176,3657.9570,5342.0547,3319.8362,1102.3483,5791.1113,4824.0830
5313.7255,42.1498,-1263.2494,-1143.9222,464.6078,-801.7527,-487.1930
5333.3333,-2207.6287,-4778.8760,-1519.1697,242.0055,-5879.3311,-3752.8633
5352.9412,-1169.6724,-1853.5029,-224.9381,481.8096,-4120.3501,-1961.2419
5372.5490,-865.6400,-1339.5031,-80.0903,518.9735,-3398.0435,-1517.0443
5392.1569,-883.0223,-1259.5571,-87.8964,520.1843,-3146.4084,-1518.3231
5411.7647,65.1581,1349.7662,824.2025,674.7787,-538.4810,-34.2307
5431.3725,911.8073,3290.3586,1499.4396,801.4429,2393.7222,1253.7950
5450.9804,2694.8936,5722.1782,3884.6753,1084.5536,5735.9683,4009.1875
5470.5882,6284.3696,6737.1768,6374.4243,1295.8517,6885.7007,6852.0435
5490.1961,6795.3535,7703.1802,6242.9595,1324.3245,7629.2471,7493.4390
5509.8039,3606.8101,4533.5034,2977.5923,1058.1794,5879.0356,4327.4028
5529.4118,-441.3322,-3569.9341,-428.0944,595.8757,-3161.2019,-1375.1229
5549.0196,-3625.6484,-6972.8394,-2945.2969,53.3338,-7503.8569,-5488.7344
5568.6275,-3177.9504,-5428.3496,-1986.2721,106.4777,-6649.3711,-4861.6084
5588.2353,5138.5767,6849.3848,6318.6704,1315.9116,7123.6626,6457.8857
5607.8431,6982.3945,7813.5498,6436.2603,1342.1543,7865.3296,7653.8232
5627.4510,4079.3499,5489.4458,3457.7898,1107.2113,6501.5156,5001.2080
5647.0588,3.8886,-3228.5569,-39.8292,635.6161,-2802.8618,-764.1108
5666.6667,-3983.9763,-7313.0767,-3377.5886,-8.4869,-7410.9546,-5976.4209
5686.2745,-4867.7715,-6953.5044,-3694.9641,-104.9312,-7476.2031,-6528.1299
5705.8824,-16.2231,1903.1561,1048.1514,648.0137,-898.9731,10.9282
5725.4902,3626.0281,7531.5479,5252.8984,1253.6725,7626.5547,5476.7212
5745.0980,5499.8047,6978.5986,5097.0264,1237.5713,7249.2378,6674.5732
5764.7059,4604.2554,5117.2422,3139.9976,1064.1052,6125.8545,4176.3091
5784.3137,1124.5939,648.1323,1192.5732,803.0335,1126.8997,1291.5775
5803.9216,-274.6033,-1505.3638,170.9752,605.4597,-2016.8092,-824.1116
5823.5294,298.4313,153.9131,938.7577,653.5528,-1073.7892,35.1264
5843.1373,-1093.9281,-5817.1343,-2680.1580,98.8988,-6010.0640,-2399.1104
5862.7451,-5730.1831,-7470.5435,-6907.1499,-255.8538,-7387.1743,-7155.8662
5882.3529,-7048.0933,-6902.0405,-7105.1538,-294.7135,-6932.0537,-7097.9111
5901.9608,-7319.9385,-7592.9600,-7371.8809,-283.2628,-7245.1807,-7276.0869
5921.5686,-6986.0044,-6866.6079,-6503.0332,-148.3363,-7138.6558,-7041.3208
5941.1765,-1801.6809,1492.4170,-49.4248,421.3409,-4178.3750,-2434.9871
5960.7843,3035.4773,7315.8164,4153.4961,1093.2197,7012.6411,5184.6484
5980.3922,6647.9341,6851.1660,6501.1606,1339.2117,6724.4063,6990.5313
6000.0000,6920.3340,7289.7515,6203.8813,1315.6469,7168.2729,7510.8179
6019.6078,4415.4521,6150.6045,3945.7109,1156.8268,6779.6943,5784.8496
6039.2157,2857.6873,4901.1665,2829.0850,1032.8907,5768.3369,3940.1294
6058.8235,5857.9463,6279.5903,5788.6299,1234.5608,6554.1152,6393.2144
6078.4314,6978.1196,7420.1260,6625.2607,1316.4458,7232.3687,7134.0132
6098.0392,6564.2534,7086.9702,6037.7705,1269.2509,7235.6772,7050.9019
6117.6471,5496.6030,5257.0620,3385.3096,1101.6973,7262.5845,6158.6387
6137.2549,2036.6943,-2599.6228,409.2913,729.8461,-1333.5023,2763.3926
6156.8627,-785.2419,-4439.0361,-1072.6567,388.8441,-4836.6304,-1776.5936
6176.4706,1740.8582,4281.0796,2420.2659,836.5945,3960.8718,2615.6694
6196.0784,4653.8965,6573.3340,4974.0630,1193.3123,6623.8887,6361.2793
6215.6863,6328.2061,6966.7788,6079.7212,1287.2831,7224.9937,6954.7769
6235.2941,6071.8584,7240.7866,5615.7129,1267.5443,7674.6826,6743.0586
6254.9020,3157.6785,3182.0557,1771.7361,858.8193,4423.6304,4243.0435
6274.5098,1194.8053,-1220.6406,667.3212,743.7591,-1252.3243,1265.9639
6294.1176,-2870.5571,-6142.0464,-2036.7863,136.3914,-6944.4268,-4626.5068
6313.7255,-2949.9851,-5330.5435,-1923.8698,140.9389,-6604.7676,-4583.1733
6333.3333,-3478.3296,-6079.8198,-2476.5745,76.1563,-6891.1265,-5175.4053
6352.9412,-3792.0723,-6216.8794,-3090.9741,-0.6552,-6830.8584,-5591.7876
6372.5490,-4395.8008,-6660.3936,-3149.5930,-64.0760,-7155.7197,-6274.0815
6392.1569,-2411.3186,-3615.2134,190.1577,433.6397,-5876.2949,-3585.9878
6411.7647,307.6366,1267.2836,869.6926,705.6002,-377.2782,319.4559
6431.3725,397.2404,1810.3508,1092.0656,725.9708,-63.3964,522.9675
6450.9804,2140.9338,5048.3052,2700.9182,927.2927,4817.1230,3277.7319
6470.5882,4485.6060,6450.6543,4809.5347,1191.3645,6478.3340,6141.6660
6490.1961,6084.4414,6753.5679,5900.7939,1273.0500,7046.2295,6754.8643
6509.8039,6706.9673,7242.1538,6374.8208,1322.7720,7147.2588,7036.2510
6529.4118,6914.8135,6760.4004,6656.1899,1296.7876,6862.3477,6936.9233
6549.0196,6885.7729,7149.0908,6690.4751,1306.1045,7046.0728,6985.3325
6568.6275,6788.3105,6777.1299,6506.6445,1278.4352,6874.4980,6933.2207
6588.2353,6811.9531,7113.8848,6529.7285,1288.4648,7035.5732,6971.2407
6607.8431,6942.8018,6803.3218,6730.3433,1313.1791,6884.6636,6949.4512
6627.4510,7133.2446,7415.6509,7018.9155,1328.8550,7166.4419,7139.4385
6647.0588,5647.3364,4822.0889,4813.6997,1159.7014,6558.8169,5986.2871
6666.6667,1872.6023,-954.7112,767.4847,644.0813,1624.7678,2099.5776
6686.2745,166.4157,-2991.8262,679.1489,560.2255,-2942.5469,-193.0442
6705.8824,2340.9094,3358.8127,2856.7610,863.5160,3150.5593,3109.7559
6725.4902,3675.3628,4486.3579,3743.1870,1069.9712,4906.2749,4927.7930
6745.0980,1931.7133,1101.8218,1971.0585,866.0045,1314.1971,2114.3108
6764.7059,-2947.4028,-6752.4370,-2338.3694,92.4485,-7085.7061,-5123.1602
6784.3137,-4388.1499,-6707.9536,-2846.9895,-35.7527,-6938.2754,-6677.2217
6803.9216,-3240.4363,-4670.0708,-963.7624,201.9407,-6139.9722,-4878.0225
6823.5294,-1157.0996,-2495.9426,-173.4276,434.5807,-5222.5117,-2141.8938
6843.1373,-1692.3767,-3951.2534,-792.4186,328.4375,-5916.5444,-3074.3420
6862.7451,-2132.0554,-4465.3755,-1119.4459,250.0306,-6305.4663,-3676.7358
6882.3529,538.8500,1477.2676,1402.5797,688.0428,-1426.3077,520.0533
6901.9608,1984.1254,3878.4692,2578.9822,882.5809,2616.9490,2672.9814
6921.5686,2344.2737,4090.4885,2895.2458,947.5432,3397.3779,3136.1802
6941.1765,3001.1680,5967.3154,3622.6792,1063.0933,5973.6284,4681.5547
6960.7843,2775.3787,3833.1025,2840.8792,1004.0634,3828.4512,3607.8860
6980.3922,614.7776,-644.8415,875.7292,688.6319,-1351.0555,284.4833
7000.0000,-2733.4646,-6267.8965,-1860.3165,139.3325,-6711.2192,-4662.7832
7019.6078,-3202.1516,-5956.8213,-2165.7263,87.1004,-6704.2026,-5351.1812
7039.2157,-2976.6672,-5265.7251,-1528.9193,165.8405,-6470.9287,-4899.6641
7058.8235,-2331.8118,-3029.7861,-506.9369,321.9224,-5208.8086,-2755.7412
7078.4314,569.6575,2111.6892,1521.7540,713.3319,-780.0702,655.7642
7098.0392,3042.8022,5979.3486,3627.2131,1009.5798,5806.2900,4438.2388
7117.6471,4817.1729,6184.5171,4706.7788,1187.7446,6812.2852,5831.7061
7137.2549,3004.4668,3829.7180,2901.9031,1020.1764,4250.3994,3949.7249
7156.8627,1409.4077,1238.9574,1616.7614,800.1062,1376.9872,1527.4608
7176.4706,1161.2106,1358.5271,2231.1240,825.7654,837.8999,1333.4664
7196.0784,2972.6016,6307.3857,4899.7427,1177.5027,6466.7065,4383.7979
7215.6863,6790.8740,7312.9521,6509.8799,1315.5173,7332.7427,6976.4551
7235.2941,2973.2627,2762.9958,2717.6523,1004.8127,3574.9517,3906.2600
7254.9020,-358.7271,-3745.4519,-191.1912,534.1130,-3530.8188,-1334.0190
7274.5098,-2941.1829,-6690.3647,-2213.9641,100.9008,-7118.6826,-5120.9707
7294.1176,-3037.1313,-6127.1616,-1197.0698,189.6695,-6831.6372,-5107.4854
7313.7255,-1762.0499,-4094.4490,-712.1539,315.1812,-5636.5977,-3081.0725
7333.3333,-2105.5405,-5530.3823,-1830.1672,165.4081,-6495.4453,-3617.0591
7352.9412,-5825.1348,-7070.8604,-4649.6836,-126.5577,-6986.0151,-6898.9199
7372.5490,-6141.5449,-7221.5044,-4865.3325,-145.7936,-7106.9023,-7110.1162
7392.1569,-4169.8296,-6013.0347,-2610.6707,-5.3268,-7049.7476,-5927.1968
7411.7647,-2285.1050,-3557.3828,-900.6284,265.9246,-6070.9688,-3584.0376
7431.3725,25.9831,1948.9761,2084.3938,836.9158,-1483.1091,-65.2498
7450.9804,654.9219,1882.9624,1068.8300,772.8007,201.9805,585.0681
7470.5882,-3017.5725,-5611.9219,-1961.5112,140.0387,-6769.1865,-4758.9478
7490.1961,-2171.9983,-3732.0139,-986.3998,294.4948,-5818.2036,-3435.0232
7509.8039,51.8124,1752.9160,1093.2445,669.3358,-1010.8392,23.0219
7529.4118,2209.0691,5295.4854,2849.9707,962.4669,4735.8940,3276.5732
7549.0196,3652.2063,6562.8984,4134.0049,1148.6779,6630.2681,5219.2583
7568.6275,3984.0818,6318.0283,4296.6045,1161.4093,6574.5425,5565.6367
7588.2353,5945.3252,6639.1387,5836.4502,1258.8737,6914.4922,6590.9937
7607.8431,6209.3877,6817.6128,5878.8730,1262.3627,6950.3730,6701.1792
7627.4510,6061.2729,6950.1763,5691.3901,1256.9719,7159.6909,6849.5605
7647.0588,5223.3228,6222.9580,4781.3916,1199.2545,6854.3125,6003.4771
7666.6667,3286.4116,3938.6770,3088.6047,1048.0767,5427.6353,4418.4946
7686.2745,2386.0293,2648.8906,2182.6882,921.1692,3754.9878,3021.5615
7705.8824,1610.3779,1134.5538,984.4777,849.1910,1950.0952,1889.7483
7725.4902,57.4315,-532.4591,921.2974,656.9896,-1631.1929,90.4434
7745.0980,465.0508,-314.2808,1074.4446,697.2394,-1665.4590,274.9102
7764.7059,28.0677,-1519.0466,587.9101,632.8796,-3166.3435,-499.1714
7784.3137,-1037.8666,-3946.1726,-317.2986,438.1652,-5287.4438,-2043.5846
7803.9216,-3271.5918,-6366.8892,-2541.7036,98.6594,-6691.7212,-5458.8984
7823.5294,-5817.9775,-6905.4316,-5453.4214,-165.8030,-6872.6216,-6838.3345
7843.1373,-5990.6016,-7016.1133,-3777.5154,-72.3259,-7059.7275,-6942.1509
7862.7451,-3874.9771,-5416.4590,-2377.3308,60.1920,-6834.9502,-5575.0464
7882.3529,-3069.0356,-4627.7329,-1739.7041,162.5615,-6488.7305,-4692.9634
7901.9608,-2232.1797,-3602.7864,-965.7521,283.2535,-6055.6260,-3526.2205
7921.5686,-133.5056,2105.9314,980.6700,611.5538,-1303.1593,-169.7059
7941.1765,1699.4174,4562.3037,2356.4436,938.3944,3431.8784,2451.9170
7960.7843,-211.9572,-529.1425,235.4733,674.4630,-2051.6836,-683.3157
7980.3922,-1317.5680,-2135.8521,-218.8271,508.4256,-4060.1685,-1899.6826
8000.0000,-382.8854,3872.8782,1821.1788,809.5706,2766.3259,1593.8313
8019.6078,4675.5845,6850.8369,5221.5527,1216.5289,7041.1450,6302.8823
8039.2157,6755.4238,7283.5552,6518.7939,1335.6122,7231.3535,7095.7397
8058.8235,7001.0239,7149.2935,6692.4634,1322.5925,7197.9961,7229.5205
8078.4314,5443.0186,6170.1465,4964.0669,1208.5673,6654.5322,6238.3184
8098.0392,4522.5688,5658.7808,4349.3296,1152.5444,6356.7397,5795.2534
8117.6471,5499.6968,6343.8291,5437.4180,1219.5979,6717.4990,6380.6680
8137.2549,6786.0957,6901.4854,6503.4775,1305.6167,6984.6372,6895.9551
8156.8627,6939.2720,7070.3228,6524.6069,1306.6295,7006.9688,7031.0244
8176.4706,6493.6440,7174.3037,5967.9883,1274.6143,7320.5190,7121.9272
8196.0784,5884.8115,6209.6426,4867.9258,1212.6721,6833.7656,6794.2466
8215.6863,262.8921,-3691.6736,317.8354,678.3896,-2751.8298,-509.8924
8235.2941,-1738.7310,-5454.9072,-1174.5383,311.6593,-6177.8604,-3266.5261
8254.9020,-2822.6094,-6341.8486,-2366.8328,62.3636,-6898.8057,-5366.7559
8274.5098,-4056.8760,-6560.8247,-3003.6257,-26.3035,-7005.7295,-6266.7109
8294.1176,-4212.8403,-6322.5552,-3018.9070,-18.5643,-6865.3574,-6133.6343
8313.7255,-5318.3643,-6819.4990,-4243.8311,-89.3373,-6993.3652,-6668.2734
8333.3333,-5977.7578,-6965.8740,-4635.9678,-112.6918,-6905.7197,-6909.6074
8352.9412,-4840.2017,-6115.3701,-3245.6101,-25.3125,-7069.6509,-6218.3218
8372.5490,-3300.1460,-4469.8271,-1821.5938,131.2553,-6486.7305,-4817.7710
8392.1569,-2651.7051,-4083.3823,-1518.8899,229.7545,-6115.1396,-4283.9150
8411.7647,-2827.9790,-4959.8169,-1628.2300,194.2254,-6215.1558,-4564.8892
8431.3725,-2130.1877,-3379.6382,-945.6364,303.7373,-5588.1611,-3398.5544
8450.9804,-3333.3804,-5686.1431,-2369.7949,143.1659,-6526.8794,-5209.0059
8470.5882,-5307.3750,-6732.6787,-4246.7021,-89.2682,-6939.1812,-6722.8223
8490.1961,-6239.6274,-7335.1348,-4969.4980,-146.7408,-7106.6201,-7132.3340
8509.8039,-5473.9839,-6618.0557,-2809.2339,2.8416,-7450.1436,-6764.4878
8529.4118,-1353.7032,535.4155,116.3324,481.2291,-3685.0002,-1771.2120
8549.0196,1318.3184,5187.7622,2217.2051,880.8615,3885.7178,2062.3369
8568.6275,4235.3726,6841.7461,4477.8608,1194.0837,7182.1914,5894.8403
8588.2353,4372.0083,6410.2827,4435.7329,1188.8486,6672.3643,6030.6597
8607.8431,4713.1777,6335.2651,4805.1318,1207.0529,6687.3740,6138.0884
8627.4510,5567.2998,6594.0576,5907.8403,1261.9128,6840.4463,6425.7153
8647.0588,6544.6279,7012.7627,6432.9785,1305.1683,7016.5078,6940.0806
8666.6667,6653.7295,6995.1475,6174.7139,1279.9609,6948.9883,6975.9507
8686.2745,4692.2852,6356.7002,4451.6362,1180.0630,7042.4512,6112.1768
8705.8824,4470.8589,5968.6211,4247.9097,1165.0350,6534.6528,5736.6377
8725.4902,2794.4478,3362.1177,2647.6599,997.0571,4923.5239,3741.3445
8745.0980,1229.6470,454.2350,1376.6268,824.9802,1657.7582,1327.9713
8764.7059,229.2415,-1564.4692,-92.1118,558.9816,-1305.4446,-123.3137
8784.3137,-1291.5425,-4562.7070,-843.9364,354.9475,-5789.2813,-2380.9731
8803.9216,-1223.7512,-3525.3489,-424.0762,408.8274,-4909.7363,-2213.0234
8823.5294,-3136.2949,-6110.1138,-2374.3130,143.9016,-6499.3584,-5100.3208
8843.1373,-5386.8921,-6801.9316,-4390.1089,-113.1830,-6901.5005,-6799.8882
8862.7451,-6325.0806,-7125.5850,-5170.0054,-142.8920,-7030.3574,-7086.1304
8882.3529,-5535.1372,-6786.7432,-4097.8979,-102.1435,-7066.4316,-6745.5571
8901.9608,-3989.3770,-5246.3833,-1593.8289,185.0482,-6733.0288,-5341.0234
8921.5686,-1380.9712,419.7548,427.1322,581.6459,-2806.5935,-1086.7898
8941.1765,620.6498,2925.5466,1392.3213,798.1522,1245.1782,899.5616
8960.7843,1154.6479,3541.3330,1759.7324,869.7022,2652.5447,1634.3254
8980.3922,1311.0112,3722.1113,1774.8110,884.2588,3262.2939,1836.7955
9000.0000,1510.6543,3900.8518,1994.0393,905.7345,3723.0562,2135.9250
9019.6078,2297.0430,4818.3560,2678.0159,980.2976,4913.7773,3389.2798
9039.2157,3267.2188,5639.7471,3938.7444,1134.6215,6126.0542,4679.1084
9058.8235,5519.9795,6888.0439,5513.0562,1248.3265,6962.2515,6623.0654
9078.4314,6767.2627,7051.7295,6686.2622,1338.6749,7039.1470,7084.5552
9098.0392,7090.2266,7003.6973,6995.6704,1372.4578,6954.3960,7010.9307
9117.6471,7039.2305,6975.5542,7067.7173,1389.7277,6978.7529,6987.2617
9137.2549,7009.8745,7127.2969,6891.6138,1354.4302,7019.6211,7043.8887
9156.8627,6016.2603,6240.1992,5169.3228,1219.5996,6750.1421,6676.9805
9176.4706,3105.8123,1341.7263,2044.4852,888.4680,3537.8838,3700.6079
9196.0784,2261.7905,2216.8674,2442.3892,884.5804,3783.6169,3045.1528
9215.6863,4937.3853,5847.9214,5237.4819,1155.5599,6046.2817,5920.5513
9235.2941,7068.9604,7307.2456,6993.1587,1408.6246,7287.9482,7188.8555
9254.9020,7206.1567,7326.5225,7223.5186,1415.5590,7110.3662,7189.3677
9274.5098,7025.8779,6812.5781,6403.4282,1280.4871,6885.4873,6969.5234
9294.1176,3446.3010,-2317.0029,1137.8260,789.4271,538.0392,3895.4551
9313.7255,-184.6141,-5182.0142,246.7139,517.3473,-5107.6421,-1002.0900
9333.3333,714.1554,-1482.6787,1317.5768,627.4362,-2257.1658,524.4987
9352.9412,1869.4044,1582.5029,2303.5576,819.3887,1122.9594,2221.6802
9372.5490,1608.6970,959.4269,1883.4077,788.4732,453.9458,1737.5413
9392.1569,-2255.1404,-6022.8096,-1515.3597,190.3249,-6541.4458,-4184.3057
9411.7647,-2874.2654,-6079.6372,-1879.2120,98.4267,-6981.4106,-4878.4521
9431.3725,-2122.0388,-4445.1743,-557.4739,276.3558,-5883.6763,-3783.5024
9450.9804,-1261.8608,-2782.5491,117.5253,400.4695,-5226.7407,-2341.7734
9470.5882,-547.0270,-1291.5162,667.1100,539.5518,-3716.0813,-805.0752
9490.1961,-363.7590,-1712.2261,382.6066,549.6092,-3926.3928,-1098.2086
9509.8039,-1836.2063,-4183.8218,-882.3899,306.4084,-6209.3330,-3337.3579
9529.4118,-1341.4150,-2587.2063,-274.5410,381.5464,-5313.2432,-2433.7612
9549.0196,595.8035,1413.0676,1561.3466,678.4527,-1032.3024,634.9346
9568.6275,3027.5857,6587.0776,4553.9307,1137.5490,6259.4014,4167.8374
9588.2353,4959.8042,7133.8784,5419.6826,1268.5895,7360.3857,6628.6353
9607.8431,5245.3535,6503.2720,5101.9067,1229.5662,6709.4995,6372.9355
9627.4510,3438.5088,4638.9346,3467.9902,1046.6373,5069.1855,4594.2393
9647.0588,3948.8892,5412.4810,4120.7871,1079.5397,5583.0449,5217.9731
9666.6667,5402.5288,6307.8174,5414.7856,1230.7938,6561.4185,6374.0854
9686.2745,6345.0405,6931.8857,6133.3340,1295.6007,7015.4790,6842.2954
9705.8824,6458.4648,6894.0488,5697.3594,1263.8175,7091.1147,6993.5283
9725.4902,5701.0884,6197.1880,4932.3110,1205.4164,6652.6191,6126.6592
9745.0980,2720.1597,2830.9219,2807.3010,942.7910,3578.6489,3266.6389
9764.7059,3112.1826,3975.4790,3317.5076,1001.3880,4319.5146,4021.0691
9784.3137,2537.6475,2533.7588,2601.5063,927.8205,2760.6780,3019.5002
9803.9216,98.6070,-3335.7839,457.4053,594.2045,-4546.3203,-727.0986
9823.5294,-1283.9906,-5151.5332,-984.1172,254.7763,-5923.6670,-2693.4963
9843.1373,-2385.4067,-6132.8174,-2056.4678,94.1151,-6644.4766,-4442.9629
9862.7451,-2711.3074,-4640.8086,-1188.5291,202.8028,-6405.8101,-4650.3975
9882.3529,-2558.3296,-5168.3477,-1485.3480,171.0536,-6707.3535,-4359.5195
9901.9608,-3202.3977,-5948.2832,-2092.6682,94.8919,-7064.9463,-5142.8413
9921.5686,-3286.3667,-5834.2285,-1914.3225,112.9599,-7041.2656,-5234.1948
9941.1765,-1840.2742,-2968.9934,-522.3622,277.9586,-5647.9844,-3082.0696
9960.7843,771.8492,2522.6833,3563.0669,972.9667,-887.4860,941.6497
9980.3922,7211.9526,7432.3867,7098.7661,1391.2341,7596.4883,7097.7612
10000.0000,7261.9185,7350.3745,7078.8193,1387.0487,7302.0913,7312.4087
10019.6078,6506.4146,6598.5166,5825.8540,1275.2830,6759.0532,6822.8394
10039.2157,2549.8113,1119.2679,2109.1968,910.7857,2943.9028,2688.5811
10058.8235,-1082.9650,-6078.5693,-746.1270,384.0916,-6425.0039,-2585.4209
10078.4314,-2009.2070,-5348.1216,-1132.7957,209.5849,-6018.2568,-3594.0557
10098.0392,2968.1252,5565.8872,4899.4131,1151.4612,4672.1611,4029.6138
10117.6471,5603.4971,7336.3643,6372.7095,1319.6812,7452.3047,6782.6118
10137.2549,6936.8193,7075.9932,6704.1367,1341.5266,7123.3413,7112.6265
10156.8627,6821.9893,6958.9990,6568.9043,1315.5580,6965.3271,6908.5342
10176.4706,6668.6968,6601.4976,6164.8423,1286.6365,6896.4766,6747.7256
10196.0784,5726.5361,6259.1436,5322.1963,1224.4753,6756.8062,6390.9976
10215.6863,5752.7241,6713.2910,5499.5078,1247.7468,6977.1670,6647.1187
10235.2941,5944.0488,6618.0386,5383.4995,1228.3729,6923.9087,6629.3477
10254.9020,5252.1582,5050.0171,4358.1006,1132.7958,5754.7681,6102.8809
10274.5098,3900.8318,4485.5508,3876.8059,1055.1119,5037.5879,4995.5620
10294.1176,5141.1323,5647.8809,5200.7866,1167.9023,5855.1274,6034.9478
10313.7255,6931.1172,7067.8789,6792.8486,1364.1003,7178.1611,6940.8604
10333.3333,7062.1401,7012.2114,6996.0825,1356.1666,6973.9141,7011.4941
10352.9412,6816.2114,6859.0576,5525.2021,1226.1302,7119.9814,6966.6006
10372.5490,5338.4600,4142.7935,4225.6924,1117.2662,5520.5796,6109.2544
10392.1569,3763.1680,3602.0205,3714.7400,1011.9250,4462.6245,4714.2349
10411.7647,4892.7603,5290.4053,4936.7412,1136.3174,5671.7285,5768.5107
10431.3725,5970.2485,6258.7388,5856.3594,1229.7931,6461.2524,6468.0405
10450.9804,6399.4570,6682.7251,5955.9780,1281.4486,6889.3569,6804.1899
10470.5882,5489.9199,5815.8848,5147.3691,1201.6345,6567.9136,6190.6396
10490.1961,5294.2466,5625.8525,5032.0537,1181.6067,6215.3931,5996.0615
10509.8039,4945.0093,5728.4160,5176.6274,1156.5125,5978.0884,5817.6328
10529.4118,5719.0835,6220.4043,5985.8623,1250.6129,6401.1660,6527.8276
10549.0196,6713.9141,6731.3945,6549.1152,1317.3654,6932.2612,6801.4771
10568.6275,6973.2388,6895.0815,6848.9360,1363.7565,6965.1812,6959.8042
10588.2353,6920.8213,6966.4077,6573.1079,1295.3221,6948.6431,6950.5850
10607.8431,6424.0200,6385.1611,5841.3999,1272.9404,6950.0303,6781.9497
10627.4510,6422.8394,6443.1572,6274.1904,1281.1022,6728.9878,6699.7612
10647.0588,6832.1162,6797.6719,6695.2881,1337.0392,6969.2861,6861.6992
10666.6667,6825.2222,6973.6592,6734.0425,1342.0269,6973.6831,6962.3462
10686.2745,6975.3271,6885.6509,6743.3711,1333.2098,6957.7275,6973.8662
10705.8824,6886.2124,6906.1729,6727.8276,1316.9482,6953.3350,6933.9551
10725.4902,6991.7314,6919.5576,6670.6899,1312.3500,6957.3711,6977.4224
10745.0980,6855.7490,6891.8848,6644.4937,1298.8420,6955.4502,6935.8516
10764.7059,6873.4805,6681.8047,6711.1230,1326.4608,6956.9863,6913.9482
10784.3137,6873.4053,6922.4248,6741.1528,1342.7118,6956.0337,6938.3755
10803.9216,7006.1758,6950.0327,6889.8770,1366.5854,6956.9175,6979.8652
10823.5294,6913.6548,6966.2495,6878.3838,1353.5227,6956.1357,6933.5107
10843.1373,7034.9214,7021.5845,6999.0391,1345.6401,6996.3018,7000.5322
10862.7451,7070.0171,7315.8047,7055.7544,1362.3862,7306.4849,7121.1895
10882.3529,7234.5020,6991.2588,6115.5786,1288.7725,7437.8296,7373.9917
10901.9608,5427.4072,2311.4919,2823.6443,834.2601,3710.7920,5509.4390
10921.5686,-5843.1841,-7198.5093,-5256.5527,-163.2759,-7211.8267,-7127.7905
10941.1765,-7181.0229,-7069.2612,-6946.6479,-218.8703,-7086.0786,-7183.7344
10960.7843,-7104.9653,-6947.3481,-6660.1553,-164.1669,-6939.7900,-7027.7529
10980.3922,-6712.7285,-6933.0649,-5754.6870,-107.9551,-6930.9585,-6959.5825
11000.0000,-6139.5894,-6943.1577,-4411.3589,-72.0764,-6939.6597,-6881.6719
11019.6078,-6147.6670,-6932.9790,-5103.0078,-104.0579,-6932.7461,-6955.3716
11039.2157,-6675.0859,-6966.0093,-5388.3125,-103.0240,-6942.4609,-6945.9277
11058.8235,-6520.6309,-7094.7114,-5015.3789,-97.1253,-6938.4629,-7100.3389
11078.4314,-5558.2974,-6795.4497,-3837.9785,-49.9485,-6993.7988,-6802.3066
11098.0392,-3748.0134,-5577.0146,-1992.1228,37.7763,-6935.2241,-6007.9800
11117.6471,-1824.2164,-3937.3960,-351.6743,244.0732,-6413.8833,-4051.6147
11137.2549,-1304.3494,-2873.7703,3.7463,330.8135,-6183.7324,-2988.7397
11156.8627,-1308.3685,-3096.7234,-129.0315,335.1478,-6194.1157,-3153.6594
11176.4706,-670.7982,-175.7203,1092.5446,558.7939,-3960.0840,-1975.0831
11196.0784,1305.9404,2423.7683,2199.9106,736.1979,-1477.7867,919.7341
11215.6863,2213.8337,3895.0061,2936.5391,876.7776,1312.6289,2377.5178
11235.2941,3178.6733,4863.3560,3667.2524,967.2480,3529.2441,3676.4402
11254.9020,3310.5576,4915.4565,3693.6499,988.7818,3925.7349,3944.1436
11274.5098,3599.9546,5148.4590,3859.2944,1055.2355,4606.4321,4180.8340
11294.1176,3397.7573,4689.0557,3678.0549,1032.7694,4351.9834,4009.2622
11313.7255,3160.8840,3709.0696,3304.9053,967.2479,2989.0359,3487.7266
11333.3333,3121.3108,3983.8940,3508.4492,964.6830,3355.2751,3643.4475
11352.9412,4111.6284,5384.0820,4400.7178,1084.2543,5129.1069,4818.7124
11372.5490,4730.4722,6169.6514,4896.9468,1179.7373,6342.3535,5545.6357
11392.1569,4124.6597,5010.2886,4218.5928,1102.2512,5280.0449,4783.9863
11411.7647,3805.6274,4845.4614,4377.1685,1092.7606,4855.3911,4538.4443
11431.3725,4986.6172,5871.9253,5205.4150,1179.2230,5961.5913,5943.0996
11450.9804,5853.6216,6257.6523,5586.3306,1251.7797,6563.9658,6334.3262
11470.5882,4997.0093,5465.4272,4848.8760,1176.1742,6041.0654,5447.6997
11490.1961,1753.3351,-2086.0298,1774.0796,811.7222,-2534.4978,892.5992
11509.8039,-7262.6694,-7423.3677,-7139.9624,-269.9726,-7475.8369,-7248.8398
11529.4118,-7254.1782,-7071.4258,-7247.4028,-333.3029,-7032.7236,-7236.1016
11549.0196,-6922.2217,-6949.1558,-6960.6968,-250.9601,-6965.8145,-6919.7568
11568.6275,-6991.3857,-6917.8604,-6982.8042,-237.2087,-6920.8740,-6949.5815
11588.2353,-6879.4536,-6957.1777,-6893.6172,-235.9675,-6972.0415,-6927.4263
11607.8431,-6993.5591,-6917.3105,-6983.0356,-273.0978,-6920.4707,-6947.1963
11627.4510,-6882.8833,-6956.4834,-6890.0776,-270.9864,-6972.3296,-6925.6699
11647.0588,-6991.5889,-6916.0518,-7006.3569,-265.0414,-6920.1948,-6946.9546
11666.6667,-6889.5786,-6978.8213,-6934.5200,-210.0226,-6973.5625,-6926.8481
11686.2745,-6979.9609,-6879.7090,-6898.7651,-128.9358,-6918.8428,-6945.7397
11705.8824,-6889.0132,-6938.1851,-5512.7261,-55.0315,-6973.4482,-6927.3877
11725.4902,-6871.2827,-6721.2134,-5847.9497,-84.8831,-6917.4878,-6944.3745
11745.0980,-6956.7627,-7200.3237,-6411.2603,-118.1041,-7002.4971,-7002.2915
11764.7059,-6821.3745,-6596.1069,-5907.4824,-98.7904,-7071.4800,-7031.1650
11784.3137,-5844.9980,-5186.8398,-3757.1826,2.8269,-6795.3491,-6480.0669
11803.9216,-3773.5967,-1995.9904,-1417.5952,367.3094,-5729.3862,-5197.3110
11823.5294,-2639.3162,-469.2048,-1189.3604,472.8028,-4085.9233,-3790.8877
11843.1373,-2843.5178,-991.7621,-1327.1288,448.3803,-3881.1201,-4162.2817
11862.7451,227.2087,4328.8975,1295.6703,884.6705,3139.4485,492.6427
11882.3529,2196.4131,6641.3813,2902.5452,1076.5576,6752.7407,3572.2244
11901.9608,3792.3489,6735.9673,4287.9922,1211.5566,6936.5962,5660.4917
11921.5686,4410.6343,6693.4878,4651.5146,1233.6661,7026.5361,6200.6582
11941.1765,5101.3979,6720.9756,5304.2295,1264.4858,6949.9326,6327.6606
11960.7843,6357.6338,6957.4546,6417.3218,1326.7493,6991.1235,6766.7095
11980.3922,7148.5776,6990.0405,6803.5503,1348.3807,6946.3496,6984.5537
12000.0000,6695.8008,7122.3594,6147.1313,1295.8724,7084.6421,7137.8999
12019.6078,4218.2988,5804.0991,3791.6035,1157.3024,7026.8916,5441.5054
12039.2157,2320.3286,2874.3721,2245.2720,998.9269,5661.0537,3103.2502
12058.8235,922.9147,462.5475,1133.3713,886.1127,2856.2681,1009.0214
12078.4314,-832.3225,-2837.3450,-1035.4215,504.0104,-1743.8182,-1666.5256
12098.0392,-2079.1790,-4309.0908,-1041.2101,368.9625,-5179.3096,-3417.9863
12117.6471,587.8286,2270.9509,1465.3232,825.1639,2055.1631,901.7117
12137.2549,2691.7009,5761.0073,3237.6326,1065.8422,6588.7246,3912.3223
12156.8627,3330.7644,6207.7607,3599.1475,1127.2513,6689.9990,4866.4136
12176.4706,3156.3369,5442.5088,3350.4675,1098.7803,6101.6685,4451.4185
12196.0784,2627.7488,4802.0659,2846.8330,1033.3654,5592.9531,3838.0991
12215.6863,5327.5093,6493.2905,5581.9043,1258.6815,6718.8423,6485.8013
12235.2941,6773.9844,6996.4731,6875.8657,1366.4512,7027.7505,6908.8076
12254.9020,7123.4521,6928.3350,7031.8247,1377.4878,6927.5615,6945.8276
12274.5098,6944.7065,6984.2656,6872.6157,1357.5308,6995.8398,6965.1602
12294.1176,6931.4009,6958.1558,6708.8955,1325.4077,6926.7480,6976.1777
12313.7255,6615.5313,6784.2441,6250.5664,1286.6118,6995.3037,6826.5942
12333.3333,6659.4126,6707.1157,6316.0156,1295.2510,6934.1914,6805.6143
12352.9412,6744.3955,7120.0635,6352.1875,1313.7759,7140.5718,7064.8687
12372.5490,5398.2925,6043.0020,4891.5601,1228.1917,7003.6113,6447.0215
12392.1569,2945.4126,1496.8507,2674.5254,1004.8441,4645.4209,3337.6199
12411.7647,1089.8668,-1687.8580,1278.5427,788.0180,-123.3391,923.1431
12431.3725,407.6284,-2195.3491,868.5534,689.9728,-1393.7302,59.2401
12450.9804,1641.3242,1625.7401,2174.8267,858.0688,1955.4690,1884.9452
12470.5882,2238.5974,3360.5415,2645.6431,944.1042,3739.7800,2908.5637
12490.1961,3269.9338,4739.8540,3614.4878,1056.9650,5426.8203,4469.2476
12509.8039,4784.0068,6885.2251,5702.3306,1284.2561,7027.5845,6142.6675
12529.4118,7045.0054,6959.7212,6936.8379,1358.9023,6949.1689,6954.7485
12549.0196,6966.5337,7000.0278,6905.0273,1414.3561,6995.1333,7000.3721
12568.6275,6996.0313,6927.2617,7020.6895,1453.7607,6928.1670,6950.5698
12588.2353,6929.0322,6993.2080,6933.9873,1420.4471,6984.9312,6965.2090
12607.8431,7009.4150,6948.2124,6852.1030,1354.6989,6931.4741,6948.6006
12627.4510,6915.9067,6918.5527,6403.5166,1281.5789,6984.5059,6970.4634
12647.0588,6724.4966,6578.5747,6193.2979,1273.6348,6932.6558,6904.6929
12666.6667,6980.4038,7053.9883,6806.2832,1333.6840,6984.6938,6974.9912
12686.2745,7165.9653,7323.3682,6984.2959,1371.4972,7096.6274,7126.8008
12705.8824,5176.4722,3205.2964,4457.7642,1117.7351,4792.9658,5321.4150
12725.4902,2172.4087,-2210.4243,2067.3665,823.4350,-33.6066,2028.3748
12745.0980,975.5832,-3739.5513,1355.4213,619.8141,-3787.3293,365.5098
12764.7059,2104.1575,-269.0363,2637.3855,801.3430,-1078.2125,2038.6859
12784.3137,-1076.4840,-5650.4482,-654.8600,331.8317,-6381.3882,-3267.3289
12803.9216,-5806.0322,-7255.8643,-5383.2808,-162.8439,-7208.4346,-7261.1270
12823.5294,-7299.8643,-7077.5776,-7306.1450,-287.0956,-7040.1040,-7157.3545
12843.1373,-7071.6641,-6971.9893,-7085.8711,-302.0016,-6943.4282,-6989.5908
12862.7451,-7000.3779,-6945.8306,-7197.6992,-236.1406,-6920.8296,-6941.6436
12882.3529,-6985.9839,-7000.8462,-6707.9028,-139.0351,-6980.2363,-6985.3110
12901.9608,-5364.1987,-4455.4956,-1730.4539,86.9103,-6530.3926,-5720.5498
12921.5686,-1188.7235,152.3493,390.8249,466.8781,-5087.3008,-2185.3120
12941.1765,-375.0077,772.8409,716.1449,633.0167,-3477.0486,-1139.3755
12960.7843,-1012.8674,-1941.5896,-27.0394,509.7603,-4865.3481,-2433.9270
12980.3922,-3319.6870,-5841.5547,-2367.1653,136.9828,-6950.2764,-5381.7891
13000.0000,-5751.6958,-7039.6997,-5822.9038,-132.3091,-7027.9834,-6927.8511
13019.6078,-7056.1641,-6941.6772,-7096.1367,-215.8740,-6930.1831,-6948.9033
13039.2157,-6922.0430,-6951.7896,-6948.0786,-185.4226,-6949.1436,-6948.0396
13058.8235,-6968.0059,-6922.4980,-6949.9214,-182.8313,-6929.9717,-6946.5132
13078.4314,-6903.5293,-6951.3618,-6616.7251,-114.4551,-6943.8579,-6946.7891
13098.0392,-6970.2993,-6925.6289,-6518.0195,-111.7579,-6931.9170,-6947.4663
13117.6471,-6905.3457,-6948.1675,-6768.7358,-153.5524,-6941.8037,-6945.7969
13137.2549,-6967.8223,-6926.8105,-7014.8081,-258.6452,-6932.7090,-6948.9824
13156.8627,-6906.0479,-6945.8618,-6887.4063,-222.5081,-6939.7729,-6944.6528
13176.4706,-6967.7490,-6928.7349,-6991.4248,-184.5424,-6934.4272,-6949.5957
13196.0784,-6905.9106,-6943.9893,-6850.6699,-139.5932,-6937.9985,-6943.7603
13215.6863,-6967.8652,-6930.7637,-6959.4043,-143.4294,-6936.1772,-6950.4946
13235.2941,-6905.7231,-6941.7617,-6884.6455,-167.7057,-6936.1733,-6942.7993
13254.9020,-6967.9497,-6932.9087,-6994.1733,-196.3879,-6937.9326,-6951.3213
13274.5098,-6905.8691,-6940.0781,-6914.1611,-176.7777,-6934.7046,-6942.3140
13294.1176,-6969.0801,-6987.1099,-7015.1816,-159.4181,-6940.1841,-6952.4946
13313.7255,-6966.8364,-7075.2998,-6770.0713,-129.7843,-6980.5742,-6984.2700
13333.3333,-7083.7212,-7193.3325,-6783.4409,-132.1992,-7041.5288,-7029.5894
13352.9412,-6630.4253,-5546.7637,-4936.6797,-65.8096,-7129.8203,-6992.4722
13372.5490,-1755.5314,4403.5713,-260.8343,750.9196,1598.1335,-1625.0662
13392.1569,1297.8093,6693.8716,3364.2720,1164.2784,6385.5874,2804.0266
13411.7647,3315.8518,7067.7241,4204.0161,1234.1476,7091.2329,5693.2910
13431.3725,3696.5557,6687.4897,3958.1536,1218.0289,7037.6050,5834.0283
13450.9804,3092.4482,6241.1563,3228.0415,1157.1866,6721.3301,5197.1084
13470.5882,2042.3026,5390.4946,2259.6494,1063.9310,6156.0684,3660.4207
13490.1961,855.2936,3715.6108,1149.1421,965.1926,5194.6421,1769.0343
13509.8039,-229.7395,1402.0685,160.8758,863.8701,2859.0728,-30.2971
13529.4118,-1646.6494,-1744.8433,-1087.1970,698.2827,-478.1100,-2082.7639
13549.0196,-2914.1501,-4368.2793,-2250.7222,373.6831,-4511.4487,-4005.4431
13568.6275,-2943.7632,-3150.1663,-1873.7300,429.2920,-3631.6936,-3801.3701
13588.2353,-999.0265,1628.4933,43.1414,745.6705,1680.3691,-886.5563
13607.8431,3749.0344,6776.9678,4005.2830,1237.5138,7363.4473,5750.4521
13627.4510,1545.6771,3464.1323,1609.2039,1018.6028,4915.6450,2775.7927
13647.0588,-2689.0469,-4381.0005,-2411.4465,510.3527,-3102.9380,-4046.5720
13666.6667,-6849.0933,-7489.1489,-6941.0737,-212.6329,-7623.5771,-7313.8154
13686.2745,-7095.5977,-7189.4087,-7165.5244,-251.5836,-7283.2324,-7176.5283
13705.8824,-6927.2891,-6914.6626,-6765.6099,-152.7577,-6927.3853,-6931.4961
13725.4902,-6906.1055,-6964.2661,-6077.5488,-122.4393,-6965.8896,-6947.4336
13745.0980,-6862.0034,-6927.9546,-6278.7739,-124.8213,-6929.7866,-6930.6621
13764.7059,-6944.9263,-6984.3364,-6530.8286,-135.3579,-6988.7217,-6966.3594
13784.3137,-6910.5278,-6883.1025,-6403.5693,-133.9222,-6968.1851,-6952.9585
13803.9216,-6906.3018,-5788.9072,-4881.4912,-33.2719,-6738.2788,-7033.1743
13823.5294,-5482.7939,-3099.6187,-2789.0791,165.9506,-5181.2627,-5374.6919
13843.1373,-1371.1469,2970.1282,-386.8960,788.8715,2288.0745,-1070.1406
13862.7451,-768.8074,3257.6223,36.0549,867.9061,3211.9290,-327.4059
13882.3529,-385.5839,3481.3552,271.8014,902.9350,4003.9136,360.9147
13901.9608,-52.1942,3694.4209,543.7330,927.8196,4590.3159,780.0408
13921.5686,512.8601,4731.8174,1031.1624,972.0631,5893.9453,1754.6688
13941.1765,1742.0518,6440.6338,2981.9490,1108.7142,6730.8779,3721.9888
13960.7843,5081.3418,6941.4883,5757.8398,1288.2032,6963.8325,6699.8311
13980.3922,5895.7192,7069.3315,5672.9717,1284.6415,7003.9712,6859.5894
14000.0000,4953.1377,6910.4766,4699.3086,1236.3746,7190.7505,6480.3042
14019.6078,3286.3948,5685.9844,3076.1111,1147.6414,7190.1880,5166.5571
14039.2157,1050.8979,2566.2427,960.3809,956.4852,4980.1147,2184.8948
14058.8235,-1027.5966,-1915.1206,-773.2791,756.4526,1092.5258,-1214.5303
14078.4314,-4058.5381,-5721.0771,-3703.5723,96.5195,-5869.8545,-5255.7524
14098.0392,-4941.7236,-5823.2295,-3754.8057,30.3035,-6441.4307,-5943.7842
14117.6471,-3503.3608,-3698.2373,-2216.8335,285.6195,-4544.3501,-4193.5190
14137.2549,-1647.5112,230.6387,-653.7592,673.2388,-364.9668,-1570.1293
14156.8627,-1321.0204,150.4819,-544.1461,745.7884,178.3689,-1260.1473
14176.4706,-1916.4664,-1679.8152,-1230.4008,675.1227,-1684.3654,-2245.1694
14196.0784,-5147.2656,-6303.4048,-3802.0757,35.8272,-6622.0293,-6312.7207
14215.6863,-3664.8899,-3507.7639,-2382.9524,280.9843,-4793.1792,-4419.7764
14235.2941,-3236.5918,-2891.4673,-2196.7747,410.0565,-3983.6829,-3916.0432
14254.9020,-4158.5078,-4991.4106,-3126.4619,208.0006,-5886.4326,-5254.1563
14274.5098,-5100.5474,-6062.1733,-3978.3469,33.1244,-6498.4609,-6210.1387
14294.1176,-5522.0581,-6100.4463,-4237.2559,-14.0757,-6598.0967,-6407.6523
14313.7255,-5280.3486,-6025.2949,-3972.6860,-0.7405,-6688.8149,-6296.8555
14333.3333,-4352.1421,-4076.0317,-2159.7302,319.8229,-5729.7554,-5064.7944
14352.9412,-2553.6997,1689.3932,-566.6171,690.4560,675.6837,-2809.0613
14372.5490,-453.9278,3433.5798,290.3706,865.7631,3482.5852,215.1942
14392.1569,177.6211,4006.4282,793.7614,929.5610,4539.7710,1302.5288
14411.7647,876.0978,4858.3052,1363.4979,996.6501,5847.8887,2325.8379
14431.3725,3740.9912,6816.5269,4121.5005,1203.6161,7065.7568,6155.2573
14450.9804,5896.2197,7149.4253,5915.0664,1298.5568,7026.9214,6952.7095
14470.5882,6691.5254,6926.3306,6413.1670,1320.7319,6949.3125,7069.4131
14490.1961,6767.5249,7011.6553,6302.1499,1305.4095,6974.0669,6945.6196
14509.8039,6483.1606,6901.9634,6058.2935,1281.7229,6941.7485,6921.2202
14529.4118,6214.6899,7034.0010,5798.1416,1278.2208,6983.6885,6951.5054
14549.0196,4223.3657,6268.9556,3883.7827,1176.8169,6935.4063,6002.6387
14568.6275,2597.6887,4252.0923,2371.8792,1060.0814,6404.2900,4366.6021
14588.2353,1253.6329,2329.8899,1278.3684,932.9144,5005.2246,2349.8435
14607.8431,893.8429,2221.2026,1413.7584,919.0002,4416.6611,1933.5011
14627.4510,2675.8728,5427.8047,3025.3132,1063.9540,6175.6704,4848.6934
14647.0588,4647.7539,6704.5913,4791.4414,1222.9478,6847.0459,6474.5386
14666.6667,3393.6155,5309.2642,3221.0959,1127.0564,6781.8140,5134.2979
14686.2745,1447.7719,2409.1572,1395.0575,945.7863,4377.2622,2568.2852
14705.8824,206.3475,11.9110,452.2107,809.0989,2027.1802,677.2035
14725.4902,467.3760,1686.5685,937.3720,843.7288,2994.1333,1243.6190
14745.0980,1930.2350,4657.3516,2792.2446,1044.1915,5583.1177,3587.0938
14764.7059,2986.9094,5464.2944,3157.8035,1090.6510,6187.0771,4985.3936
14784.3137,4105.7627,6508.3560,4217.1284,1187.2759,6855.3545,6131.0132
14803.9216,5684.1084,6986.8320,5585.6265,1274.5946,7011.8872,6857.1777
14823.5294,6649.0220,6970.3262,6447.4614,1323.4388,6978.8691,7058.0898
14843.1373,6964.0288,7034.6675,6803.3257,1340.7168,6966.2188,6967.9116
14862.7451,7005.3936,6921.9121,6912.6016,1377.5654,6955.2041,6985.7070
14882.3529,6992.6968,7096.0840,6887.4272,1351.7639,6967.8315,6972.6660
14901.9608,5588.5688,5885.7290,4933.7041,1217.6119,6927.5425,6431.9902
14921.5686,3789.0854,4550.6050,3420.3987,1120.7146,6430.5117,5341.9873
14941.1765,3222.4595,4127.5654,3134.2441,1068.6506,6242.8325,4835.2017
14960.7843,3559.6294,5125.5327,3557.7930,1108.6925,6327.1875,5177.4380
14980.3922,3661.9526,5323.9668,3623.8057,1112.7306,6168.1558,5425.6948
15000.0000,2985.2429,4399.1587,2305.0186,983.5961,5381.5732,4545.9458
15019.6078,-885.9821,-3817.6721,-453.9372,533.6343,-4207.6318,-1374.7992
15039.2157,-2075.3853,-5500.2666,-1402.7859,288.4438,-6184.9292,-3205.0205
15058.8235,-2888.1919,-5888.6084,-2086.4233,166.6707,-6417.6216,-4437.7793
15078.4314,-3876.8118,-6206.7842,-2980.4668,30.4156,-6719.2861,-5823.5981
15098.0392,-5362.2896,-6843.3164,-4408.4282,-90.3177,-6940.2803,-6665.8159
15117.6471,-6886.7065,-6885.6729,-6155.6279,-164.5994,-6953.6841,-6966.1172
15137.2549,-6984.5352,-6994.1592,-6904.6235,-191.3369,-6932.0806,-6924.7861
15156.8627,-6956.7979,-6883.5830,-6959.3340,-194.5965,-6944.2671,-6969.3760
15176.4706,-6924.3613,-6988.3398,-6920.1563,-208.3077,-6927.7642,-6905.7285
15196.0784,-6950.5039,-6886.1177,-6944.1206,-246.7019,-6944.6025,-6969.2095
15215.6863,-6923.5840,-6986.8257,-6929.1309,-266.3608,-6927.9468,-6906.0708
15235.2941,-6949.5762,-6887.1221,-6948.7495,-261.7145,-6945.9604,-6971.4780
15254.9020,-6922.7402,-6986.1431,-6926.0771,-233.4178,-6926.6357,-6905.2100
15274.5098,-6951.0005,-6888.9482,-6964.4468,-233.7971,-6947.8730,-6972.7485
15294.1176,-6932.3408,-7012.5664,-6931.1592,-202.4305,-6926.0317,-6908.9722
15313.7255,-6961.6143,-6897.4824,-6978.2227,-157.8325,-6965.9385,-6989.4844
15333.3333,-6999.1313,-6921.3462,-6494.2583,-108.4798,-6942.6558,-6919.4390
15352.9412,-6741.1001,-5712.3755,-5287.9155,-89.8010,-6967.2690,-6959.9951
15372.5490,-4500.7808,-3455.0564,-3235.4890,203.4678,-6120.0918,-5551.2114
15392.1569,-6688.7681,-7327.6558,-6754.1460,-194.7535,-7184.1963,-6779.4189
15411.7647,-7186.0308,-7320.7705,-7061.4346,-202.4371,-7224.1631,-7146.1660
15431.3725,-7132.4102,-6925.8628,-5749.1040,-149.6661,-7559.0249,-7436.9263
15450.9804,-3436.1460,1988.8119,-1550.1058,433.4567,-1177.1609,-3166.7166
15470.5882,2014.5304,6900.7100,3318.4395,1133.3517,6488.5156,4788.3467
15490.1961,6529.4873,7538.2896,6649.8955,1405.5648,7411.9365,7266.7690
15509.8039,7083.4355,6994.0249,7054.8706,1439.4301,6934.2642,6930.9868
15529.4118,6974.2168,6919.0806,6990.0874,1419.5565,6975.3081,6997.3799
15549.0196,6937.9277,6996.7686,6939.3921,1398.5247,6936.6479,6920.7979
15568.6275,6975.8330,6920.1084,6978.8311,1398.6748,6978.8345,6998.1772
15588.2353,6935.5532,6994.9609,6935.6089,1443.5493,6936.3105,6919.4287
15607.8431,6976.4224,6921.9736,6976.7910,1487.6558,6980.0986,6997.6367
15627.4510,6934.9575,6992.9541,6934.6826,1566.6210,6935.0122,6918.0562
15647.0588,6976.9961,6924.0571,6981.6406,1530.6553,6981.3662,6997.9990
15666.6667,6942.4922,7112.8750,7036.8164,1438.6146,6935.7476,6921.8042
15686.2745,7158.4961,7312.2183,7183.4321,1356.5402,7231.6152,7212.1792
15705.8824,7106.1572,6956.7944,6672.1406,1267.6589,7232.5117,7184.4683
15725.4902,5159.9995,2612.3760,3871.2246,1126.4966,6772.1934,5885.8179
15745.0980,602.3616,-5781.5459,40.8225,726.6498,-937.8566,561.9017
15764.7059,-7164.6196,-7173.2427,-7088.1436,-276.6060,-7147.8569,-7005.3989
15784.3137,-7144.1147,-6972.7734,-7080.1958,-390.4441,-7138.2969,-7262.3052
15803.9216,-7001.5708,-6964.9399,-6916.9663,-396.7376,-6910.1226,-6907.5449
15823.5294,-6963.1768,-6917.0376,-6963.1396,-362.4462,-6967.5410,-6978.3032
15843.1373,-6915.7803,-6960.9570,-6913.7915,-327.8133,-6909.7373,-6897.0840
15862.7451,-6962.2354,-6916.7407,-6964.4883,-326.5026,-6968.1123,-6982.1025
15882.3529,-6914.6094,-6957.3965,-6913.4707,-324.8739,-6906.5171,-6898.0654
15901.9608,-6962.5884,-6919.3423,-6966.3013,-326.4838,-6969.3281,-6980.2197
15921.5686,-6914.3149,-6954.7568,-6912.8853,-360.8826,-6905.2925,-6897.1152
15941.1765,-6962.8735,-6922.0176,-6966.8257,-350.4287,-6970.5498,-6980.1812
15960.7843,-6914.0215,-6952.0386,-6912.3081,-320.9486,-6904.0737,-6897.1675
15980.3922,-6963.1138,-6924.7129,-6967.2856,-299.3729,-6971.7661,-6980.1035
16000.0000,-6913.7993,-6949.3335,-6911.9277,-233.9912,-6902.8608,-6897.2646
16019.6078,-6963.3896,-6927.5508,-6967.7559,-213.3431,-6972.9990,-6980.0200
16039.2157,-6913.2778,-6945.9287,-6911.1499,-200.9295,-6901.3223,-6897.1323
16058.8235,-6963.1924,-6929.6201,-6967.8081,-197.2813,-6973.5200,-6979.4102
16078.4314,-6912.8804,-6943.8418,-6912.5112,-209.9139,-6899.5796,-6897.0493
16098.0392,-6965.7656,-6989.0073,-6998.1616,-230.3151,-6977.0991,-6981.3813
16117.6471,-7109.3521,-7498.3032,-7070.9443,-176.8950,-7301.6660,-7126.4131
16137.2549,-6953.1235,-4066.2783,-5379.8096,-62.1264,-7148.2227,-7086.7646
16156.8627,-3957.6235,3192.1729,-2061.4065,479.1499,155.2483,-3206.1831
16176.4706,-718.2190,6687.9639,166.9114,987.9330,6256.8101,841.6577
16196.0784,-645.1098,5883.2856,-187.4276,969.2440,6022.3940,813.7629
16215.6863,-1478.6105,3621.4824,-972.3948,878.0540,4287.3955,-567.3618
16235.2941,-1804.5283,3834.5542,-984.0215,831.1558,4402.1636,-775.6481
16254.9020,1194.7219,6345.2930,1995.1946,1074.0687,6462.3701,4112.7954
16274.5098,4601.0654,7293.9707,5064.5811,1278.1797,7294.4287,6920.5835
16294.1176,6217.1826,6929.8076,6119.9277,1307.1224,6894.4458,7097.6821
16313.7255,6622.7910,6972.4380,6301.0264,1302.2699,7004.8438,7014.6318
16333.3333,6709.4692,6947.0264,6694.3491,1315.1874,6912.3423,6921.2925
16352.9412,7005.1641,6976.3765,7023.4053,1414.2526,7002.9351,6996.1406
16372.5490,6934.4990,6944.0820,6942.3188,1481.2004,6910.2500,6911.6558
16392.1569,6984.3174,6979.3091,6986.4419,1564.2510,7004.0151,6991.9297
16411.7647,6929.2427,6941.1611,6926.2681,1599.1704,6909.1821,6914.2109
16431.3725,6983.4717,6982.2178,6980.3818,1552.2495,7005.0693,6991.5083
16450.9804,6930.0928,6938.2676,6922.5137,1423.1904,6908.1421,6914.6465
16470.5882,6983.6099,6985.1333,6982.1411,1382.2458,7006.0977,6991.0693
16490.1961,6929.9761,6935.4004,6923.5161,1399.2089,6907.1753,6915.1299
16509.8039,6983.6816,6987.7568,6981.7847,1425.1824,7007.0693,6990.5522
16529.4118,6929.4604,6931.8096,6923.2104,1436.1385,6906.0088,6915.3516
16549.0196,6983.2739,6989.6626,6981.1440,1449.0631,7006.7759,6989.2363
16568.6275,6935.4365,6947.8760,6955.6836,1415.0909,6904.4785,6916.8677
16588.2353,7244.3511,7339.4746,7238.9170,1326.0737,7447.7017,7260.5742
16607.8431,5043.1538,2198.4326,3686.7048,1107.0465,6464.6147,5700.3804
16627.4510,-835.1870,-7229.6455,-1370.3170,491.9403,-4989.6499,-1541.9097
16647.0588,-5239.1113,-7091.1611,-4982.9399,-177.0507,-7265.6875,-7052.4468
16666.6667,-7098.8965,-7113.0054,-6844.3188,-243.1092,-7320.1875,-7102.2290
16686.2745,-7112.4268,-7001.9478,-7029.1138,-271.0273,-7012.4238,-7149.8525
16705.8824,-6911.6533,-6900.8521,-6937.3921,-369.1919,-6881.6772,-6911.3970
16725.4902,-6964.8584,-6980.7817,-6976.2036,-489.1063,-6990.8179,-6978.8252
16745.0980,-6909.6729,-6897.4492,-6924.9038,-519.2324,-6883.1113,-6906.5254
16764.7059,-6965.0195,-6982.2251,-6978.7051,-524.0610,-6992.5063,-6977.2368
16784.3137,-6909.5522,-6893.9380,-6924.3481,-497.2464,-6882.4653,-6910.2832
16803.9216,-6963.6079,-6982.3257,-6976.6855,-429.8874,-6991.0112,-6973.7407
16823.5294,-6908.5635,-6891.4907,-6924.0854,-340.1499,-6881.7051,-6910.2236
16843.1373,-6963.4956,-6984.2368,-6975.9536,-347.8453,-6991.1294,-6969.6221
16862.7451,-6908.3560,-6888.9126,-6924.5454,-348.1472,-6880.8779,-6910.8071
16882.3529,-6963.3423,-6985.9468,-6975.1602,-343.7852,-6990.9033,-6972.5464
16901.9608,-6909.3237,-6920.0552,-6938.3267,-316.2008,-6882.6919,-6912.6729
16921.5686,-7053.6333,-7471.6812,-7159.6602,-285.7559,-7162.9233,-7072.9346
16941.1765,-6895.1338,-3576.3401,-5854.2627,-27.2429,-6663.2871,-6903.5845
16960.7843,-3557.0342,6533.6245,-1139.9103,582.3022,437.0282,-2576.9900
16980.3922,1152.1556,7338.8174,2313.3684,1161.8969,7852.4873,4136.6626
17000.0000,3364.4153,7000.3916,4721.8960,1301.5660,7371.3691,6919.2612
17019.6078,5565.7236,7016.4214,5717.0322,1301.8888,7013.4160,7045.8003
17039.2157,6314.7280,6904.7065,6086.9033,1300.5873,6903.3477,6903.3682
17058.8235,6985.7788,7019.0234,6834.2705,1356.7919,7012.3350,6976.7339
17078.4314,6944.9844,6904.2007,6967.7651,1414.6005,6903.5156,6927.6519
17098.0392,6983.7383,7020.2104,6975.8892,1473.7681,7014.1807,6979.6699
17117.6471,6927.5103,6901.4473,6941.1626,1520.5200,6903.0186,6933.2998
17137.2549,6979.0640,7020.9951,6976.3687,1528.6782,7012.4312,6980.5972
17156.8627,6923.6567,6899.7588,6940.2158,1545.5747,6903.2622,6933.7607
17176.4706,6978.3252,7021.3901,6976.0308,1594.4749,7010.9355,6978.7134
17196.0784,6924.7056,6898.5122,6937.1519,1616.6364,6903.6255,6934.9746
17215.6863,6978.1089,7022.5073,6973.2393,1637.4470,7010.2681,6977.2700
17235.2941,6924.8374,6897.3882,6938.0513,1636.6804,6904.1553,6936.2925
17254.9020,6977.8364,7023.3994,6972.2217,1635.3757,7009.4106,6975.7227
17274.5098,6925.8462,6914.1626,6948.5996,1584.7025,6904.7651,6937.4536
17294.1176,7071.0659,6972.2495,6985.7646,1292.1954,7096.5918,7039.6523
17313.7255,6549.9956,2490.5610,4862.4526,1150.7811,7070.6128,7017.8701
17333.3333,1552.2288,-6339.5083,539.1275,719.0967,-1012.1328,1704.5498
17352.9412,-987.1981,-6608.9292,-1085.8370,285.7203,-5932.9043,-1735.3026
17372.5490,-2409.7805,-6911.2964,-2699.4268,29.9660,-6664.5542,-3984.0857
17392.1569,-4043.5569,-6987.8999,-3518.3069,-54.0406,-7178.3340,-5972.9438
17411.7647,-5864.3730,-6862.6011,-5740.0107,-175.9489,-6894.9341,-6912.8853
17431.3725,-7038.0059,-7004.2280,-6834.2334,-209.8752,-6984.6992,-6974.7690
17450.9804,-6934.0034,-6870.4351,-6923.3481,-212.0320,-6891.5347,-6937.7349
17470.5882,-6969.8774,-7005.2739,-6928.4253,-209.8210,-6982.9951,-6957.4380
17490.1961,-6913.4561,-6868.9932,-6788.3760,-180.1694,-6889.9858,-6936.7002
17509.8039,-6961.3560,-7003.4082,-6643.2881,-156.7609,-6981.3135,-6954.5400
17529.4118,-6912.1807,-6867.9800,-6655.9932,-159.2100,-6890.7500,-6936.7607
17549.0196,-6955.2852,-7005.1133,-6431.3926,-146.6185,-6980.0488,-6952.9448
17568.6275,-6820.7095,-6868.7993,-6109.9287,-135.2872,-6892.4365,-6939.9146
17588.2353,-6803.6836,-6990.0513,-6070.2832,-132.4856,-6978.1685,-6950.8452
17607.8431,-6812.0176,-6874.4355,-6326.9399,-148.3680,-6893.9971,-6941.7065
17627.4510,-6942.1958,-7000.2173,-6570.2251,-158.4285,-6976.4580,-6948.8633
17647.0588,-6929.6289,-6872.5103,-6696.1602,-167.5647,-6895.7007,-6943.6777
17666.6667,-7002.9341,-7229.1152,-6210.7397,-152.3800,-7037.9946,-6994.1948
17686.2745,-6391.6240,-6349.6533,-5000.4673,-97.7769,-7096.8262,-6860.1919
17705.8824,-4910.6851,-4020.2944,-3280.5344,62.6427,-6522.2759,-5615.6138
17725.4902,-2855.2200,-928.0119,-1534.2131,324.0769,-4951.8687,-3502.1716
17745.0980,-1968.0620,635.5510,-937.6608,522.7902,-3591.5791,-2008.8022
17764.7059,-1919.0746,124.3846,-1072.5730,528.8824,-3174.8779,-2035.8257
17784.3137,-1332.0819,1334.5720,-4.2769,706.9562,-1011.3105,-949.9601
17803.9216,53.9116,5742.3101,2061.3054,978.8027,5424.0151,3292.3477
17823.5294,4317.0225,6741.4272,4737.0889,1224.1622,6963.4185,6648.8906
17843.1373,6157.1045,7141.5234,6039.9443,1304.7677,7138.3701,6991.8408
17862.7451,6286.9971,6873.4629,5927.2656,1294.2291,6927.3843,7014.9106
17882.3529,5332.6162,7084.5820,4893.2227,1243.6367,6997.3901,6737.8071
17901.9608,2883.3599,5509.5796,2841.9094,1080.4211,6158.4194,4926.0288
17921.5686,4354.0640,6601.7271,5811.5391,1271.5032,6932.5957,6434.0820
17941.1765,6714.5859,7004.8535,6818.1172,1374.5293,6962.5215,7117.3525
17960.7843,6974.3247,7022.2939,6947.7612,1474.4115,6977.2783,6943.6274
17980.3922,6937.7300,6887.7725,6959.5352,1508.7156,6935.0093,6969.7485
18000.0000,6974.6406,7026.4995,6958.0967,1494.4025,6980.8774,6942.1187
18019.6078,6941.1523,6890.1362,6959.8257,1470.9630,6936.2212,6975.4321
18039.2157,6973.0488,7026.7959,6956.3252,1492.3086,6977.2993,6940.3711
18058.8235,6939.9194,6889.9160,6960.4438,1551.0833,6935.9609,6977.3140
18078.4314,6972.0498,7026.3511,6955.3711,1591.1479,6975.0474,6938.0615
18098.0392,6940.5601,6889.8081,6961.0552,1616.1956,6937.7295,6979.0659
18117.6471,6972.0635,7046.2095,6963.7563,1554.0465,6973.1255,6935.9673
18137.2549,6985.3057,7096.7549,7044.5215,1468.2740,6998.5044,7014.7363
18156.8627,7296.3071,7538.3203,7319.0786,1382.9296,7509.3887,7353.1045
18176.4706,7362.0459,2567.9841,5450.8960,1198.3077,6969.2295,7126.7920
18196.0784,-139.3930,-7231.4277,-1059.3998,314.6789,-6596.8003,-1869.6886
18215.6863,-6751.7012,-7089.1147,-6878.9634,-275.6783,-6902.6094,-7181.9927
18235.2941,-7175.7896,-6878.2319,-7175.5029,-483.4711,-6926.3682,-7122.9248
18254.9020,-6954.8364,-7015.7607,-6936.7173,-538.6978,-6950.3169,-6914.4902
18274.5098,-6937.3149,-6878.9736,-6955.4609,-626.6668,-6930.1255,-6975.2827
18294.1176,-6959.3994,-7017.3066,-6940.7129,-633.6611,-6947.3096,-6917.7080
18313.7255,-6937.4263,-6879.8447,-6954.2324,-590.7307,-6928.5806,-6979.2720
18333.3333,-6956.6567,-7017.3247,-6942.2861,-487.5395,-6945.7725,-6916.9624
18352.9412,-6936.8071,-6878.4624,-6954.1841,-284.7089,-6928.5059,-6979.9595
18372.5490,-6956.5298,-7017.3081,-6941.8350,-194.3764,-6944.2490,-6915.2090
18392.1569,-6937.6304,-6878.1577,-6955.2910,-172.7822,-6929.6445,-6981.2275
18411.7647,-6955.4409,-7017.5425,-6943.4927,-140.2540,-6943.1030,-6913.6196
18431.3725,-6938.3428,-6877.7529,-6938.2803,-153.7642,-6930.6450,-6982.4434
18450.9804,-6954.0854,-7017.7886,-6929.7881,-175.2210,-6942.1416,-6912.2373
18470.5882,-6939.3687,-6878.4556,-6943.5698,-222.8423,-6931.5327,-6983.7329
18490.1961,-6953.2505,-7024.1934,-6955.6274,-214.1461,-6941.3311,-6911.0518
18509.8039,-6956.4609,-6978.0630,-7024.7002,-188.9253,-6932.2661,-6990.8389
18529.4118,-7014.4673,-7147.6460,-6822.4546,-152.1632,-6985.6787,-6957.9058
18549.0196,-6922.3188,-6370.5049,-6187.6758,-124.9445,-6966.8403,-7021.9136
18568.6275,-6438.2144,-4568.7529,-4132.1606,45.8659,-6953.1909,-6649.0459
18588.2353,-4015.9812,1223.7007,-2050.0513,439.0097,-2788.9236,-4618.4839
18607.8431,-1383.6953,4324.1167,-280.3914,779.0280,2225.0593,-604.1940
18627.4510,2398.3560,7234.1699,3320.8962,1127.1189,7475.6064,4871.2524
18647.0588,7106.6069,6888.4800,7168.5835,1416.1597,6999.1338,7275.0645
18666.6667,7061.2319,7115.7896,7050.7715,1538.2776,7092.6309,7061.3066
18686.2745,7102.9458,6881.6738,7057.8115,1655.1991,6954.0889,7060.7603
18705.8824,6963.0522,7030.0742,6949.6636,1661.2152,6961.5942,6917.7192
18725.4902,6954.2065,6885.5742,6965.0088,1592.2172,6956.0571,6999.3662
18745.0980,6957.9810,7030.7490,6951.7275,1525.2698,6961.8711,6916.4395
18764.7059,6959.0986,6882.8267,6965.5371,1505.1831,6955.7471,7000.6748
18784.3137,6955.4897,7030.2026,6951.3633,1475.1794,6961.4146,6916.5439
18803.9216,6957.3965,6881.4473,6965.6714,1483.0565,6954.1377,6999.7500
18823.5294,7216.6494,7619.5786,7255.9414,1424.1327,7316.9355,7195.0366
18843.1373,7396.1211,7362.1982,7053.8359,1258.8901,7179.1147,7399.3970
18862.7451,2748.8450,-5097.7451,1196.3342,842.1271,1414.0773,2524.0605
18882.3529,-5769.6885,-6998.4609,-6064.0430,-189.2878,-7657.5122,-6947.6299
18901.9608,-7341.1582,-7468.3911,-7312.2632,-429.9280,-7200.9888,-7188.9004
18921.5686,-7281.1714,-7032.4717,-7231.9951,-516.4143,-7136.7559,-7218.3384
18941.1765,-6960.4497,-6862.5703,-6946.0459,-431.8788,-6929.9341,-6975.7720
18960.7843,-6945.3755,-7017.2607,-6935.4453,-357.5009,-6946.9058,-6898.6523
18980.3922,-6951.4355,-6858.7642,-6942.6582,-362.7809,-6929.6821,-6978.4438
19000.0000,-6943.4160,-7016.0815,-6933.8433,-368.5703,-6946.2339,-6897.2158
19019.6078,-6956.5698,-6858.9985,-6942.1982,-363.6782,-6928.3154,-6977.9414
19039.2157,-6941.2407,-7016.8247,-6935.4141,-291.6606,-6947.7153,-6897.8179
19058.8235,-6991.1470,-6943.6074,-7018.3672,-184.5586,-6946.6992,-7007.1421
19078.4314,-7010.8965,-7166.4370,-6637.1699,-132.6988,-7014.2480,-6959.8013
19098.0392,-7040.9810,-6228.5044,-4846.3950,-32.2775,-7055.1187,-7103.0610
19117.6471,-5537.6353,-103.1320,-2330.3870,201.1600,-5259.6895,-6105.3296
19137.2549,-1710.3004,4423.4502,-373.3332,730.8804,142.4221,-1288.4951
19156.8627,-125.0895,5743.5132,747.2220,892.1100,4513.2920,1159.2164
19176.4706,3981.2273,6970.5854,4534.7095,1240.0920,6959.0566,6491.2217
19196.0784,6724.4146,6902.0205,6592.3730,1347.0389,7005.6680,6948.0508
19215.6863,6959.0586,7038.5552,7052.8291,1416.2427,6970.1162,7022.3247
19235.2941,7088.9092,6880.6265,6966.4561,1494.9808,6933.7368,7040.5889
19254.9020,6963.7754,7040.7012,6958.3047,1555.5663,6972.1543,6924.6919
19274.5098,6969.3364,6875.9028,6958.0029,1616.8896,6931.4810,6991.5859
19294.1176,6943.8755,7040.3374,6961.0273,1680.7637,6974.3628,6922.8730
19313.7255,6969.1855,6873.2866,6959.3760,1705.7260,6928.2319,6992.1616
19333.3333,6942.0830,7040.9297,6959.6646,1676.9211,6976.6484,6927.3447
19352.9412,6969.9873,6872.7192,6957.5156,1627.5460,6925.9131,6989.7979
19372.5490,6941.2954,7041.4712,6960.3872,1588.0099,6978.9971,6928.7900
19392.1569,6970.7607,6872.2051,6956.7837,1548.3644,6924.5366,6988.3188
19411.7647,6942.4888,7066.9614,6971.2227,1455.2239,6982.3970,6929.3472
19431.3725,7008.5879,7073.7881,7037.2480,1403.1637,6960.1172,7008.7212
19450.9804,7197.9507,7711.5605,7263.1147,1332.3464,7502.9121,7215.0024
19470.5882,7140.2822,4760.5449,6356.9653,1241.9540,7393.6470,7455.2573
19490.1961,4703.5088,-1954.1388,3471.7913,987.3701,2427.6753,4632.6265
19509.8039,-505.3727,-7451.6733,-988.7875,327.5727,-6651.2197,-2106.1213
19529.4118,-7298.5562,-6888.5459,-7156.5840,-340.5100,-6991.5986,-7312.0044
19549.0196,-7045.5356,-7026.1694,-7068.5889,-308.6805,-6971.5049,-6931.1938
19568.6275,-6950.4155,-6854.1543,-6936.1914,-257.3779,-6896.9888,-6961.6382
19588.2353,-6918.7173,-7025.1860,-6943.1113,-237.9569,-6980.1719,-6915.4380
19607.8431,-6956.7388,-6853.2334,-6926.9590,-201.2225,-6895.8901,-6959.8979
19627.4510,-6918.7163,-7026.2510,-6939.4331,-175.1496,-6980.5879,-6917.3501
19647.0588,-6956.6084,-6853.1465,-6927.3906,-309.1025,-6893.4238,-6956.2593
19666.6667,-6918.1748,-7026.2915,-6950.3740,-350.3332,-6983.0234,-6919.9985
19686.2745,-6957.1768,-6853.1450,-6930.5327,-329.9131,-6891.0059,-6954.5635
19705.8824,-6917.6548,-7026.2534,-6945.2017,-251.5340,-6985.4204,-6921.6870
19725.4902,-6957.6768,-6853.2231,-6928.8101,-220.6832,-6888.6323,-6952.8823
19745.0980,-6917.1680,-7026.1353,-6946.8916,-212.6685,-6987.7676,-6923.3579
19764.7059,-6958.1108,-6857.3818,-6949.9595,-234.5574,-6886.3140,-6951.2251
19784.3137,-7030.8984,-7294.9790,-7116.7793,-198.8407,-7015.0552,-6997.0273
19803.9216,-7083.7114,-7071.6553,-6716.1426,-151.3012,-7194.0723,-7161.6304
19823.5294,-6745.3179,-5751.4712,-5430.3027,-71.9774,-7184.2788,-6875.5693
19843.1373,-3972.5781,-178.9134,-1953.8180,204.7796,-5707.8877,-5004.7314
19862.7451,-312.3080,5886.2798,993.4992,836.8320,2824.7390,642.6143
19882.3529,6579.2456,7289.2437,6654.9395,1384.2423,7282.4131,7072.5195
19901.9608,7196.5444,6962.0166,7014.3447,1502.9016,7055.2817,7231.5864
19921.5686,6977.2207,7052.6689,6993.7827,1596.3816,7021.4268,6956.8975
19941.1765,6978.0249,6880.1938,6943.2070,1673.7897,6895.4019,6957.2466
19960.7843,6938.7451,7050.5093,6970.2334,1685.6929,7024.9966,6948.3682
19980.3922,6983.0537,6879.7290,6942.9917,1655.7589,6896.8535,6957.8550
20000.0000,6936.5830,7049.9224,6973.0547,1534.8226,7026.8296,6948.7607
20019.6078,6981.0767,6880.3374,6944.1470,1470.6454,6896.0381,6956.5654
20039.2157,6936.3555,7050.2495,6979.9297,1406.9236,7028.5264,6949.9785
20058.8235,7000.2944,6949.0508,6988.6636,1390.5304,6923.3955,6975.1650
20078.4314,7198.4482,7629.6060,7279.5078,1389.0471,7468.1279,7237.0889
20098.0392,7453.4912,6998.8301,6974.9438,1320.3954,7332.8843,7469.1987
20117.6471,-1736.6796,-7492.1333,-2380.8828,266.9622,-6232.8979,-3524.0300
20137.2549,-7233.8594,-7438.2168,-7154.4121,-328.8784,-7381.0469,-7587.4761
20156.8627,-7187.4668,-6914.9219,-7147.8223,-356.9479,-7162.5913,-7261.6152
20176.4706,-7037.8599,-7019.1396,-6983.7959,-305.8975,-7003.3091,-6960.1353
20196.0784,-6968.4434,-6858.7720,-6917.3438,-270.8643,-6863.3638,-6934.7578
20215.6863,-6919.7114,-7016.1533,-6950.3672,-313.0364,-7009.4180,-6939.8916
20235.2941,-6967.7832,-6856.7407,-6918.2563,-470.9223,-6862.7534,-6936.2505
20254.9020,-6923.0366,-7015.8164,-6954.2041,-493.1679,-7010.3511,-6939.1421
20274.5098,-6969.0225,-6858.5254,-6918.1680,-442.8926,-6862.3862,-6935.1060
20294.1176,-6923.6890,-7016.2637,-6955.4336,-390.3152,-7012.3428,-6940.5415
20313.7255,-6969.9185,-6859.7783,-6918.6577,-323.9940,-6862.6362,-6935.9736
20333.3333,-6924.6211,-7015.0967,-6956.4883,-264.3366,-7013.0181,-6941.5410
20352.9412,-6976.3423,-6923.9199,-6959.5518,-234.9932,-6861.8999,-6937.5493
20372.5490,-6992.8682,-7170.9512,-7051.8765,-215.3200,-7114.6187,-7013.8086
20392.1569,-7122.2280,-7175.1509,-7127.2344,-161.9799,-7080.3813,-7109.5640
20411.7647,-7082.0269,-5347.4536,-3663.8940,40.6208,-7577.0908,-7426.0615
20431.3725,-3613.8879,4083.8987,574.7268,832.0590,-2146.3186,-3557.0242
20450.9804,949.6962,6934.2554,4039.8660,1202.7686,7478.1333,3139.1116
20470.5882,6946.8003,7085.2104,6795.9795,1385.1661,7154.7593,7136.2090
20490.1961,7079.2642,6885.5615,6865.0962,1386.8721,6881.9448,6999.9258
20509.8039,6962.0317,7029.0386,6991.5645,1386.1284,7035.8940,6969.1675
20529.4118,6991.4136,6886.1235,6947.8921,1388.9292,6878.9614,6956.2954
20549.0196,6937.4761,7027.8687,6972.7544,1384.0812,7034.0479,6958.9600
20568.6275,6977.9673,6887.2764,6934.7671,1379.9877,6879.9263,6953.7681
20588.2353,6934.2329,7027.1860,6975.7222,1363.9362,7033.8149,6956.8862
20607.8431,6990.3838,6893.4585,6943.1382,1356.0557,6880.6147,6955.0020
20627.4510,7043.0327,7072.6841,6959.2144,1324.0054,7034.8013,6978.0103
20647.0588,6940.5117,6973.6250,6430.5117,1273.2189,6897.1128,7024.0444
20666.6667,6140.7651,6755.3667,5501.3374,1229.9634,7136.5073,6932.1138
20686.2745,4821.9395,5714.4487,3949.2129,1146.3744,7076.9521,6319.6357
20705.8824,1804.0396,-2014.2871,469.3138,765.7221,393.7607,622.5585
20725.4902,-2150.6206,-5833.8179,-1960.9019,384.4420,-5242.1563,-3659.5051
20745.0980,-5731.8696,-7323.6958,-5285.7646,-160.4500,-7475.6265,-7011.4741
20764.7059,-7226.0957,-7053.5200,-7261.1763,-293.4081,-7130.6484,-7129.9185
20784.3137,-7063.7500,-6893.3281,-7025.2090,-360.5897,-6877.5513,-6969.8677
20803.9216,-6926.3916,-6993.2285,-6975.8496,-388.3482,-7012.0596,-6935.6548
20823.5294,-6957.3223,-6877.7686,-6916.5098,-331.7715,-6862.4146,-6942.9629
20843.1373,-6915.5273,-6997.3965,-6955.4355,-292.0925,-7009.7441,-6931.1826
20862.7451,-6955.9644,-6879.1924,-6916.7778,-278.8902,-6863.2275,-6941.3574
20882.3529,-6915.8994,-6996.0952,-6955.1929,-269.9527,-7007.9097,-6929.8960
20901.9608,-6956.0059,-6881.4351,-6917.5498,-283.1191,-6865.0728,-6943.3594
20921.5686,-6916.7207,-7006.2598,-6974.2827,-276.8198,-7007.6421,-6929.0933
20941.1765,-6989.4497,-6961.9907,-7037.5059,-181.3555,-6919.2319,-6976.1533
20960.7843,-7108.0186,-5577.4590,-5743.4453,-74.5762,-7123.3950,-7040.5117
20980.3922,-6276.0327,-2234.8159,-3630.4050,77.4465,-5875.4766,-5979.6826
21000.0000,-3592.0278,1210.7239,-2144.4915,441.5557,-3098.6665,-3914.1816
21019.6078,-1944.2139,3787.9465,-759.9104,725.2770,2018.9596,-1468.7517
21039.2157,-462.9463,5059.5659,322.9044,902.8047,4536.4214,569.5938
21058.8235,1697.9019,6739.3257,2205.4243,1079.1110,7052.9141,4166.5508
21078.4314,3027.9924,6776.4907,3388.2180,1164.0885,6992.0654,5860.0938
21098.0392,5222.4043,7060.0454,5558.7769,1273.9222,7046.2622,6763.6196
21117.6471,6824.9048,6921.5098,6793.9819,1376.4703,6897.4189,7047.2432
21137.2549,7029.8081,7008.8633,7011.0586,1424.6895,7020.8149,6976.2441
21156.8627,7012.1431,6910.9092,6972.4360,1479.6575,6899.7480,6979.5737
21176.4706,6943.8989,7002.2163,6975.1953,1480.4670,7019.1475,6935.0508
21196.0784,6977.9668,6910.5327,6951.2363,1438.8481,6898.4424,6978.7310
21215.6863,6941.3438,7005.5996,6995.2969,1350.1903,7017.4448,6936.1499
21235.2941,7007.1133,6942.3486,6945.2847,1345.1146,6899.2803,6986.0513
21254.9020,7134.3418,7250.8984,6858.0010,1297.9756,7041.5938,7028.7974
21274.5098,6806.5039,7120.9048,6194.0962,1271.3333,7495.0625,7399.9180
21294.1176,1903.8993,-246.3731,1247.3458,943.6420,3428.4233,3203.3154
21313.7255,-4188.0107,-7795.3530,-4343.0005,102.4394,-7618.6621,-5831.2837
21333.3333,-7381.9771,-7081.0688,-7300.4546,-351.6862,-7032.5405,-7289.9966
21352.9412,-7100.4053,-7072.6206,-7146.4775,-402.3334,-7193.7891,-7141.4346
21372.5490,-7018.7832,-6901.6426,-6937.6709,-385.9732,-6884.4053,-6990.8501
21392.1569,-6920.5830,-6975.0601,-6954.4463,-369.0635,-6987.8296,-6905.3926
21411.7647,-6953.8066,-6900.1147,-6934.1880,-244.2519,-6888.7798,-6970.5474
21431.3725,-6920.4165,-6973.3931,-6949.9175,-206.9018,-6989.1299,-6905.9858
21450.9804,-6954.1855,-6902.8623,-6935.7310,-217.4684,-6891.1187,-6973.3086
21470.5882,-6920.9375,-6969.8076,-6949.1235,-244.7201,-6987.1743,-6903.0015
21490.1961,-6954.1299,-6902.4971,-6947.9204,-230.6720,-6893.1265,-6975.3994
21509.8039,-6921.0854,-7007.5293,-6961.7417,-205.4368,-6985.1255,-6905.0015
21529.4118,-7106.1533,-7153.7114,-6815.0610,-164.8486,-7023.1860,-7089.1616
21549.0196,-7013.4321,-6330.8584,-5834.5405,-145.1229,-7354.0757,-7192.2822
21568.6275,-4883.7129,-1167.3761,-3033.6965,230.0021,-5025.8862,-5122.7568
21588.2353,-1048.5948,5374.0845,292.1674,805.1035,3878.1118,255.3968
21607.8431,2618.0605,7197.8564,3462.8748,1187.9049,7032.2568,5565.5078
21627.4510,5569.8765,7263.9653,6517.0918,1342.3815,7505.5356,7043.0942
21647.0588,7040.7153,6982.2612,6959.0508,1375.8030,6994.1992,6907.9019
21666.6667,6997.0313,6926.6372,6989.3066,1384.6030,6915.5801,7001.9316
21686.2745,6954.2026,6978.3477,6993.3242,1365.5419,6992.2075,6910.1040
21705.8824,6999.1064,6936.3125,6977.4575,1348.7365,6918.9600,7004.7651
21725.4902,6942.0259,7011.5356,6853.1372,1303.4175,6988.9595,6929.3633
21745.0980,6782.8633,6870.6499,6390.5317,1278.8698,6920.0493,6974.3179
21764.7059,5500.6348,6408.1851,5198.7910,1209.3396,6989.3496,6549.9087
21784.3137,6045.8018,6830.4258,6366.0396,1291.0552,6922.4541,6955.6074
21803.9216,6944.9399,6983.7749,6948.1221,1357.2444,6987.2788,6901.5063
21823.5294,7043.8438,6971.8940,7036.2578,1429.2085,6924.4800,7033.7168
21843.1373,6951.7612,6983.3286,6975.9917,1484.1548,6984.2197,6910.2212
21862.7451,6976.0220,6940.3423,6964.2822,1537.3712,6926.5464,7013.0186
21882.3529,7031.7759,7174.8325,7032.9590,1397.0503,7017.1592,6984.1724
21901.9608,7060.8481,7157.5244,6469.8975,1268.3717,7479.6245,7124.0371
21921.5686,6938.4922,3746.1223,4651.4346,1138.8248,6873.5073,6127.8169
21941.1765,1716.9089,-3030.6448,987.6896,847.3785,2278.3413,2591.0300
21960.7843,-1969.0713,-6793.0679,-2005.7264,327.6326,-6386.8428,-3231.1367
21980.3922,-5221.0425,-7193.9082,-4854.0811,-166.7648,-7293.7148,-6971.0142
22000.0000,-7046.0981,-6949.7119,-7006.3687,-331.5359,-6969.7075,-7085.8696
22019.6078,-6980.9482,-6951.7930,-6991.2856,-355.6839,-6968.8447,-6905.8916
22039.2157,-6954.8975,-6923.9033,-6942.1353,-331.5385,-6929.6479,-6994.1743
22058.8235,-6920.4365,-6950.3516,-6928.1221,-267.7187,-6963.6284,-6882.0278
22078.4314,-6953.2295,-6925.7554,-6961.1880,-259.5916,-6931.7319,-6994.4409
22098.0392,-6940.8843,-6996.0703,-6965.6660,-220.7032,-6963.4766,-6890.8330
22117.6471,-7202.2993,-7393.0557,-6527.7305,-152.5166,-7086.8159,-7200.8032
22137.2549,-5820.8745,-4851.5015,-4224.8511,-33.7316,-7312.3794,-6557.4033
22156.8627,-3414.7275,-289.2306,-804.6016,529.5348,-4508.6377,-3723.4019
22176.4706,-1208.3015,3838.5806,394.9485,781.3021,1938.5885,-830.6720
22196.0784,355.0157,4638.6499,1013.8386,871.6487,3657.8469,1477.5763
22215.6863,827.7582,5035.2139,1328.4467,932.4088,4981.3721,2319.7869
22235.2941,3373.9180,6529.8643,3786.0664,1147.8162,6725.0210,5825.4331
22254.9020,5944.3379,7041.6021,6017.3228,1298.3168,7082.8135,6859.1885
22274.5098,6941.2480,6974.7949,6802.0278,1359.8534,6960.8687,7049.9614
22294.1176,7092.3135,6953.7056,7035.8330,1422.2512,6952.9482,7001.6260
22313.7255,6931.3770,6959.6685,6970.9653,1431.9900,6962.7144,6896.3882
22333.3333,6973.0840,6954.7544,6980.8359,1472.1765,6956.0630,7014.1333
22352.9412,6941.0859,6963.9238,6950.6899,1550.2241,6959.2056,6899.4185
22372.5490,6971.5327,6954.4282,6971.2241,1570.0936,6959.3965,7011.1372
22392.1569,6942.9111,6963.0864,6949.2949,1553.4362,6957.3237,6900.9282
22411.7647,6972.6118,6956.3647,6977.2998,1534.9758,6961.5435,7010.3110
22431.3725,6943.1245,6965.0005,6966.2290,1364.5295,6955.1113,6901.8940
22450.9804,6970.1763,6946.4150,6886.7476,1270.6847,6963.4712,7009.0889
22470.5882,6965.0493,7020.4551,6801.3120,1277.6434,6962.1597,6925.4976
22490.1961,7081.6460,7173.1563,6874.3047,1318.4863,7215.0400,7149.6523
22509.8039,7000.6338,6715.3530,6696.0537,1284.7888,7094.6274,7035.0493
22529.4118,6056.6812,5095.6396,5150.9312,1206.1866,6916.2085,6736.0425
22549.0196,1836.2003,-4077.8936,1259.5112,769.9821,-1097.3480,2012.6069
22568.6275,-3043.7170,-7401.0098,-5367.7207,-202.1336,-7556.1333,-5671.0073
22588.2353,-7175.6240,-6952.5195,-7104.9014,-325.9218,-6966.4526,-7044.8574
22607.8431,-6947.8794,-6939.6270,-6937.7246,-330.4756,-6927.2412,-6903.0093
22627.4510,-6948.2090,-6940.5991,-6945.3188,-339.6804,-6954.0547,-6984.3916
22647.0588,-6917.3027,-6934.5898,-6931.5376,-336.7334,-6922.8867,-6892.8477
22666.6667,-6942.6982,-6938.9648,-6945.2627,-323.3960,-6954.8779,-6982.2129
22686.2745,-6918.6733,-6934.6147,-6930.2695,-298.9411,-6919.4678,-6892.7842
22705.8824,-6943.3652,-6940.5371,-6943.7490,-287.1168,-6957.8960,-6980.5005
22725.4902,-6919.5703,-6934.2876,-6931.4429,-269.2797,-6917.9219,-6895.4648
22745.0980,-6942.9595,-6941.3735,-6942.8716,-263.8465,-6960.2817,-6978.5327
22764.7059,-6920.2607,-6933.5918,-6932.5864,-242.6088,-6915.7563,-6897.8530
22784.3137,-6942.4229,-6942.1313,-6941.8340,-235.5516,-6962.5205,-6976.2378
22803.9216,-6920.9888,-6932.5869,-6933.7080,-229.9327,-6913.6748,-6900.3472
22823.5294,-7045.6328,-7246.9551,-7106.5635,-182.1778,-7001.9814,-7042.4341
22843.1373,-7046.8384,-6985.1440,-6217.1885,-144.0877,-7206.2734,-7192.8540
22862.7451,-5611.8418,-2660.9636,-4027.7957,37.2151,-7112.0278,-6388.0098
22882.3529,-2833.9717,3080.7109,-1191.8647,483.5640,-954.4641,-2676.8013
22901.9608,473.3326,6348.2295,1581.7318,980.6359,5198.0815,2134.3901
22921.5686,3023.5618,7054.9849,3695.1489,1182.2885,7133.3779,5786.3296
22941.1765,5426.8188,7025.6504,6610.7251,1352.0321,7055.3696,7003.7754
22960.7843,7033.3096,6964.6392,7060.2573,1404.9679,6992.3784,6987.4790
22980.3922,6960.7207,6950.9702,6969.3525,1386.4464,6925.3838,6934.6040
23000.0000,6964.3940,6966.3042,6963.8076,1377.6464,6995.3315,6978.6167
23019.6078,6952.7832,6949.2485,6968.8057,1365.7437,6923.4395,6935.6089
23039.2157,6960.6953,6967.1577,6897.2842,1347.2408,6997.1875,6975.6875
23058.8235,6929.1343,6949.5503,6773.8271,1294.1353,6922.4121,6940.1597
23078.4314,6718.2065,6968.5728,6176.2661,1252.0009,7000.0728,6976.4492
23098.0392,6730.5674,6949.0566,6386.8296,1270.5579,6920.8247,6942.9590
23117.6471,6849.5947,6969.2715,6669.8687,1295.6039,7001.7969,6973.3550
23137.2549,7037.7104,7056.3677,6894.3794,1335.9186,6926.1284,6990.0088
23156.8627,7097.5386,7267.7764,6916.0942,1339.2673,7332.4653,7173.0811
23176.4706,7144.6870,6882.5864,6636.0337,1293.1563,6946.2598,7109.7202
23196.0784,-912.8555,-6120.9419,-1236.6851,522.7001,-5060.3701,-2039.9064
23215.6863,-6052.2988,-7332.8677,-7148.1030,-300.5888,-6715.3472,-6810.2993
23235.2941,-7260.4829,-6957.2695,-7038.9976,-343.6621,-6982.1777,-7099.5928
23254.9020,-7027.3081,-6954.5488,-6988.3872,-365.2765,-7008.7871,-6970.1533
23274.5098,-6946.3521,-6923.5200,-6961.7461,-391.0586,-6890.7808,-6937.8252
23294.1176,-6948.4287,-6951.3071,-6920.9976,-376.9303,-6987.1240,-6943.7378
23313.7255,-6946.4399,-6924.7505,-6950.2236,-410.3718,-6890.5010,-6944.2124
23333.3333,-6945.1479,-6953.0850,-6918.2109,-442.5936,-6986.3447,-6939.4927
23352.9412,-6948.4961,-6923.9556,-6951.8301,-459.6524,-6888.3389,-6947.4995
23372.5490,-6944.0474,-6953.9370,-6916.7627,-424.2839,-6987.4233,-6936.2031
23392.1569,-6949.7075,-6924.3652,-6954.8467,-343.0112,-6887.3530,-6950.8857
23411.7647,-6943.6074,-6987.5933,-6936.7866,-264.0284,-6988.8853,-6933.4893
23431.3725,-6963.1411,-6595.6064,-6749.2607,-133.2816,-6886.6934,-6959.3672
23450.9804,-6871.4580,-5950.6221,-6276.0342,-102.5953,-6988.4722,-6910.9370
23470.5882,-6823.5444,-5770.7710,-6194.0654,-111.5341,-6886.0625,-6915.2817
23490.1961,-6884.6133,-6657.7285,-6593.7520,-162.3303,-6990.3325,-6938.8530
23509.8039,-6971.5029,-7039.0859,-6966.5938,-196.8337,-6930.5112,-6983.4370
23529.4118,-7083.2764,-7352.9160,-7098.9644,-218.0420,-7280.0288,-7079.1924
23549.0196,-5154.2974,-387.0709,-3490.5940,219.8325,-3940.6465,-5122.4736
23568.6275,-2116.6079,4774.5078,-810.8523,750.2354,2589.3970,-1357.2830
23588.2353,-409.6695,6325.4980,683.3852,997.7369,6373.8271,1220.0427
23607.8431,741.4622,6669.7876,1361.4272,1032.5283,6967.7813,3121.0105
23627.4510,2509.3813,7054.6475,4375.9263,1206.4503,7096.0464,5635.5244
23647.0588,6479.2700,6956.7852,6478.9648,1327.7941,6921.6680,7146.5562
23666.6667,7043.0269,6978.6973,7018.1045,1447.2933,7017.0732,6926.9434
23686.2745,6968.1260,6933.7144,6986.0352,1488.0117,6909.7202,6984.4048
23705.8824,6946.0078,6980.8013,6937.1050,1455.0720,7016.9521,6921.0029
23725.4902,6971.2192,6944.6338,7013.0972,1337.1936,6910.9556,6995.0952
23745.0980,7008.3296,6979.6206,6746.7329,1258.8126,7016.6987,6922.3433
23764.7059,6861.5210,6792.1299,6047.0024,1226.3148,6912.5571,7026.3364
23784.3137,5114.6875,6113.5806,4634.7397,1176.6306,7024.3979,6409.7954
23803.9216,4452.5815,5844.3970,4100.4858,1159.5071,6863.2310,6259.8281
23823.5294,3218.0747,4946.6572,2902.0574,1070.5298,6737.1694,5292.6777
23843.1373,2075.2632,3164.7036,1900.8408,988.5844,6255.9146,3924.2092
23862.7451,1154.2192,2084.4167,1228.5853,905.3102,5066.0586,2700.0181
23882.3529,1581.9003,3356.5774,2406.7415,1008.8064,5875.7944,3364.7207
23901.9608,3621.1892,5689.2168,3097.7791,1100.2576,6483.3955,6035.1675
23921.5686,541.6803,28.8076,335.8972,849.9172,3188.4907,1443.9370
23941.1765,-2997.0068,-6057.8833,-2792.0317,286.0334,-5741.1685,-4084.9998
23960.7843,-5227.2920,-7095.0869,-4589.2627,-73.0847,-7015.4185,-6655.8511
23980.3922,-4741.8960,-6127.6270,-3712.2490,-33.9912,-6589.4888,-6069.2583
24000.0000,-2454.2354,-3144.6934,-1360.6150,328.0400,-4323.7158,-2632.2231
24019.6078,2468.6943,6541.2896,2763.6367,1078.0365,6798.5308,4837.0317
24039.2157,759.6747,2453.5095,756.7969,887.2009,3965.5708,1899.5906
24058.8235,-1988.6594,-3975.0322,-1686.3900,527.9012,-3690.4023,-2412.9236
24078.4314,-2621.5156,-3987.0884,-1937.9652,362.2423,-4448.2202,-3172.5952
24098.0392,-1971.7250,-2568.5444,-1226.8296,470.9279,-3267.1985,-2110.4441
24117.6471,-1307.9369,-995.9329,-643.2802,630.3456,-1527.0602,-1043.6171
24137.2549,-1457.0649,-1479.2090,-902.6151,582.8784,-1678.7212,-1369.8822
24156.8627,-2652.3733,-3661.2798,-2017.4835,410.2081,-4295.1816,-3243.1267
24176.4706,-3322.0635,-4416.4521,-2571.8191,256.7740,-5585.1934,-4239.3208
24196.0784,-2761.0598,-2781.6345,-1850.4467,365.1360,-4118.6040,-3105.4609
24215.6863,-523.0426,2098.4248,366.7392,705.8436,1109.3721,392.8481
24235.2941,3108.6245,7099.1128,3737.4526,1128.2202,7267.7910,5631.5171
24254.9020,7081.5234,7069.5293,6980.3184,1362.9027,7082.8203,7006.6860
24274.5098,7060.2134,6925.7896,7025.9360,1418.2257,6931.1157,7061.5728
24294.1176,6964.6436,7002.6011,6928.8687,1419.9496,6989.4395,6899.6934
24313.7255,6976.1807,6913.0464,6982.7930,1437.1431,6927.4009,7019.2856
24333.3333,6939.1528,7001.3589,6925.6655,1410.9464,6986.5303,6896.7734
24352.9412,6996.8760,6940.4487,7028.6660,1395.0803,6934.2373,7029.5962
24372.5490,7268.1279,7527.4751,6970.5610,1283.9320,7460.5698,7239.8354
24392.1569,5863.2466,5361.7666,4793.1611,1187.9519,7217.5518,6829.4741
24411.7647,1423.3813,-2782.4902,761.6814,812.9496,900.1326,1760.5410
24431.3725,-5037.3511,-7008.8711,-4777.2759,-139.1906,-7036.2153,-6694.8032
24450.9804,-7049.5996,-7181.0479,-6763.0020,-253.0532,-7345.4321,-7191.7095
24470.5882,-7082.7383,-7022.9751,-6942.7334,-271.3221,-7014.4058,-7066.6538
24490.1961,-6964.2373,-6890.9292,-7021.9009,-250.9897,-6921.2598,-7003.6621
24509.8039,-6933.1694,-6989.0088,-6786.1782,-201.3849,-6953.5288,-6875.5483
24529.4118,-6948.1304,-6888.9282,-6404.4043,-157.8109,-6922.1641,-7002.7036
24549.0196,-6911.2354,-6988.9751,-6243.3701,-142.4368,-6951.5977,-6874.6670
24568.6275,-6929.7974,-6887.9824,-6734.0386,-187.7580,-6925.1201,-7000.6558
24588.2353,-6918.6270,-6990.8379,-6916.8916,-223.6078,-6948.6240,-6874.8872
24607.8431,-6970.4771,-6899.2231,-6799.5942,-180.6687,-6928.2305,-7000.4937
24627.4510,-6883.2461,-6940.1489,-6435.1919,-146.5580,-6944.8340,-6874.5034
24647.0588,-6855.5293,-6772.8418,-6073.4990,-146.2961,-6928.0713,-6997.7700
24666.6667,-6865.0054,-6954.8833,-6148.1440,-156.5456,-6942.6104,-6892.6060
24686.2745,-6883.1572,-6883.2012,-5926.1606,-164.2455,-6974.0962,-7021.1973
24705.8824,-6451.3711,-6566.4854,-5206.5889,-119.6176,-7389.6641,-6855.2891
24725.4902,-4255.3389,-438.6289,-1661.3649,341.8480,-4170.7988,-3346.2422
24745.0980,390.7734,6075.4722,1452.2302,900.2789,4403.5645,2015.8099
24764.7059,4017.4692,7191.4429,4645.6606,1231.0773,7286.3071,6884.4839
24784.3137,6726.0684,7003.1753,6718.2661,1344.2397,7152.9644,7048.7534
24803.9216,6926.3232,7065.6714,6934.2793,1352.1439,7032.2476,7017.3521
24823.5294,7056.7886,6903.9380,6969.8745,1409.1628,6963.0015,7050.7563
24843.1373,6940.5210,7013.7788,6942.7637,1579.2587,6945.1802,6896.0850
24862.7451,6972.1411,6903.5903,6966.4072,1660.0505,6961.9429,7013.5513
24882.3529,6942.6372,7013.3501,6946.9014,1684.3873,6942.0439,6897.8037
24901.9608,6970.4980,6902.8911,6967.5581,1678.8807,6964.5581,7012.1660
24921.5686,6942.5200,7012.6079,6949.7876,1579.3489,6937.9678,6898.3105
24941.1765,6968.8726,6909.1250,6999.9502,1487.7963,6967.1777,7010.5693
24960.7843,7046.9199,6910.5913,6911.1113,1264.4092,6988.0386,6926.5659
24980.3922,6988.5933,5722.3447,6149.6147,1198.6633,6935.1548,6983.4688
25000.0000,4950.7227,1298.2709,4028.0049,1080.4896,6451.1538,6150.7163
25019.6078,3782.6599,296.8417,3283.7041,962.5526,4258.7017,4815.7856
25039.2157,3881.5051,2329.1575,3648.7759,1014.4860,5460.9868,5399.4683
25058.8235,4291.2603,3536.2290,4088.3059,1075.4988,5406.6245,5996.1655
25078.4314,-298.4136,-5160.6548,-2838.1775,61.3073,-4818.7764,-1423.7400
25098.0392,-7035.8296,-7309.0220,-7005.8843,-274.6832,-7241.7979,-7030.6680
25117.6471,-7151.1201,-7078.9736,-7128.7510,-361.5905,-7198.7983,-7352.0923
25137.2549,-7073.1084,-6994.9385,-7101.0723,-305.7899,-6919.1191,-6924.8994
25156.8627,-6945.1890,-6894.1055,-6944.6987,-263.5636,-6978.4219,-6992.7822
25176.4706,-6926.0029,-6995.7002,-6943.9600,-231.8116,-6917.5454,-6893.0879
25196.0784,-6953.0972,-6899.0972,-6948.5615,-267.5072,-6984.8711,-6991.3228
25215.6863,-6924.6528,-6995.7920,-6990.6860,-258.7663,-6916.6348,-6895.3188
25235.2941,-6994.9434,-7202.3477,-7194.5889,-250.4522,-7004.8154,-7116.5693
25254.9020,-7099.5161,-7389.4219,-6830.0132,-184.7271,-7350.6372,-7181.2676
25274.5098,-6478.0669,-5530.4634,-5212.8237,-58.2924,-6973.2373,-6548.2803
25294.1176,-2265.6394,1298.9388,-353.9079,325.4047,-4566.6011,-2824.5630
25313.7255,246.2479,3330.5762,789.2399,783.8361,773.3580,688.3447
25333.3333,-1931.1171,-1932.0858,-1362.3979,484.4502,-4488.3862,-2687.0835
25352.9412,-3206.1963,-2708.0039,-1716.2996,266.7492,-5595.5908,-4543.8062
25372.5490,94.1445,3175.4431,1125.2806,728.4660,545.2151,918.9550
25392.1569,3886.9490,7312.7563,4515.6904,1178.8347,7459.7500,6129.4932
25411.7647,6864.6235,7063.4790,6826.6084,1356.5454,7191.0361,7175.4971
25431.3725,6931.8989,6990.1909,6725.1499,1333.8159,6909.6919,6957.8784
25450.9804,6937.1465,6922.1396,6696.2075,1322.5950,7004.0444,6998.2686
25470.5882,6924.0698,6991.1226,6741.8452,1321.7682,6907.7729,6919.2012
25490.1961,6978.3345,6924.2529,6897.6475,1342.5372,7007.5562,6996.6475
25509.8039,6941.9600,6989.4814,6971.6069,1345.6549,6906.9912,6920.8726
25529.4118,6975.7324,6928.0586,6954.3394,1356.5548,7010.0850,6995.0972
25549.0196,6945.1851,6986.1641,6959.4785,1374.6219,6904.9839,6920.8140
25568.6275,6977.2397,6931.2666,6954.2539,1436.6100,7011.6309,6991.4585
25588.2353,6944.2017,6982.9492,6961.0088,1501.5188,6903.2720,6920.6543
25607.8431,6978.0078,6935.6924,6989.4834,1487.7014,7013.2827,6990.3916
25627.4510,6986.1479,7156.4077,7029.5708,1412.4281,6967.6934,6980.7974
25647.0588,7180.6929,7328.0942,7158.7397,1320.7485,7330.7139,7192.4634
25666.6667,3572.7161,-1743.3826,2801.5886,948.2672,2735.7170,4002.2195
25686.2745,-501.2503,-6377.4468,-803.9817,401.6677,-5382.6724,-1947.7773
25705.8824,-5041.7163,-7425.7446,-4821.0957,-150.9176,-7527.6987,-6722.7813
25725.4902,-7247.5952,-7072.8467,-6961.6606,-294.2877,-7166.9683,-7293.0532
25745.0980,-7118.2036,-6942.6294,-7108.0562,-301.0495,-6992.9512,-7048.0107
25764.7059,-6929.5396,-6955.7529,-6964.9531,-284.1900,-6872.6602,-6908.6563
25784.3137,-6971.5107,-6948.7617,-7013.7119,-282.1459,-6997.1729,-6970.1841
25803.9216,-6981.2822,-7014.5669,-7014.2573,-211.0800,-6873.4824,-6940.4194
25823.5294,-6977.6343,-6931.0557,-6585.2354,-155.2083,-7005.3442,-6964.4688
25843.1373,-6440.8506,-6609.0967,-4983.2153,-80.0162,-6869.3726,-6867.1763
25862.7451,-4780.4121,-5273.9697,-2919.4519,30.6222,-7009.3696,-6162.6216
25882.3529,-4055.6421,-5160.1030,-2623.5239,74.0977,-6758.2275,-5796.0420
25901.9608,-3098.9089,-2748.6113,-1284.1787,260.6974,-5505.1001,-3552.6516
25921.5686,-929.4622,763.8820,61.7368,547.3526,-3096.0051,-1172.8141
25941.1765,100.8205,2778.2944,906.9545,694.6816,-365.5323,411.0969
25960.7843,-191.6948,1023.7017,362.8315,645.4512,-1322.7792,-195.1635
25980.3922,-1310.4568,-1816.6882,-687.9659,502.5197,-4049.7161,-1990.3768
26000.0000,-2010.5402,-3348.8223,-1229.2057,342.5014,-5536.6982,-3030.0044
26019.6078,-578.7955,2372.6484,1024.0009,752.4280,103.9130,-622.8773
26039.2157,1947.2467,5337.2168,2494.3931,926.7168,4759.3481,3273.3523
26058.8235,3037.1658,6010.4795,3415.2537,1080.4397,6074.1216,4857.2354
26078.4314,3750.9885,6063.3647,3969.7173,1135.7881,6224.4819,5752.6035
26098.0392,4022.8843,5863.7871,4181.4014,1143.3865,6136.8818,5680.8062
26117.6471,4796.7954,6548.6792,4922.9800,1208.9075,6804.4736,6268.4170
26137.2549,6695.9526,6918.3877,6549.0117,1303.3689,6886.8281,6987.4424
26156.8627,6974.1733,6996.0898,6688.0034,1312.1071,7021.1904,6996.1074
26176.4706,6579.6191,6917.3501,6258.0103,1269.2451,6902.3540,6872.7729
26196.0784,6070.3467,6316.3618,5570.7031,1240.1486,6938.6094,6545.7236
26215.6863,6289.8481,6640.4922,6048.4224,1251.1304,6905.0747,6714.5483
26235.2941,6745.4282,6888.9746,6439.4858,1312.1569,7017.1060,6913.8247
26254.9020,6930.1318,6929.4507,6838.0098,1315.0576,6886.4482,6952.2090
26274.5098,7015.6357,7007.9717,6968.2612,1346.1509,7025.4365,6988.6343
26294.1176,6925.2881,6919.4980,6952.0000,1351.9620,6890.1655,6935.1665
26313.7255,7059.0322,7039.9199,7033.3398,1353.1927,7042.7119,6994.4897
26333.3333,7089.0488,7301.6377,6826.7925,1312.9526,7020.9209,7118.4336
26352.9412,6420.4829,6154.6753,5860.2085,1241.2506,7449.9507,6840.3301
26372.5490,2288.8545,-759.0052,2024.0094,863.8572,1504.0239,2738.8997
26392.1569,-754.8716,-5870.8901,-2448.3726,91.1543,-5791.3496,-2201.5918
26411.7647,-4658.8481,-7293.8271,-6009.5186,-211.2006,-7404.9468,-6956.1416
26431.3725,-6995.4517,-7019.3203,-6749.9644,-227.8612,-7006.2651,-7008.1851
26450.9804,-7039.4932,-7062.4692,-6342.6372,-175.2521,-7014.0220,-7046.9399
26470.5882,-6139.1489,-6754.6104,-4905.0698,-112.8242,-6847.1436,-6787.3613
26490.1961,-2871.3765,-4902.4175,-1674.0948,146.7509,-6694.1538,-4613.8530
26509.8039,-2978.3413,-5280.0962,-2086.7622,137.9662,-6511.7920,-4984.3721
26529.4118,-5127.1240,-6778.4326,-5843.7354,-153.1111,-7061.7466,-6649.0430
26549.0196,-6881.4683,-6982.7446,-6824.8950,-220.8769,-6903.5850,-7080.1592
26568.6275,-7117.2393,-7059.8882,-7000.6167,-218.0956,-7012.6382,-6994.0249
26588.2353,-6888.3525,-6846.4365,-6657.2280,-168.9737,-6870.6406,-6913.3145
26607.8431,-6904.2036,-7031.0942,-6229.2939,-152.0291,-7011.5674,-6961.0127
26627.4510,-6868.6885,-6844.3066,-6546.5239,-167.0426,-6871.7368,-6912.4727
26647.0588,-7022.1353,-7060.1436,-6923.7930,-207.9807,-7011.4492,-6964.7026
26666.6667,-6922.8062,-6877.3545,-6690.0923,-176.1064,-6887.8774,-6943.6201
26686.2745,-7143.8628,-6752.9619,-5945.1396,-122.8930,-7152.2925,-6998.6499
26705.8824,-6188.0483,-5036.2896,-3660.3757,-13.1919,-6722.0537,-6262.6338
26725.4902,-2031.6865,-27.0776,-866.8992,487.1992,-3812.7200,-2649.8486
26745.0980,-1016.8907,1658.8514,-57.6977,613.6852,-1975.6062,-1343.2664
26764.7059,498.7162,4211.0498,1372.7279,824.3132,2671.2542,1214.5951
26784.3137,1874.7637,5768.7842,2400.5408,991.6145,5084.6245,3190.8655
26803.9216,2100.6855,5590.9609,2491.0447,1021.5179,5754.8872,3574.1284
26823.5294,2401.2336,6208.8647,3195.1599,1072.5056,6338.8477,4046.7876
26843.1373,6542.1670,6784.7935,6452.7114,1297.7753,6910.8433,6723.3130
26862.7451,6984.6152,7102.3530,6830.8633,1375.4465,7063.5186,7074.5723
26882.3529,7000.1343,6868.1816,6967.4468,1382.9116,6902.9272,6970.8091
26901.9608,7038.4482,7077.3887,7007.7598,1417.2769,7028.2734,6991.0405
26921.5686,6912.2134,6839.3975,6949.8765,1464.0780,6891.7676,6935.8774
26941.1765,7014.4258,7077.7988,6976.6685,1528.0769,7024.7744,6979.3862
26960.7843,6907.2256,6833.9873,6935.7427,1561.2446,6890.1650,6935.9746
26980.3922,7013.6509,7079.0396,6976.0425,1697.9386,7025.3647,6977.4668
27000.0000,6908.3672,6831.8794,6936.0317,1750.4963,6890.6011,6934.3931
27019.6078,7013.3506,7081.0278,6975.6289,1773.7343,7024.9165,6976.8955
27039.2157,6908.7456,6830.0151,6936.5073,1701.6934,6891.0630,6934.9951
27058.8235,7015.8350,7219.7876,7012.9512,1569.4814,7025.4414,6976.2622
27078.4314,7035.1289,7188.4604,7115.1328,1360.8562,7167.5615,7078.7603
27098.0392,5289.9653,-2232.6985,3935.1760,1003.2223,3392.5593,5249.5239
27117.6471,1514.3320,-6619.4785,1068.1598,516.0067,-4241.0854,815.7832
27137.2549,-406.0014,-6870.1641,-282.8652,225.8140,-6867.0762,-2078.9343
27156.8627,-1120.7928,-6605.4497,-638.8422,167.2637,-6973.8638,-3175.5906
27176.4706,-1663.7990,-6360.8281,-1213.5267,122.5664,-6782.5669,-4188.8555
27196.0784,-3187.1294,-7078.1733,-3375.3804,-90.4790,-7027.0688,-6176.8115
27215.6863,-6046.5034,-6803.1289,-5953.0874,-165.7970,-6877.1455,-6930.3223
27235.2941,-7106.8091,-7064.3667,-7019.4858,-223.2696,-7000.6113,-6965.8960
27254.9020,-6914.6523,-6806.9722,-6977.2417,-288.0429,-6874.4663,-6919.1919
27274.5098,-6986.6777,-7073.7183,-6963.1006,-338.9622,-6999.6870,-6951.0947
27294.1176,-6887.5044,-6812.6523,-6920.0659,-374.2794,-6873.8584,-6921.6816
27313.7255,-6982.3818,-7073.8975,-6948.1372,-428.6823,-6999.1309,-6952.3159
27333.3333,-6891.0142,-6812.1602,-6924.5234,-352.6559,-6874.8052,-6922.2388
27352.9412,-6982.7705,-7075.0615,-6949.6104,-340.4934,-7000.0713,-6952.3291
27372.5490,-6892.1162,-6811.9395,-6925.4600,-306.9626,-6875.0767,-6922.9126
27392.1569,-6980.9897,-7073.6636,-6959.0205,-266.1217,-6998.3047,-6950.6006
27411.7647,-6905.6523,-6858.5361,-6946.6616,-227.2286,-6875.6382,-6924.8887
27431.3725,-7036.6992,-7148.1641,-7049.8052,-177.8330,-7043.7954,-7005.6450
27450.9804,-6716.2324,-5866.4355,-5082.7769,-105.5172,-7325.5869,-7459.2690
27470.5882,-3628.6406,5098.2837,399.2659,633.5303,-2409.4197,-4033.8623
27490.1961,799.1740,6185.1870,4084.9016,1144.2590,3430.2200,1845.6534
27509.8039,6423.9438,7040.9072,6539.6831,1363.9191,6920.2817,6942.6504
27529.4118,7026.1592,7178.8652,6871.6826,1393.0383,7239.7271,7211.0313
27549.0196,7067.8779,6846.3413,6976.2139,1387.2607,6933.3223,7006.6860
27568.6275,7004.4941,7084.4834,6973.1865,1381.7418,7019.4053,6968.6772
27588.2353,6919.0166,6834.8525,6950.1235,1412.5160,6902.1025,6951.7437
27607.8431,6992.7368,7081.7144,6961.9033,1409.4142,7018.7554,6963.5840
27627.4510,6921.0068,6835.0825,6953.9780,1432.8510,6903.2729,6951.4873
27647.0588,6990.3418,7079.8760,6962.8818,1475.1774,7018.1362,6963.7051
27666.6667,6925.1543,6837.1152,6958.6821,1522.1593,6903.9756,6952.8628
27686.2745,6989.4678,7077.7524,6961.3984,1555.8975,7017.4219,6962.3340
27705.8824,6926.9683,6839.2363,6961.3379,1502.4958,6904.6060,6954.1709
27725.4902,6987.7930,7075.7622,6960.1943,1435.5807,7016.7495,6961.0474
27745.0980,6929.4829,6842.7744,6963.4194,1388.8763,6906.2041,6956.2368
27764.7059,6986.8213,7073.9121,6959.4800,1405.4602,7017.1821,6960.9014
27784.3137,6931.6777,6845.3389,6965.2070,1458.1848,6906.9590,6957.6748
27803.9216,6984.9160,7071.2734,6958.0122,1528.2135,7016.4268,6959.5161
27823.5294,6933.5747,6848.0103,6966.7021,1470.4263,6907.6523,6959.0332
27843.1373,6982.9966,7093.5396,6952.3843,1386.9045,7015.7266,6958.1318
27862.7451,6937.6978,6861.8506,6975.9146,1369.6132,6908.3628,6960.4233
27882.3529,6978.1567,6930.5337,6756.7632,1313.6278,7015.0947,6956.7695
27901.9608,6902.8560,6328.0840,6670.5576,1301.8219,6915.8486,6966.1118
27921.5686,7327.6689,7147.2295,7157.9072,1351.2788,7243.4868,7397.3599
27941.1765,6409.1621,4002.7810,5683.3643,1229.0101,5854.5249,6486.9194
27960.7843,1010.7997,-6530.4917,367.6163,500.9386,-5392.3589,-700.6001
27980.3922,-6423.4927,-7267.3862,-7311.6870,-323.9387,-7295.2642,-7638.2065
28000.0000,-7217.8081,-7109.7314,-7291.4756,-340.3080,-7297.3447,-7186.7881
28019.6078,-7207.6968,-7042.1484,-7048.4634,-259.7087,-6982.5840,-7060.9033
28039.2157,-6916.6948,-6830.9780,-5662.4277,-102.4988,-6885.9316,-6946.9766
28058.8235,-5260.8120,-6751.6924,-3673.4172,-41.5356,-6988.3813,-6717.1543
28078.4314,-3966.6833,-6050.0947,-2625.7961,6.2127,-6883.8032,-6301.9536
28098.0392,-3082.4043,-5778.3735,-1837.4739,79.5707,-6991.1587,-5518.3608
28117.6471,-2631.6531,-5133.2681,-1560.9261,129.9836,-6851.4170,-4964.9897
28137.2549,-2739.6350,-5495.9766,-1849.2758,105.7116,-6997.5122,-4988.1265
28156.8627,-2328.4377,-4840.5977,-1248.1556,168.8695,-6643.0259,-4566.2495
28176.4706,-1226.8125,-3143.2375,-86.2039,319.8931,-6093.8799,-2765.5081
28196.0784,-93.9296,-574.2802,880.9785,476.7660,-4817.3477,-1009.9765
28215.6863,186.3796,-634.4521,1016.1593,546.0840,-4516.8184,-611.7955
28235.2941,-613.0491,-2666.3574,109.4019,425.6554,-5593.2031,-1994.7866
28254.9020,-1840.2791,-4933.3784,-1751.4286,140.2256,-6565.6094,-3892.1621
28274.5098,-4369.8662,-6761.3989,-4039.4133,-78.3428,-6921.9058,-6545.2100
28294.1176,-5768.3223,-7025.3379,-4676.0195,-104.5608,-7035.0576,-6889.5210
28313.7255,-5363.3643,-6816.6040,-4140.9907,-92.4904,-6944.4834,-6911.4678
28333.3333,-3652.3379,-5872.1836,-2248.6111,38.4929,-7400.4248,-5825.0918
28352.9412,-1100.1399,-1004.8581,160.7716,423.4440,-5112.4312,-2426.8208
28372.5490,1537.4945,4517.9619,2581.3860,778.6523,1108.7848,1888.5396
28392.1569,6632.1069,7256.5068,6597.0815,1346.4766,7455.2041,6850.0430
28411.7647,7120.2290,6959.8408,7051.2588,1477.9221,7015.5103,7181.2783
28431.3725,7013.8125,7036.6313,6974.1216,1486.5116,7020.0771,6977.0498
28450.9804,6964.6479,6904.7441,6997.6587,1498.9377,6915.9575,6977.3594
28470.5882,6999.2197,7124.7466,7007.3770,1462.4653,7019.2510,6971.7495
28490.1961,7045.4082,7035.7324,7022.6074,1386.7969,7067.7651,7062.3525
28509.8039,5894.6377,4774.3701,5122.7373,1185.3845,6408.6699,6205.7593
28529.4118,3590.0667,1109.7690,3316.3347,984.7040,3547.9282,4024.9509
28549.0196,2126.0159,-1093.9467,2257.4170,777.3739,-626.5695,1920.4711
28568.6275,985.2211,-3431.5266,1318.6003,594.6589,-4109.3555,-15.5156
28588.2353,-1190.8453,-6017.3638,-755.8099,281.2970,-6334.6860,-3288.5193
28607.8431,-4214.2798,-6966.6807,-3714.2163,-84.4155,-7067.2847,-6859.7661
28627.4510,-7049.3687,-6936.1406,-7026.1704,-284.6839,-6927.5059,-7051.4331
28647.0588,-7006.0000,-6986.2583,-7007.7148,-315.5465,-6980.5166,-6948.4082
28666.6667,-6950.8784,-6892.8853,-6971.7539,-325.6208,-6896.2144,-6971.4492
28686.2745,-6932.9233,-6980.7559,-6914.9927,-253.5594,-6978.9390,-6924.5366
28705.8824,-6947.5781,-6896.2935,-6958.1250,-206.5839,-6895.6157,-6970.0479
28725.4902,-6928.6719,-6977.9980,-6920.6992,-169.7047,-6979.4487,-6923.7256
28745.0980,-6956.6050,-6900.5229,-6885.1807,-155.4926,-6896.0713,-6972.0264
28764.7059,-6968.6729,-7003.6123,-6597.8188,-127.7380,-6978.8516,-6925.7930
28784.3137,-6941.3350,-7004.5215,-5738.5298,-103.4252,-6896.4507,-6999.4624
28803.9216,-6590.0542,-6704.6357,-5269.1567,-82.8891,-6991.4937,-6954.3081
28823.5294,-5279.6650,-5676.2212,-3778.6494,-26.3073,-6879.9341,-6544.9473
28843.1373,-4369.0972,-5127.8750,-2952.4851,41.0979,-6747.1221,-6163.1123
28862.7451,-3432.9534,-3962.6775,-2291.7493,173.8284,-6256.3037,-5289.0918
28882.3529,-4317.3970,-5547.1997,-3304.2471,48.9670,-6888.6245,-6105.5225
28901.9608,-5655.9678,-6592.8535,-4620.4497,-83.0687,-6892.8926,-6819.9893
28921.5686,-6119.0181,-6842.8330,-4749.9492,-79.1465,-7029.0898,-6923.0361
28941.1765,-5536.5132,-6137.3105,-3513.5681,-4.9178,-6939.4478,-6649.5376
28960.7843,-3680.1589,-4602.0293,-2420.2876,139.6878,-6227.4761,-5617.3652
28980.3922,-2838.7463,-2927.3508,-1720.8943,302.1895,-5538.0835,-4461.9507
29000.0000,-1259.9581,1296.5895,-98.3778,568.6342,-1291.8239,-1715.2648
29019.6078,1776.3550,5888.2886,2741.3782,1021.4993,5112.9331,3186.6445
29039.2157,5647.5635,7195.4023,6128.6147,1324.6260,7414.1719,6940.5229
29058.8235,7123.4287,7105.1572,7003.9072,1482.7020,7225.3740,7191.4536
29078.4314,7109.3003,6935.4546,7057.4629,1553.5444,6923.7539,7026.6909
29098.0392,6941.8955,6984.9985,6945.2920,1547.9963,6991.6138,6934.6709
29117.6471,6976.1528,6935.4497,6972.0303,1529.4374,6921.5552,6995.4736
29137.2549,6945.5947,6982.1641,6941.0781,1539.1614,6991.8857,6934.0947
29156.8627,6976.2939,6935.8809,6970.6631,1545.2175,6922.1919,6995.8472
29176.4706,6944.3716,6980.0127,6941.8862,1508.1160,6989.8198,6932.5059
29196.0784,6975.5220,6935.8916,6975.9272,1430.9351,6922.2534,6995.4243
29215.6863,6961.8813,7040.5542,6979.0093,1368.2657,6989.0264,6941.0063
29235.2941,6921.9780,6681.3130,6698.2603,1274.7471,6939.0605,6949.1162
29254.9020,6453.6211,5633.1831,5841.7690,1233.4760,6811.5552,6665.5752
29274.5098,5875.3145,4825.3750,5406.0332,1195.5780,6339.0205,6295.6240
29294.1176,5734.2310,5144.3325,5479.0811,1191.6407,6294.1367,6210.2114
29313.7255,6114.6528,5754.3779,5868.0996,1236.4232,6561.6362,6508.0830
29333.3333,6151.9404,5988.2261,5695.8198,1241.8422,6812.9697,6558.3491
29352.9412,4911.5938,3631.7207,4313.6802,1105.1716,5229.9321,5625.7012
29372.5490,3786.3521,2774.8315,3793.6658,1012.9993,4099.5786,4435.3696
29392.1569,3196.0076,1799.6387,3265.8296,945.0234,2706.0474,3610.2063
29411.7647,2323.7380,55.5783,2515.5020,815.1260,218.1890,2278.4028
29431.3725,1348.5610,-2037.4260,1650.0227,671.7192,-2626.8171,734.9315
29450.9804,-162.1885,-4765.4429,-635.3038,291.1144,-5791.9570,-1610.4114
29470.5882,-4812.2588,-7080.7632,-5320.8740,-145.4451,-7236.6123,-6704.6587
29490.1961,-7056.2979,-6921.3525,-6820.2471,-191.6793,-6941.1470,-7030.8208
29509.8039,-7003.2515,-6965.1875,-6957.9814,-235.6749,-6964.4360,-6914.8804
29529.4118,-6968.1089,-6917.8970,-6979.4409,-260.5592,-6912.4092,-6977.5112
29549.0196,-6923.0332,-6963.7397,-6941.1216,-256.8148,-6962.1738,-6902.2432
29568.6275,-6958.5425,-6915.4082,-6944.6909,-239.4404,-6913.7310,-6978.3350
29588.2353,-6918.5557,-6963.3052,-6954.9194,-175.9555,-6960.8135,-6899.5254
29607.8431,-6956.7217,-6915.8203,-6825.9346,-155.3059,-6915.1255,-6976.3071
29627.4510,-6921.3462,-6963.9312,-6735.7642,-142.0404,-6959.3867,-6898.6733
29647.0588,-6970.3101,-6913.1772,-6444.9902,-120.1270,-6916.5903,-6977.1807
29666.6667,-6837.6055,-6968.4634,-5959.3076,-107.1757,-6957.9536,-6897.7505
29686.2745,-6662.0640,-6873.7471,-5478.5591,-96.9898,-6917.6943,-6977.7212
29705.8824,-6893.1982,-6956.2412,-6786.0825,-185.1778,-6954.5542,-6895.4810
29725.4902,-6986.6133,-6910.9854,-6992.0161,-241.7177,-6917.6416,-6977.3501
29745.0980,-6943.1284,-6985.0063,-6990.6201,-253.2654,-6952.8247,-6893.7563
29764.7059,-7094.0469,-7092.8413,-7190.4766,-180.6556,-7031.7529,-7062.0527
29784.3137,-7164.3481,-7368.8892,-6032.5698,-117.3925,-7302.4199,-7222.2974
29803.9216,-5054.5776,-2706.4063,-3336.9160,78.3962,-7020.5840,-6297.3477
29823.5294,1278.3228,6414.5425,2385.1526,1014.5519,5032.3330,2305.2766
29843.1373,3553.7366,7129.5786,4324.5151,1210.5531,7194.1621,5543.0444
29862.7451,5412.5435,6969.9019,5759.4077,1322.5554,7160.4907,7074.1826
29882.3529,6914.8350,7013.5322,6965.6079,1389.7028,6998.3677,6949.2295
29901.9608,7096.1406,6931.9531,7035.0835,1446.4596,6945.2925,7015.1182
29921.5686,6934.3354,6991.4712,6970.9043,1513.7225,6966.5249,6911.1934
29941.1765,6976.6069,6926.9653,6954.4995,1541.4761,6946.0825,7002.0894
29960.7843,6933.9932,6989.6860,6961.7124,1524.7711,6962.7568,6910.2485
29980.3922,6981.4819,6926.6025,6957.5342,1522.4181,6948.5459,7006.6528
30000.0000,6934.8462,6991.5400,6963.4004,1531.9541,6961.8774,6909.8145
30019.6078,6982.1470,6925.6172,6956.9878,1521.3781,6950.6943,7007.9033
30039.2157,6934.1426,6992.2568,6963.5688,1504.9226,6959.9209,6908.5522
30058.8235,6982.5908,6927.1943,6964.6670,1434.3374,6952.3477,7009.1299
30078.4314,6959.8623,7085.0635,7013.1313,1393.9615,6961.7363,6917.4473
30098.0392,7035.1699,6980.8423,6985.2681,1352.2920,7033.6445,7078.7983
30117.6471,7081.6411,7161.5967,6047.6411,1251.8806,7090.4858,7010.6958
30137.2549,6041.8774,2035.6736,4315.6265,1126.1152,5515.2305,5491.6055
30156.8627,3684.8064,-2404.9397,2331.8855,843.7704,1378.8260,2652.2473
30176.4706,56.2361,-5021.9434,398.5755,478.0383,-5219.9751,-1258.1747
30196.0784,-1435.4783,-6249.5981,-872.3685,242.6405,-6620.9199,-3563.5522
30215.6863,-3347.4346,-6869.1875,-2843.7585,-12.9825,-7046.3315,-6257.7285
30235.2941,-6207.5957,-7000.7666,-5517.7617,-145.3654,-7022.8804,-6917.9883
30254.9020,-6934.2896,-7020.1714,-6821.2705,-220.9143,-6955.3916,-7060.6274
30274.5098,-7122.4316,-6896.8545,-6997.8691,-275.3778,-6943.8237,-7026.1665
30294.1176,-6908.3501,-6976.0757,-6944.3081,-255.8136,-6927.9922,-6879.5776
30313.7255,-6965.0942,-6896.9253,-6934.0928,-243.3439,-6946.1548,-6996.1826
30333.3333,-6910.7949,-6976.8765,-6945.1313,-274.7560,-6926.0586,-6880.4751
30352.9412,-6964.7788,-6896.1279,-6932.1060,-322.4201,-6948.1235,-6997.2515
30372.5490,-6907.9438,-6977.6904,-6941.1885,-372.6938,-6924.1567,-6879.4478
30392.1569,-6966.0688,-6896.4712,-6933.4292,-400.5658,-6950.3462,-6998.5400
30411.7647,-6908.5532,-6979.4448,-6941.9253,-498.7834,-6924.1543,-6880.1665
30431.3725,-6966.6914,-6894.3799,-6933.1050,-513.5667,-6951.5327,-6999.3496
30450.9804,-6907.3765,-6979.5679,-6941.3896,-512.6238,-6921.3164,-6878.6401
30470.5882,-6965.8936,-6893.5923,-6932.7329,-447.4279,-6950.9497,-6998.3467
30490.1961,-6908.8618,-7173.3013,-7020.3770,-348.4329,-6923.4526,-6878.8999
30509.8039,-7174.5835,-7382.9590,-7180.8667,-244.5225,-7333.6313,-7227.0537
30529.4118,-6426.9263,4801.4165,-1616.1986,472.7185,-1208.1699,-6268.0112
30549.0196,917.0457,7040.5850,2597.2871,1112.5161,6156.3394,2987.3743
30568.6275,4509.1592,7430.1001,5451.9355,1354.8687,7497.1558,6860.3472
30588.2353,6341.7524,7020.1943,6498.1455,1373.4296,7161.9336,7095.1187
30607.8431,7048.3223,6907.3594,6870.9517,1386.8182,6972.5356,7081.0596
30627.4510,6968.1099,7008.8794,6974.7095,1424.3503,6937.5488,6892.4595
30647.0588,6988.9390,6910.7017,6952.1826,1525.8652,6978.7485,7018.3711
30666.6667,6924.3486,7006.5967,6962.5566,1512.2588,6936.4165,6894.1841
30686.2745,6989.5503,6908.9976,6956.3389,1476.9980,6979.8823,7019.9790
30705.8824,6924.6997,7007.2690,6960.2114,1418.1758,6935.3267,6894.7578
30725.4902,6991.2671,6908.5371,6955.9141,1378.1106,6980.9458,7021.3311
30745.0980,6924.4766,7008.5044,6961.2041,1370.0814,6934.9170,6894.8086
30764.7059,6992.2222,6908.6157,6955.3481,1422.2051,6982.8223,7022.1133
30784.3137,6925.2725,7012.2002,6968.8550,1450.1082,6934.4419,6894.9907
30803.9216,7006.5933,7104.5220,7043.0298,1417.2067,7013.9951,7032.8687
30823.5294,7091.0972,7012.8164,6910.1992,1340.9117,7110.9360,6987.4614
30843.1373,6951.9033,6603.7441,6202.5537,1253.2906,6924.1294,7005.4614
30862.7451,3728.1348,1457.5686,3068.5547,1061.7645,6374.2803,4784.1548
30882.3529,-193.0448,-4713.1362,-19.8246,645.2979,-2464.1455,-682.4533
30901.9608,-348.8181,-3927.1670,152.9655,594.6235,-3018.2678,-968.3741
30921.5686,-311.6217,-3481.4875,-339.9863,543.3764,-3067.9878,-1010.5320
30941.1765,-1712.7061,-6341.4810,-2314.7126,181.4883,-6518.0391,-3381.4705
30960.7843,-4357.6108,-6941.0791,-5270.2144,-142.6828,-6975.8330,-6771.2461
30980.3922,-7002.9912,-7023.0029,-6745.7427,-207.5780,-7095.3037,-7153.5518
31000.0000,-6944.5166,-6997.5659,-7020.9575,-253.6583,-6914.6099,-6876.5430
31019.6078,-6975.3135,-6882.0859,-6956.6470,-334.6803,-6967.0083,-7001.8540
31039.2157,-6898.6113,-6991.6172,-6942.4897,-377.5137,-6912.8760,-6876.6768
31058.8235,-6976.5840,-6882.4785,-6937.3125,-508.6350,-6962.3291,-6997.6597
31078.4314,-6897.4487,-6993.2676,-6940.0811,-506.4544,-6911.0020,-6876.0889
31098.0392,-6974.9365,-6879.8394,-6937.6177,-480.7386,-6962.1230,-6996.9487
31117.6471,-6898.1797,-6993.9785,-6940.2666,-345.3935,-6911.2246,-6876.8896
31137.2549,-6975.8457,-6880.8594,-6940.0010,-232.8549,-6961.9448,-6996.5864
31156.8627,-6902.2573,-7062.5225,-6986.3906,-190.3636,-6912.5625,-6878.4204
31176.4706,-7049.0200,-7112.6313,-7050.6724,-166.9547,-7049.3169,-7055.2832
31196.0784,-7022.0449,-6526.8213,-6520.2637,-126.2770,-7445.0093,-7051.4609
31215.6863,-2607.4133,4850.2832,-796.3494,623.1318,872.9807,-2360.7751
31235.2941,1894.2179,7340.1313,3089.4053,1165.9575,7536.7969,4381.5288
31254.9020,5926.1240,7183.1841,6582.2363,1383.1956,7242.3315,7419.5269
31274.5098,7231.4741,6923.7241,7072.9624,1427.0154,7054.2319,7146.4790
31294.1176,7027.1904,7015.8496,7035.7725,1448.1433,6940.4590,6968.2549
31313.7255,7031.3950,6895.0215,6976.5234,1455.1471,6976.3057,7014.3369
31333.3333,6916.4634,7017.2632,6955.2627,1479.1039,6936.9204,6901.0991
31352.9412,6999.4390,6894.3828,6958.5273,1486.1525,6978.3828,7008.8784
31372.5490,6915.8271,7017.8125,6956.1313,1472.0337,6937.7754,6903.3560
31392.1569,6999.7139,6893.7764,6955.2915,1465.2158,6977.4814,7007.4751
31411.7647,6915.2217,7018.3438,6956.1196,1463.9940,6938.7261,6904.7212
31431.3725,7001.1167,6894.6147,6956.0449,1499.3333,6978.1675,7007.1704
31450.9804,6914.5010,7018.5044,6956.8501,1519.8667,6939.4185,6905.8701
31470.5882,7072.9409,7069.4756,7052.1206,1440.3815,6995.5562,7046.8203
31490.1961,7030.4526,7188.3594,7070.2256,1360.8458,7105.5791,7033.1348
31509.8039,7184.9360,6960.8506,6650.6206,1250.4816,7292.5884,7287.4575
31529.4118,3978.4141,36.7864,3044.5122,1063.7345,6256.2871,5203.1021
31549.0196,950.7228,-4569.8682,613.7659,724.4517,-857.1631,724.0188
31568.6275,-4741.1841,-7069.6621,-4470.9663,-55.3430,-7483.1538,-6281.4941
31588.2353,-7242.3081,-7060.3394,-6974.0068,-350.5126,-7048.6270,-7202.8350
31607.8431,-7152.6431,-6882.0630,-7133.1035,-463.4753,-6963.2251,-7084.8481
31627.4510,-6898.3364,-6999.5166,-6951.6870,-484.4564,-6923.4385,-6891.3096
31647.0588,-6988.4922,-6871.8447,-6940.0366,-475.4991,-6946.4365,-6976.3247
31666.6667,-6887.8540,-6996.8696,-6937.9644,-400.3634,-6915.1387,-6895.7446
31686.2745,-6982.5195,-6870.3477,-6937.3989,-250.6006,-6944.0337,-6977.5518
31705.8824,-6888.4478,-7003.8047,-6951.1392,-203.3128,-6916.7036,-6895.8330
31725.4902,-7010.1045,-7085.6587,-7104.0459,-175.7732,-6956.2466,-6991.9043
31745.0980,-7136.7749,-7441.8311,-6880.2778,-174.3004,-7486.2690,-7277.1353
31764.7059,-6920.2231,-5907.2646,-6142.6147,-77.8653,-6963.2710,-7013.7793
31784.3137,-4289.4468,-611.0388,-2188.0305,147.5657,-5168.8911,-5225.9414
31803.9216,5881.2974,7135.2417,6621.7847,1368.0714,6860.6030,7186.9019
31823.5294,7147.5747,7053.8477,6960.9922,1401.8728,7299.0015,7227.2334
31843.1373,7133.8418,7037.3276,6663.0806,1334.0356,6986.9668,7052.2461
31862.7451,6674.7739,6824.6108,5863.1274,1279.9766,6962.2090,7100.4932
31882.3529,4331.6694,6753.2568,4079.8230,1186.9481,6951.6631,6267.5122
31901.9608,3162.5464,5636.1738,3071.0837,1115.1284,6867.6758,4949.4229
31921.5686,3674.1917,6336.2085,3907.2515,1165.8958,6797.9224,6003.0562
31941.1765,4019.3940,6041.1812,4065.0071,1185.3381,6738.0317,5961.4463
31960.7843,3269.8313,5452.8843,3355.7017,1124.7806,6310.8584,5238.2251
31980.3922,2801.4265,4904.7275,2780.9106,1068.4330,6174.5708,4701.4961
32000.0000,2678.5962,5801.0142,3332.5662,1108.6462,6606.3130,4596.5962
32019.6078,4329.3936,6697.2334,4495.0986,1212.5667,7013.7588,6347.7041
32039.2157,5723.9272,6856.4209,5600.6055,1272.4932,6944.6807,6735.6377
32058.8235,5591.9629,6567.9731,5361.7012,1253.8079,7069.2744,6675.7847
32078.4314,4111.1748,5552.0781,4008.7759,1166.4208,6496.8926,5738.7153
32098.0392,2925.2366,4371.8232,2877.9834,1052.9860,5745.3594,4786.5493
32117.6471,3011.9209,5373.7754,3568.2312,1121.1851,6623.6938,4986.7070
32137.2549,3035.9004,4783.6094,2940.6572,1096.1436,6637.3706,4637.7729
32156.8627,-3366.1265,-6276.7656,-3006.9053,167.9129,-6394.0068,-5132.0200
32176.4706,-5607.6738,-7306.2656,-5052.5850,-127.6976,-7337.4907,-6992.3169
32196.0784,-6076.6875,-6938.4800,-5115.5435,-141.2670,-7152.6914,-6997.5474
32215.6863,-5315.4209,-6627.7397,-4273.2441,-56.4794,-6926.7808,-6367.1187
32235.2941,-4962.1021,-6158.7227,-3872.1738,-8.6294,-6922.5161,-6203.2271
32254.9020,-4992.0596,-6374.7319,-4174.2676,-28.3306,-6882.7661,-6276.7490
32274.5098,-5773.2974,-6332.3042,-4406.4053,-62.8057,-7150.5571,-6539.4463
32294.1176,-4605.0752,-5535.2236,-3474.9553,26.9615,-6557.7368,-5878.9521
32313.7255,-2944.6338,-2597.9109,-1694.1384,302.0040,-4934.6548,-3745.6938
32333.3333,-715.3884,2196.0601,213.4944,712.2776,-30.9147,-406.7949
32352.9412,1217.8201,5200.9702,2005.2529,941.7140,4996.5190,2612.3303
32372.5490,3002.0098,6569.5996,3921.1492,1184.4548,6638.7202,5304.6646
32392.1569,1713.6248,-1122.7070,19.5704,823.2513,-352.3358,27.7314
32411.7647,-4821.5303,-6736.5005,-4629.0640,48.5810,-6720.5410,-6181.2192
32431.3725,-7362.4849,-7693.8076,-6796.3872,-244.0686,-7652.0234,-7547.9946
32450.9804,-7115.1060,-7298.5078,-6453.5884,-214.0070,-7371.5313,-7353.4922
32470.5882,-5294.5825,-5423.2256,-3619.5874,-44.3202,-6880.6538,-6116.4570
32490.1961,-35.2982,4776.8457,3538.6318,1068.2777,2407.1802,997.1342
